year    month   day   hour  minute  B_enl V_enl   n_enl       T_enl
[year] [month] [day] [hour][minute] [nT]  [km/s]  [cm-3]      [kK]
2015    7        6     0   4    4.5391   548.3    3.696      47.165
2015    7        6     0  10    4.5376   548.2    3.695      47.155
2015    7        6     0  16    4.5360   548.2    3.695      47.146
2015    7        6     0  22    4.5344   548.2    3.695      47.138
2015    7        6     0  27    4.5328   548.1    3.694      47.129
2015    7        6     0  33    4.5312   548.1    3.694      47.120
2015    7        6     0  39    4.5296   548.1    3.694      47.112
2015    7        6     0  45    4.5280   548.1    3.693      47.103
2015    7        6     0  50    4.5264   548.0    3.693      47.095
2015    7        6     0  56    4.5248   548.0    3.693      47.086
2015    7        6     1   2    4.5232   548.0    3.692      47.077
2015    7        6     1   8    4.5216   547.9    3.692      47.067
2015    7        6     1  14    4.5201   547.9    3.692      47.057
2015    7        6     1  19    4.5185   547.9    3.691      47.047
2015    7        6     1  25    4.5169   547.8    3.691      47.037
2015    7        6     1  31    4.5153   547.8    3.691      47.027
2015    7        6     1  37    4.5138   547.8    3.690      47.016
2015    7        6     1  43    4.5122   547.7    3.690      47.005
2015    7        6     1  48    4.5107   547.7    3.689      46.993
2015    7        6     1  54    4.5092   547.7    3.689      46.982
2015    7        6     2   0    4.5077   547.6    3.689      46.971
2015    7        6     2   6    4.5062   547.6    3.688      46.959
2015    7        6     2  11    4.5048   547.5    3.688      46.948
2015    7        6     2  17    4.5034   547.5    3.688      46.936
2015    7        6     2  23    4.5020   547.5    3.688      46.925
2015    7        6     2  29    4.5006   547.4    3.688      46.913
2015    7        6     2  35    4.4993   547.4    3.688      46.902
2015    7        6     2  40    4.4979   547.4    3.687      46.891
2015    7        6     2  46    4.4966   547.3    3.687      46.880
2015    7        6     2  52    4.4953   547.3    3.688      46.869
2015    7        6     2  58    4.4940   547.3    3.688      46.858
2015    7        6     3   4    4.4927   547.2    3.688      46.848
2015    7        6     3   9    4.4915   547.2    3.688      46.838
2015    7        6     3  15    4.4902   547.1    3.688      46.829
2015    7        6     3  21    4.4889   547.1    3.689      46.820
2015    7        6     3  27    4.4876   547.1    3.689      46.812
2015    7        6     3  32    4.4863   547.0    3.689      46.804
2015    7        6     3  38    4.4850   547.0    3.690      46.797
2015    7        6     3  44    4.4836   547.0    3.690      46.790
2015    7        6     3  50    4.4823   546.9    3.691      46.783
2015    7        6     3  56    4.4810   546.9    3.691      46.776
2015    7        6     4   1    4.4796   546.9    3.691      46.769
2015    7        6     4   7    4.4782   546.9    3.691      46.762
2015    7        6     4  13    4.4768   546.8    3.692      46.755
2015    7        6     4  19    4.4755   546.8    3.692      46.747
2015    7        6     4  25    4.4741   546.8    3.692      46.739
2015    7        6     4  30    4.4726   546.7    3.692      46.731
2015    7        6     4  36    4.4712   546.7    3.692      46.722
2015    7        6     4  42    4.4698   546.6    3.692      46.713
2015    7        6     4  48    4.4683   546.6    3.691      46.704
2015    7        6     4  53    4.4669   546.6    3.691      46.694
2015    7        6     4  59    4.4654   546.5    3.691      46.684
2015    7        6     5   5    4.4639   546.5    3.691      46.674
2015    7        6     5  11    4.4624   546.4    3.690      46.663
2015    7        6     5  17    4.4610   546.4    3.690      46.652
2015    7        6     5  22    4.4595   546.4    3.689      46.640
2015    7        6     5  28    4.4580   546.3    3.689      46.629
2015    7        6     5  34    4.4565   546.3    3.688      46.616
2015    7        6     5  40    4.4550   546.2    3.687      46.603
2015    7        6     5  46    4.4535   546.2    3.687      46.590
2015    7        6     5  51    4.4521   546.1    3.686      46.577
2015    7        6     5  57    4.4506   546.1    3.685      46.564
2015    7        6     6   3    4.4491   546.0    3.684      46.550
2015    7        6     6   9    4.4477   546.0    3.684      46.536
2015    7        6     6  14    4.4463   545.9    3.683      46.523
2015    7        6     6  20    4.4448   545.9    3.682      46.509
2015    7        6     6  26    4.4434   545.8    3.681      46.495
2015    7        6     6  32    4.4420   545.8    3.681      46.481
2015    7        6     6  38    4.4406   545.7    3.680      46.467
2015    7        6     6  43    4.4392   545.7    3.679      46.453
2015    7        6     6  49    4.4378   545.6    3.678      46.439
2015    7        6     6  55    4.4365   545.6    3.678      46.425
2015    7        6     7   1    4.4351   545.5    3.677      46.410
2015    7        6     7   7    4.4338   545.5    3.676      46.396
2015    7        6     7  12    4.4325   545.4    3.675      46.382
2015    7        6     7  18    4.4312   545.4    3.674      46.367
2015    7        6     7  24    4.4299   545.3    3.673      46.353
2015    7        6     7  30    4.4286   545.3    3.673      46.338
2015    7        6     7  35    4.4273   545.2    3.672      46.322
2015    7        6     7  41    4.4260   545.2    3.671      46.307
2015    7        6     7  47    4.4248   545.1    3.670      46.291
2015    7        6     7  53    4.4235   545.1    3.669      46.275
2015    7        6     7  59    4.4223   545.0    3.668      46.259
2015    7        6     8   4    4.4211   545.0    3.667      46.243
2015    7        6     8  10    4.4199   544.9    3.666      46.226
2015    7        6     8  16    4.4187   544.8    3.666      46.209
2015    7        6     8  22    4.4175   544.8    3.665      46.191
2015    7        6     8  28    4.4164   544.7    3.664      46.173
2015    7        6     8  33    4.4152   544.7    3.663      46.156
2015    7        6     8  39    4.4140   544.6    3.662      46.138
2015    7        6     8  45    4.4129   544.6    3.661      46.120
2015    7        6     8  51    4.4118   544.5    3.660      46.101
2015    7        6     8  56    4.4107   544.4    3.659      46.083
2015    7        6     9   2    4.4096   544.4    3.659      46.065
2015    7        6     9   8    4.4085   544.3    3.658      46.046
2015    7        6     9  14    4.4074   544.3    3.657      46.028
2015    7        6     9  20    4.4063   544.2    3.656      46.010
2015    7        6     9  25    4.4053   544.2    3.656      45.992
2015    7        6     9  31    4.4043   544.1    3.655      45.975
2015    7        6     9  37    4.4032   544.0    3.655      45.958
2015    7        6     9  43    4.4022   544.0    3.654      45.941
2015    7        6     9  49    4.4012   543.9    3.654      45.925
2015    7        6     9  54    4.4002   543.9    3.654      45.909
2015    7        6    10   0    4.3992   543.8    3.653      45.894
2015    7        6    10   6    4.3982   543.8    3.653      45.880
2015    7        6    10  12    4.3971   543.7    3.653      45.866
2015    7        6    10  17    4.3961   543.7    3.653      45.853
2015    7        6    10  23    4.3950   543.6    3.654      45.840
2015    7        6    10  29    4.3940   543.6    3.654      45.829
2015    7        6    10  35    4.3928   543.5    3.654      45.818
2015    7        6    10  41    4.3917   543.5    3.655      45.809
2015    7        6    10  46    4.3906   543.4    3.656      45.800
2015    7        6    10  52    4.3894   543.4    3.656      45.792
2015    7        6    10  58    4.3882   543.4    3.657      45.784
2015    7        6    11   4    4.3869   543.3    3.657      45.777
2015    7        6    11  10    4.3856   543.3    3.658      45.771
2015    7        6    11  15    4.3843   543.2    3.659      45.764
2015    7        6    11  21    4.3830   543.2    3.659      45.758
2015    7        6    11  27    4.3816   543.2    3.660      45.752
2015    7        6    11  33    4.3802   543.1    3.661      45.746
2015    7        6    11  38    4.3788   543.1    3.661      45.740
2015    7        6    11  44    4.3774   543.0    3.662      45.733
2015    7        6    11  50    4.3759   543.0    3.662      45.726
2015    7        6    11  56    4.3745   542.9    3.663      45.719
2015    7        6    12   2    4.3730   542.9    3.663      45.712
2015    7        6    12   7    4.3714   542.8    3.663      45.704
2015    7        6    12  13    4.3699   542.8    3.663      45.695
2015    7        6    12  19    4.3683   542.7    3.664      45.687
2015    7        6    12  25    4.3668   542.7    3.664      45.678
2015    7        6    12  31    4.3652   542.6    3.664      45.668
2015    7        6    12  36    4.3636   542.6    3.664      45.658
2015    7        6    12  42    4.3621   542.5    3.664      45.647
2015    7        6    12  48    4.3605   542.4    3.664      45.636
2015    7        6    12  54    4.3589   542.4    3.664      45.625
2015    7        6    12  59    4.3573   542.3    3.664      45.613
2015    7        6    13   5    4.3557   542.2    3.664      45.601
2015    7        6    13  11    4.3542   542.2    3.663      45.588
2015    7        6    13  17    4.3526   542.1    3.663      45.576
2015    7        6    13  23    4.3510   542.0    3.663      45.563
2015    7        6    13  28    4.3495   542.0    3.663      45.549
2015    7        6    13  34    4.3480   541.9    3.663      45.536
2015    7        6    13  40    4.3465   541.8    3.663      45.523
2015    7        6    13  46    4.3450   541.8    3.662      45.509
2015    7        6    13  52    4.3435   541.7    3.662      45.495
2015    7        6    13  57    4.3421   541.6    3.662      45.481
2015    7        6    14   3    4.3407   541.5    3.662      45.467
2015    7        6    14   9    4.3393   541.5    3.661      45.453
2015    7        6    14  15    4.3380   541.4    3.661      45.439
2015    7        6    14  20    4.3366   541.3    3.661      45.425
2015    7        6    14  26    4.3354   541.2    3.661      45.410
2015    7        6    14  32    4.3341   541.2    3.661      45.396
2015    7        6    14  38    4.3329   541.1    3.660      45.382
2015    7        6    14  44    4.3317   541.0    3.660      45.367
2015    7        6    14  49    4.3305   540.9    3.660      45.353
2015    7        6    14  55    4.3294   540.9    3.660      45.339
2015    7        6    15   1    4.3284   540.8    3.660      45.324
2015    7        6    15   7    4.3273   540.7    3.659      45.310
2015    7        6    15  13    4.3263   540.6    3.659      45.296
2015    7        6    15  18    4.3253   540.5    3.659      45.282
2015    7        6    15  24    4.3244   540.5    3.659      45.269
2015    7        6    15  30    4.3234   540.4    3.659      45.255
2015    7        6    15  36    4.3224   540.3    3.659      45.242
2015    7        6    15  41    4.3215   540.2    3.659      45.229
2015    7        6    15  47    4.3205   540.2    3.658      45.216
2015    7        6    15  53    4.3196   540.1    3.658      45.203
2015    7        6    15  59    4.3186   540.0    3.658      45.189
2015    7        6    16   5    4.3176   540.0    3.658      45.176
2015    7        6    16  10    4.3166   539.9    3.657      45.162
2015    7        6    16  16    4.3155   539.8    3.657      45.148
2015    7        6    16  22    4.3145   539.7    3.657      45.134
2015    7        6    16  28    4.3134   539.7    3.656      45.119
2015    7        6    16  34    4.3124   539.6    3.656      45.104
2015    7        6    16  39    4.3113   539.5    3.655      45.088
2015    7        6    16  45    4.3101   539.4    3.655      45.072
2015    7        6    16  51    4.3090   539.4    3.654      45.056
2015    7        6    16  57    4.3078   539.3    3.654      45.040
2015    7        6    17   2    4.3067   539.2    3.653      45.023
2015    7        6    17   8    4.3055   539.1    3.652      45.007
2015    7        6    17  14    4.3042   539.1    3.652      44.990
2015    7        6    17  20    4.3030   539.0    3.651      44.972
2015    7        6    17  26    4.3018   538.9    3.651      44.955
2015    7        6    17  31    4.3005   538.8    3.650      44.938
2015    7        6    17  37    4.2992   538.8    3.650      44.920
2015    7        6    17  43    4.2979   538.7    3.649      44.902
2015    7        6    17  49    4.2965   538.6    3.648      44.884
2015    7        6    17  55    4.2951   538.5    3.648      44.866
2015    7        6    18   0    4.2937   538.5    3.647      44.848
2015    7        6    18   6    4.2923   538.4    3.647      44.830
2015    7        6    18  12    4.2909   538.3    3.646      44.811
2015    7        6    18  18    4.2894   538.2    3.646      44.793
2015    7        6    18  23    4.2879   538.2    3.645      44.774
2015    7        6    18  29    4.2864   538.1    3.644      44.755
2015    7        6    18  35    4.2849   538.0    3.644      44.736
2015    7        6    18  41    4.2833   537.9    3.643      44.717
2015    7        6    18  47    4.2818   537.8    3.643      44.697
2015    7        6    18  52    4.2802   537.8    3.642      44.678
2015    7        6    18  58    4.2786   537.7    3.642      44.658
2015    7        6    19   4    4.2770   537.6    3.641      44.638
2015    7        6    19  10    4.2754   537.5    3.641      44.618
2015    7        6    19  16    4.2738   537.4    3.640      44.597
2015    7        6    19  21    4.2721   537.3    3.639      44.576
2015    7        6    19  27    4.2705   537.2    3.639      44.555
2015    7        6    19  33    4.2688   537.1    3.638      44.534
2015    7        6    19  39    4.2672   537.1    3.638      44.513
2015    7        6    19  44    4.2655   537.0    3.637      44.492
2015    7        6    19  50    4.2638   536.9    3.637      44.470
2015    7        6    19  56    4.2622   536.8    3.636      44.448
2015    7        6    20   2    4.2605   536.7    3.636      44.426
2015    7        6    20   8    4.2589   536.6    3.635      44.405
2015    7        6    20  13    4.2572   536.5    3.635      44.383
2015    7        6    20  19    4.2556   536.4    3.634      44.361
2015    7        6    20  25    4.2539   536.3    3.634      44.340
2015    7        6    20  31    4.2523   536.2    3.633      44.318
2015    7        6    20  37    4.2507   536.1    3.633      44.296
2015    7        6    20  42    4.2491   536.0    3.633      44.275
2015    7        6    20  48    4.2475   535.9    3.632      44.254
2015    7        6    20  54    4.2460   535.8    3.632      44.234
2015    7        6    21   0    4.2444   535.6    3.632      44.213
2015    7        6    21   5    4.2429   535.5    3.632      44.193
2015    7        6    21  11    4.2415   535.4    3.632      44.173
2015    7        6    21  17    4.2400   535.3    3.632      44.154
2015    7        6    21  23    4.2386   535.2    3.632      44.136
2015    7        6    21  29    4.2372   535.1    3.632      44.117
2015    7        6    21  34    4.2359   535.0    3.632      44.100
2015    7        6    21  40    4.2345   534.9    3.633      44.083
2015    7        6    21  46    4.2332   534.8    3.633      44.066
2015    7        6    21  52    4.2320   534.7    3.634      44.050
2015    7        6    21  58    4.2308   534.6    3.634      44.034
2015    7        6    22   3    4.2296   534.5    3.635      44.019
2015    7        6    22   9    4.2284   534.3    3.635      44.005
2015    7        6    22  15    4.2273   534.2    3.636      43.991
2015    7        6    22  21    4.2262   534.1    3.637      43.977
2015    7        6    22  26    4.2251   534.0    3.638      43.965
2015    7        6    22  32    4.2241   533.9    3.639      43.953
2015    7        6    22  38    4.2230   533.8    3.640      43.941
2015    7        6    22  44    4.2220   533.7    3.641      43.930
2015    7        6    22  50    4.2210   533.6    3.642      43.920
2015    7        6    22  55    4.2199   533.5    3.643      43.910
2015    7        6    23   1    4.2189   533.4    3.644      43.901
2015    7        6    23   7    4.2179   533.3    3.645      43.893
2015    7        6    23  13    4.2168   533.2    3.647      43.884
2015    7        6    23  19    4.2157   533.1    3.648      43.876
2015    7        6    23  24    4.2146   533.0    3.649      43.868
2015    7        6    23  30    4.2135   532.9    3.650      43.860
2015    7        6    23  36    4.2123   532.8    3.651      43.852
2015    7        6    23  42    4.2111   532.6    3.653      43.844
2015    7        6    23  47    4.2099   532.5    3.654      43.835
2015    7        6    23  53    4.2086   532.4    3.655      43.826
2015    7        6    23  59    4.2073   532.3    3.655      43.816
2015    7        7     0   5    4.2060   532.2    3.656      43.806
2015    7        7     0  11    4.2046   532.1    3.657      43.796
2015    7        7     0  16    4.2032   532.0    3.658      43.785
2015    7        7     0  22    4.2018   531.9    3.659      43.774
2015    7        7     0  28    4.2004   531.8    3.659      43.762
2015    7        7     0  34    4.1990   531.7    3.660      43.750
2015    7        7     0  40    4.1975   531.6    3.661      43.737
2015    7        7     0  45    4.1961   531.5    3.661      43.724
2015    7        7     0  51    4.1946   531.3    3.662      43.710
2015    7        7     0  57    4.1931   531.2    3.662      43.696
2015    7        7     1   3    4.1916   531.1    3.663      43.682
2015    7        7     1   8    4.1901   531.0    3.663      43.667
2015    7        7     1  14    4.1886   530.9    3.663      43.652
2015    7        7     1  20    4.1871   530.8    3.664      43.636
2015    7        7     1  26    4.1855   530.6    3.664      43.621
2015    7        7     1  32    4.1840   530.5    3.664      43.605
2015    7        7     1  37    4.1825   530.4    3.665      43.588
2015    7        7     1  43    4.1809   530.3    3.665      43.572
2015    7        7     1  49    4.1794   530.2    3.665      43.555
2015    7        7     1  55    4.1778   530.0    3.665      43.538
2015    7        7     2   1    4.1762   529.9    3.665      43.520
2015    7        7     2   6    4.1746   529.8    3.666      43.503
2015    7        7     2  12    4.1731   529.7    3.666      43.485
2015    7        7     2  18    4.1715   529.5    3.666      43.467
2015    7        7     2  24    4.1699   529.4    3.666      43.449
2015    7        7     2  29    4.1683   529.3    3.666      43.430
2015    7        7     2  35    4.1667   529.2    3.666      43.411
2015    7        7     2  41    4.1651   529.1    3.666      43.392
2015    7        7     2  47    4.1635   528.9    3.665      43.373
2015    7        7     2  53    4.1619   528.8    3.665      43.353
2015    7        7     2  58    4.1603   528.7    3.665      43.333
2015    7        7     3   4    4.1587   528.5    3.665      43.313
2015    7        7     3  10    4.1571   528.4    3.665      43.292
2015    7        7     3  16    4.1555   528.3    3.664      43.271
2015    7        7     3  21    4.1539   528.2    3.664      43.249
2015    7        7     3  27    4.1523   528.0    3.664      43.227
2015    7        7     3  33    4.1507   527.9    3.663      43.205
2015    7        7     3  39    4.1491   527.8    3.663      43.182
2015    7        7     3  45    4.1475   527.6    3.662      43.159
2015    7        7     3  50    4.1459   527.5    3.662      43.135
2015    7        7     3  56    4.1443   527.4    3.662      43.112
2015    7        7     4   2    4.1428   527.2    3.661      43.088
2015    7        7     4   8    4.1412   527.1    3.661      43.064
2015    7        7     4  13    4.1397   527.0    3.660      43.040
2015    7        7     4  19    4.1381   526.8    3.660      43.016
2015    7        7     4  25    4.1366   526.7    3.660      42.992
2015    7        7     4  31    4.1351   526.6    3.659      42.967
2015    7        7     4  37    4.1336   526.4    3.659      42.943
2015    7        7     4  42    4.1321   526.3    3.659      42.919
2015    7        7     4  48    4.1307   526.1    3.658      42.895
2015    7        7     4  54    4.1292   526.0    3.658      42.870
2015    7        7     5   0    4.1278   525.9    3.658      42.846
2015    7        7     5   5    4.1263   525.7    3.658      42.822
2015    7        7     5  11    4.1249   525.6    3.658      42.799
2015    7        7     5  17    4.1235   525.5    3.658      42.775
2015    7        7     5  23    4.1221   525.3    3.658      42.752
2015    7        7     5  29    4.1207   525.2    3.658      42.728
2015    7        7     5  34    4.1193   525.0    3.658      42.705
2015    7        7     5  40    4.1179   524.9    3.658      42.682
2015    7        7     5  46    4.1166   524.8    3.658      42.659
2015    7        7     5  52    4.1152   524.6    3.658      42.637
2015    7        7     5  57    4.1138   524.5    3.658      42.614
2015    7        7     6   3    4.1125   524.3    3.659      42.592
2015    7        7     6   9    4.1111   524.2    3.659      42.570
2015    7        7     6  15    4.1098   524.1    3.659      42.548
2015    7        7     6  21    4.1084   523.9    3.660      42.526
2015    7        7     6  26    4.1070   523.8    3.660      42.505
2015    7        7     6  32    4.1056   523.6    3.661      42.483
2015    7        7     6  38    4.1043   523.5    3.661      42.462
2015    7        7     6  44    4.1029   523.3    3.662      42.441
2015    7        7     6  50    4.1015   523.2    3.662      42.420
2015    7        7     6  55    4.1001   523.0    3.663      42.399
2015    7        7     7   1    4.0987   522.9    3.664      42.378
2015    7        7     7   7    4.0973   522.7    3.664      42.358
2015    7        7     7  13    4.0959   522.6    3.665      42.337
2015    7        7     7  18    4.0945   522.4    3.666      42.317
2015    7        7     7  24    4.0930   522.3    3.667      42.297
2015    7        7     7  30    4.0916   522.1    3.667      42.278
2015    7        7     7  36    4.0902   522.0    3.668      42.258
2015    7        7     7  42    4.0888   521.8    3.669      42.239
2015    7        7     7  47    4.0873   521.6    3.670      42.220
2015    7        7     7  53    4.0859   521.5    3.671      42.201
2015    7        7     7  59    4.0845   521.3    3.672      42.182
2015    7        7     8   5    4.0831   521.2    3.674      42.164
2015    7        7     8  10    4.0817   521.0    3.675      42.147
2015    7        7     8  16    4.0803   520.9    3.676      42.129
2015    7        7     8  22    4.0789   520.7    3.677      42.112
2015    7        7     8  28    4.0775   520.5    3.679      42.096
2015    7        7     8  34    4.0761   520.4    3.680      42.079
2015    7        7     8  39    4.0748   520.2    3.682      42.064
2015    7        7     8  45    4.0734   520.1    3.683      42.048
2015    7        7     8  51    4.0720   519.9    3.685      42.033
2015    7        7     8  57    4.0707   519.7    3.686      42.019
2015    7        7     9   3    4.0693   519.6    3.688      42.005
2015    7        7     9   8    4.0680   519.4    3.690      41.991
2015    7        7     9  14    4.0667   519.3    3.692      41.977
2015    7        7     9  20    4.0653   519.1    3.693      41.964
2015    7        7     9  26    4.0640   519.0    3.695      41.951
2015    7        7     9  31    4.0626   518.8    3.697      41.938
2015    7        7     9  37    4.0612   518.6    3.699      41.926
2015    7        7     9  43    4.0598   518.5    3.701      41.914
2015    7        7     9  49    4.0585   518.3    3.702      41.902
2015    7        7     9  55    4.0571   518.2    3.704      41.890
2015    7        7    10   0    4.0557   518.0    3.706      41.878
2015    7        7    10   6    4.0543   517.9    3.708      41.866
2015    7        7    10  12    4.0529   517.7    3.709      41.853
2015    7        7    10  18    4.0515   517.5    3.711      41.841
2015    7        7    10  23    4.0501   517.4    3.712      41.829
2015    7        7    10  29    4.0487   517.2    3.714      41.816
2015    7        7    10  35    4.0473   517.1    3.715      41.803
2015    7        7    10  41    4.0459   516.9    3.717      41.790
2015    7        7    10  47    4.0445   516.7    3.718      41.777
2015    7        7    10  52    4.0431   516.6    3.719      41.763
2015    7        7    10  58    4.0417   516.4    3.721      41.749
2015    7        7    11   4    4.0403   516.3    3.722      41.735
2015    7        7    11  10    4.0389   516.1    3.723      41.720
2015    7        7    11  15    4.0374   515.9    3.724      41.705
2015    7        7    11  21    4.0360   515.8    3.725      41.690
2015    7        7    11  27    4.0346   515.6    3.726      41.674
2015    7        7    11  33    4.0332   515.4    3.727      41.658
2015    7        7    11  39    4.0318   515.3    3.728      41.642
2015    7        7    11  44    4.0304   515.1    3.729      41.625
2015    7        7    11  50    4.0290   515.0    3.730      41.608
2015    7        7    11  56    4.0276   514.8    3.730      41.590
2015    7        7    12   2    4.0262   514.6    3.731      41.572
2015    7        7    12   7    4.0248   514.5    3.732      41.554
2015    7        7    12  13    4.0234   514.3    3.732      41.535
2015    7        7    12  19    4.0220   514.1    3.733      41.516
2015    7        7    12  25    4.0206   514.0    3.734      41.497
2015    7        7    12  31    4.0193   513.8    3.734      41.477
2015    7        7    12  36    4.0179   513.7    3.735      41.457
2015    7        7    12  42    4.0165   513.5    3.735      41.437
2015    7        7    12  48    4.0152   513.3    3.736      41.416
2015    7        7    12  54    4.0138   513.2    3.736      41.395
2015    7        7    13   0    4.0124   513.0    3.736      41.373
2015    7        7    13   5    4.0111   512.8    3.737      41.351
2015    7        7    13  11    4.0097   512.7    3.737      41.329
2015    7        7    13  17    4.0083   512.5    3.737      41.306
2015    7        7    13  23    4.0070   512.3    3.738      41.283
2015    7        7    13  28    4.0056   512.2    3.738      41.260
2015    7        7    13  34    4.0042   512.0    3.738      41.237
2015    7        7    13  40    4.0029   511.8    3.738      41.213
2015    7        7    13  46    4.0015   511.7    3.738      41.189
2015    7        7    13  52    4.0002   511.5    3.739      41.165
2015    7        7    13  57    3.9988   511.3    3.739      41.141
2015    7        7    14   3    3.9975   511.2    3.739      41.116
2015    7        7    14   9    3.9962   511.0    3.739      41.091
2015    7        7    14  15    3.9948   510.8    3.739      41.066
2015    7        7    14  20    3.9935   510.6    3.740      41.041
2015    7        7    14  26    3.9921   510.5    3.740      41.016
2015    7        7    14  32    3.9908   510.3    3.740      40.991
2015    7        7    14  38    3.9895   510.1    3.740      40.965
2015    7        7    14  44    3.9882   510.0    3.741      40.940
2015    7        7    14  49    3.9868   509.8    3.741      40.915
2015    7        7    14  55    3.9855   509.6    3.742      40.890
2015    7        7    15   1    3.9842   509.4    3.742      40.865
2015    7        7    15   7    3.9829   509.3    3.742      40.840
2015    7        7    15  13    3.9816   509.1    3.743      40.816
2015    7        7    15  18    3.9803   508.9    3.744      40.791
2015    7        7    15  24    3.9790   508.7    3.744      40.767
2015    7        7    15  30    3.9777   508.6    3.745      40.744
2015    7        7    15  36    3.9764   508.4    3.746      40.720
2015    7        7    15  42    3.9752   508.2    3.747      40.697
2015    7        7    15  47    3.9739   508.0    3.748      40.675
2015    7        7    15  53    3.9726   507.9    3.749      40.652
2015    7        7    15  59    3.9714   507.7    3.750      40.631
2015    7        7    16   5    3.9701   507.5    3.751      40.609
2015    7        7    16  10    3.9689   507.3    3.752      40.589
2015    7        7    16  16    3.9677   507.2    3.754      40.568
2015    7        7    16  22    3.9664   507.0    3.755      40.548
2015    7        7    16  28    3.9652   506.8    3.757      40.529
2015    7        7    16  34    3.9640   506.7    3.758      40.510
2015    7        7    16  39    3.9628   506.5    3.760      40.492
2015    7        7    16  45    3.9616   506.3    3.762      40.474
2015    7        7    16  51    3.9604   506.1    3.764      40.456
2015    7        7    16  57    3.9591   506.0    3.766      40.439
2015    7        7    17   2    3.9579   505.8    3.768      40.422
2015    7        7    17   8    3.9567   505.6    3.770      40.406
2015    7        7    17  14    3.9555   505.5    3.772      40.389
2015    7        7    17  20    3.9543   505.3    3.774      40.374
2015    7        7    17  26    3.9531   505.1    3.776      40.358
2015    7        7    17  31    3.9518   504.9    3.778      40.343
2015    7        7    17  37    3.9506   504.8    3.780      40.328
2015    7        7    17  43    3.9494   504.6    3.782      40.313
2015    7        7    17  49    3.9482   504.4    3.784      40.298
2015    7        7    17  55    3.9470   504.2    3.787      40.283
2015    7        7    18   0    3.9458   504.1    3.789      40.269
2015    7        7    18   6    3.9446   503.9    3.791      40.254
2015    7        7    18  12    3.9434   503.7    3.793      40.240
2015    7        7    18  18    3.9422   503.5    3.795      40.226
2015    7        7    18  23    3.9410   503.3    3.797      40.211
2015    7        7    18  29    3.9398   503.2    3.799      40.197
2015    7        7    18  35    3.9386   503.0    3.802      40.183
2015    7        7    18  41    3.9374   502.8    3.804      40.168
2015    7        7    18  47    3.9362   502.6    3.806      40.154
2015    7        7    18  52    3.9350   502.4    3.808      40.139
2015    7        7    18  58    3.9338   502.3    3.810      40.125
2015    7        7    19   4    3.9327   502.1    3.812      40.110
2015    7        7    19  10    3.9315   501.9    3.814      40.095
2015    7        7    19  15    3.9303   501.7    3.815      40.080
2015    7        7    19  21    3.9291   501.5    3.817      40.065
2015    7        7    19  27    3.9280   501.3    3.819      40.050
2015    7        7    19  33    3.9268   501.2    3.821      40.034
2015    7        7    19  39    3.9257   501.0    3.823      40.019
2015    7        7    19  44    3.9246   500.8    3.824      40.003
2015    7        7    19  50    3.9234   500.6    3.826      39.987
2015    7        7    19  56    3.9223   500.4    3.828      39.971
2015    7        7    20   2    3.9212   500.2    3.829      39.955
2015    7        7    20   8    3.9201   500.1    3.831      39.938
2015    7        7    20  13    3.9190   499.9    3.832      39.922
2015    7        7    20  19    3.9179   499.7    3.834      39.905
2015    7        7    20  25    3.9168   499.5    3.835      39.888
2015    7        7    20  31    3.9158   499.3    3.837      39.871
2015    7        7    20  36    3.9147   499.1    3.838      39.854
2015    7        7    20  42    3.9136   499.0    3.839      39.836
2015    7        7    20  48    3.9125   498.8    3.841      39.819
2015    7        7    20  54    3.9115   498.6    3.842      39.801
2015    7        7    21   0    3.9104   498.4    3.843      39.783
2015    7        7    21   5    3.9094   498.2    3.844      39.765
2015    7        7    21  11    3.9083   498.0    3.846      39.746
2015    7        7    21  17    3.9073   497.9    3.847      39.728
2015    7        7    21  23    3.9062   497.7    3.848      39.709
2015    7        7    21  29    3.9051   497.5    3.849      39.690
2015    7        7    21  34    3.9041   497.3    3.850      39.670
2015    7        7    21  40    3.9030   497.1    3.851      39.651
2015    7        7    21  46    3.9020   496.9    3.852      39.631
2015    7        7    21  52    3.9009   496.8    3.853      39.611
2015    7        7    21  57    3.8998   496.6    3.854      39.591
2015    7        7    22   3    3.8988   496.4    3.855      39.571
2015    7        7    22   9    3.8977   496.2    3.856      39.550
2015    7        7    22  15    3.8966   496.0    3.857      39.529
2015    7        7    22  21    3.8955   495.9    3.858      39.508
2015    7        7    22  26    3.8944   495.7    3.859      39.487
2015    7        7    22  32    3.8934   495.5    3.860      39.466
2015    7        7    22  38    3.8923   495.3    3.861      39.445
2015    7        7    22  44    3.8912   495.1    3.862      39.423
2015    7        7    22  50    3.8901   495.0    3.863      39.401
2015    7        7    22  55    3.8890   494.8    3.864      39.379
2015    7        7    23   1    3.8879   494.6    3.865      39.357
2015    7        7    23   7    3.8868   494.4    3.866      39.335
2015    7        7    23  13    3.8857   494.2    3.867      39.313
2015    7        7    23  18    3.8846   494.1    3.868      39.291
2015    7        7    23  24    3.8835   493.9    3.869      39.269
2015    7        7    23  30    3.8824   493.7    3.870      39.246
2015    7        7    23  36    3.8813   493.5    3.871      39.224
2015    7        7    23  42    3.8801   493.3    3.872      39.202
2015    7        7    23  47    3.8790   493.2    3.873      39.179
2015    7        7    23  53    3.8779   493.0    3.875      39.157
2015    7        7    23  59    3.8768   492.8    3.876      39.135
2015    7        8     0   5    3.8757   492.6    3.877      39.113
2015    7        8     0  11    3.8746   492.4    3.878      39.091
2015    7        8     0  16    3.8735   492.3    3.879      39.069
2015    7        8     0  22    3.8724   492.1    3.881      39.047
2015    7        8     0  28    3.8713   491.9    3.882      39.025
2015    7        8     0  34    3.8702   491.7    3.883      39.004
2015    7        8     0  39    3.8691   491.5    3.885      38.983
2015    7        8     0  45    3.8680   491.3    3.886      38.961
2015    7        8     0  51    3.8669   491.2    3.888      38.940
2015    7        8     0  57    3.8659   491.0    3.889      38.919
2015    7        8     1   3    3.8648   490.8    3.891      38.899
2015    7        8     1   8    3.8637   490.6    3.893      38.879
2015    7        8     1  14    3.8627   490.4    3.895      38.859
2015    7        8     1  20    3.8617   490.2    3.896      38.839
2015    7        8     1  26    3.8606   490.1    3.898      38.819
2015    7        8     1  31    3.8596   489.9    3.900      38.800
2015    7        8     1  37    3.8586   489.7    3.902      38.781
2015    7        8     1  43    3.8576   489.5    3.904      38.762
2015    7        8     1  49    3.8567   489.3    3.906      38.744
2015    7        8     1  55    3.8557   489.1    3.908      38.726
2015    7        8     2   0    3.8548   489.0    3.910      38.708
2015    7        8     2   6    3.8538   488.8    3.913      38.690
2015    7        8     2  12    3.8529   488.6    3.915      38.672
2015    7        8     2  18    3.8520   488.4    3.917      38.655
2015    7        8     2  24    3.8511   488.2    3.920      38.638
2015    7        8     2  29    3.8502   488.0    3.922      38.621
2015    7        8     2  35    3.8493   487.9    3.924      38.605
2015    7        8     2  41    3.8485   487.7    3.927      38.589
2015    7        8     2  47    3.8477   487.5    3.929      38.572
2015    7        8     2  52    3.8468   487.3    3.932      38.556
2015    7        8     2  58    3.8460   487.1    3.934      38.540
2015    7        8     3   4    3.8452   486.9    3.937      38.525
2015    7        8     3  10    3.8444   486.7    3.939      38.509
2015    7        8     3  16    3.8436   486.6    3.942      38.493
2015    7        8     3  21    3.8428   486.4    3.944      38.478
2015    7        8     3  27    3.8420   486.2    3.947      38.463
2015    7        8     3  33    3.8413   486.0    3.949      38.447
2015    7        8     3  39    3.8405   485.8    3.952      38.432
2015    7        8     3  44    3.8397   485.6    3.954      38.416
2015    7        8     3  50    3.8389   485.5    3.957      38.401
2015    7        8     3  56    3.8381   485.3    3.959      38.386
2015    7        8     4   2    3.8373   485.1    3.961      38.370
2015    7        8     4   8    3.8365   484.9    3.964      38.354
2015    7        8     4  13    3.8357   484.7    3.966      38.339
2015    7        8     4  19    3.8349   484.5    3.968      38.323
2015    7        8     4  25    3.8341   484.3    3.971      38.306
2015    7        8     4  31    3.8333   484.2    3.973      38.290
2015    7        8     4  37    3.8325   484.0    3.975      38.274
2015    7        8     4  42    3.8316   483.8    3.977      38.257
2015    7        8     4  48    3.8308   483.6    3.979      38.240
2015    7        8     4  54    3.8300   483.4    3.981      38.223
2015    7        8     5   0    3.8292   483.2    3.983      38.206
2015    7        8     5   5    3.8284   483.0    3.985      38.188
2015    7        8     5  11    3.8276   482.8    3.987      38.170
2015    7        8     5  17    3.8268   482.6    3.989      38.152
2015    7        8     5  23    3.8259   482.4    3.991      38.134
2015    7        8     5  29    3.8251   482.3    3.992      38.115
2015    7        8     5  34    3.8243   482.1    3.994      38.097
2015    7        8     5  40    3.8235   481.9    3.996      38.078
2015    7        8     5  46    3.8227   481.7    3.998      38.059
2015    7        8     5  52    3.8218   481.5    3.999      38.039
2015    7        8     5  58    3.8210   481.3    4.001      38.020
2015    7        8     6   3    3.8202   481.1    4.003      38.000
2015    7        8     6   9    3.8194   480.9    4.004      37.980
2015    7        8     6  15    3.8186   480.7    4.006      37.959
2015    7        8     6  21    3.8178   480.5    4.007      37.939
2015    7        8     6  26    3.8170   480.3    4.009      37.919
2015    7        8     6  32    3.8162   480.2    4.010      37.898
2015    7        8     6  38    3.8154   480.0    4.012      37.877
2015    7        8     6  44    3.8147   479.8    4.013      37.856
2015    7        8     6  50    3.8139   479.6    4.015      37.834
2015    7        8     6  55    3.8131   479.4    4.016      37.813
2015    7        8     7   1    3.8123   479.2    4.018      37.791
2015    7        8     7   7    3.8116   479.0    4.019      37.770
2015    7        8     7  13    3.8108   478.8    4.020      37.748
2015    7        8     7  19    3.8100   478.6    4.022      37.725
2015    7        8     7  24    3.8093   478.4    4.023      37.703
2015    7        8     7  30    3.8085   478.2    4.025      37.681
2015    7        8     7  36    3.8078   478.1    4.026      37.659
2015    7        8     7  42    3.8070   477.9    4.027      37.636
2015    7        8     7  47    3.8063   477.7    4.029      37.614
2015    7        8     7  53    3.8056   477.5    4.030      37.591
2015    7        8     7  59    3.8049   477.3    4.032      37.568
2015    7        8     8   5    3.8041   477.1    4.033      37.545
2015    7        8     8  11    3.8034   476.9    4.034      37.523
2015    7        8     8  16    3.8027   476.7    4.036      37.500
2015    7        8     8  22    3.8020   476.5    4.037      37.477
2015    7        8     8  28    3.8013   476.3    4.039      37.454
2015    7        8     8  34    3.8007   476.1    4.040      37.431
2015    7        8     8  39    3.8000   476.0    4.042      37.409
2015    7        8     8  45    3.7993   475.8    4.044      37.386
2015    7        8     8  51    3.7987   475.6    4.045      37.363
2015    7        8     8  57    3.7980   475.4    4.047      37.341
2015    7        8     9   3    3.7974   475.2    4.048      37.319
2015    7        8     9   8    3.7967   475.0    4.050      37.296
2015    7        8     9  14    3.7961   474.8    4.052      37.274
2015    7        8     9  20    3.7955   474.6    4.054      37.253
2015    7        8     9  26    3.7949   474.4    4.056      37.231
2015    7        8     9  32    3.7944   474.2    4.058      37.209
2015    7        8     9  37    3.7938   474.0    4.060      37.188
2015    7        8     9  43    3.7933   473.8    4.062      37.167
2015    7        8     9  49    3.7927   473.6    4.064      37.147
2015    7        8     9  55    3.7922   473.5    4.066      37.127
2015    7        8    10   0    3.7917   473.3    4.068      37.106
2015    7        8    10   6    3.7912   473.1    4.070      37.087
2015    7        8    10  12    3.7908   472.9    4.073      37.067
2015    7        8    10  18    3.7903   472.7    4.075      37.048
2015    7        8    10  24    3.7899   472.5    4.078      37.029
2015    7        8    10  29    3.7894   472.3    4.080      37.011
2015    7        8    10  35    3.7890   472.1    4.083      36.992
2015    7        8    10  41    3.7886   471.9    4.085      36.974
2015    7        8    10  47    3.7882   471.7    4.088      36.956
2015    7        8    10  52    3.7878   471.6    4.091      36.939
2015    7        8    10  58    3.7874   471.4    4.094      36.921
2015    7        8    11   4    3.7870   471.2    4.096      36.904
2015    7        8    11  10    3.7866   471.0    4.099      36.887
2015    7        8    11  16    3.7862   470.8    4.102      36.870
2015    7        8    11  21    3.7858   470.6    4.105      36.853
2015    7        8    11  27    3.7854   470.4    4.108      36.836
2015    7        8    11  33    3.7851   470.2    4.111      36.819
2015    7        8    11  39    3.7847   470.0    4.114      36.802
2015    7        8    11  45    3.7843   469.9    4.117      36.785
2015    7        8    11  50    3.7840   469.7    4.120      36.769
2015    7        8    11  56    3.7836   469.5    4.122      36.752
2015    7        8    12   2    3.7833   469.3    4.125      36.735
2015    7        8    12   8    3.7829   469.1    4.128      36.718
2015    7        8    12  13    3.7826   468.9    4.131      36.702
2015    7        8    12  19    3.7822   468.7    4.134      36.685
2015    7        8    12  25    3.7819   468.5    4.137      36.668
2015    7        8    12  31    3.7816   468.3    4.140      36.651
2015    7        8    12  37    3.7813   468.1    4.143      36.634
2015    7        8    12  42    3.7810   467.9    4.146      36.617
2015    7        8    12  48    3.7807   467.8    4.149      36.600
2015    7        8    12  54    3.7804   467.6    4.151      36.582
2015    7        8    13   0    3.7801   467.4    4.154      36.565
2015    7        8    13   6    3.7799   467.2    4.157      36.548
2015    7        8    13  11    3.7796   467.0    4.160      36.530
2015    7        8    13  17    3.7793   466.8    4.163      36.513
2015    7        8    13  23    3.7791   466.6    4.165      36.495
2015    7        8    13  29    3.7789   466.4    4.168      36.477
2015    7        8    13  34    3.7786   466.2    4.171      36.460
2015    7        8    13  40    3.7784   466.0    4.174      36.442
2015    7        8    13  46    3.7782   465.8    4.176      36.424
2015    7        8    13  52    3.7780   465.6    4.179      36.405
2015    7        8    13  58    3.7778   465.4    4.182      36.387
2015    7        8    14   3    3.7776   465.3    4.184      36.369
2015    7        8    14   9    3.7775   465.1    4.187      36.350
2015    7        8    14  15    3.7773   464.9    4.189      36.331
2015    7        8    14  21    3.7772   464.7    4.192      36.313
2015    7        8    14  27    3.7770   464.5    4.195      36.294
2015    7        8    14  32    3.7769   464.3    4.197      36.275
2015    7        8    14  38    3.7768   464.1    4.200      36.256
2015    7        8    14  44    3.7767   463.9    4.202      36.236
2015    7        8    14  50    3.7766   463.7    4.205      36.217
2015    7        8    14  55    3.7765   463.5    4.207      36.198
2015    7        8    15   1    3.7764   463.3    4.210      36.178
2015    7        8    15   7    3.7764   463.1    4.212      36.158
2015    7        8    15  13    3.7763   462.9    4.215      36.138
2015    7        8    15  19    3.7763   462.7    4.217      36.118
2015    7        8    15  24    3.7763   462.6    4.220      36.099
2015    7        8    15  30    3.7762   462.4    4.222      36.078
2015    7        8    15  36    3.7762   462.2    4.225      36.058
2015    7        8    15  42    3.7762   462.0    4.227      36.038
2015    7        8    15  47    3.7762   461.8    4.230      36.017
2015    7        8    15  53    3.7762   461.6    4.232      35.997
2015    7        8    15  59    3.7763   461.4    4.235      35.976
2015    7        8    16   5    3.7763   461.2    4.237      35.955
2015    7        8    16  11    3.7763   461.0    4.240      35.934
2015    7        8    16  16    3.7764   460.8    4.242      35.914
2015    7        8    16  22    3.7765   460.6    4.245      35.893
2015    7        8    16  28    3.7765   460.4    4.247      35.872
2015    7        8    16  34    3.7766   460.2    4.249      35.850
2015    7        8    16  40    3.7767   460.0    4.252      35.829
2015    7        8    16  45    3.7768   459.8    4.255      35.808
2015    7        8    16  51    3.7769   459.6    4.257      35.787
2015    7        8    16  57    3.7770   459.4    4.260      35.766
2015    7        8    17   3    3.7772   459.2    4.262      35.745
2015    7        8    17   8    3.7773   459.0    4.265      35.724
2015    7        8    17  14    3.7775   458.8    4.267      35.703
2015    7        8    17  20    3.7777   458.6    4.270      35.682
2015    7        8    17  26    3.7779   458.4    4.273      35.661
2015    7        8    17  32    3.7781   458.2    4.275      35.640
2015    7        8    17  37    3.7783   458.0    4.278      35.619
2015    7        8    17  43    3.7786   457.8    4.281      35.599
2015    7        8    17  49    3.7788   457.6    4.284      35.578
2015    7        8    17  55    3.7791   457.4    4.287      35.558
2015    7        8    18   0    3.7794   457.2    4.290      35.538
2015    7        8    18   6    3.7797   457.0    4.293      35.518
2015    7        8    18  12    3.7800   456.8    4.296      35.499
2015    7        8    18  18    3.7804   456.6    4.299      35.479
2015    7        8    18  24    3.7807   456.4    4.302      35.460
2015    7        8    18  29    3.7811   456.2    4.305      35.441
2015    7        8    18  35    3.7816   456.0    4.308      35.422
2015    7        8    18  41    3.7820   455.8    4.312      35.404
2015    7        8    18  47    3.7824   455.6    4.315      35.385
2015    7        8    18  53    3.7829   455.4    4.318      35.367
2015    7        8    18  58    3.7834   455.2    4.322      35.349
2015    7        8    19   4    3.7839   455.0    4.325      35.331
2015    7        8    19  10    3.7844   454.8    4.329      35.314
2015    7        8    19  16    3.7850   454.6    4.333      35.296
2015    7        8    19  21    3.7856   454.4    4.336      35.279
2015    7        8    19  27    3.7861   454.2    4.340      35.262
2015    7        8    19  33    3.7867   454.0    4.343      35.245
2015    7        8    19  39    3.7873   453.8    4.347      35.228
2015    7        8    19  45    3.7880   453.6    4.351      35.212
2015    7        8    19  50    3.7886   453.4    4.355      35.196
2015    7        8    19  56    3.7893   453.2    4.359      35.179
2015    7        8    20   2    3.7900   453.0    4.362      35.163
2015    7        8    20   8    3.7907   452.8    4.366      35.147
2015    7        8    20  14    3.7914   452.6    4.370      35.131
2015    7        8    20  19    3.7921   452.4    4.374      35.115
2015    7        8    20  25    3.7929   452.2    4.378      35.100
2015    7        8    20  31    3.7936   452.0    4.382      35.084
2015    7        8    20  37    3.7944   451.8    4.386      35.068
2015    7        8    20  42    3.7952   451.6    4.390      35.053
2015    7        8    20  48    3.7960   451.4    4.394      35.037
2015    7        8    20  54    3.7968   451.2    4.398      35.022
2015    7        8    21   0    3.7976   451.0    4.402      35.007
2015    7        8    21   6    3.7985   450.8    4.406      34.991
2015    7        8    21  11    3.7994   450.6    4.410      34.976
2015    7        8    21  17    3.8003   450.5    4.415      34.961
2015    7        8    21  23    3.8012   450.3    4.419      34.946
2015    7        8    21  29    3.8021   450.1    4.423      34.931
2015    7        8    21  35    3.8031   449.9    4.427      34.916
2015    7        8    21  40    3.8041   449.7    4.431      34.901
2015    7        8    21  46    3.8051   449.5    4.435      34.886
2015    7        8    21  52    3.8061   449.3    4.440      34.871
2015    7        8    21  58    3.8072   449.1    4.444      34.856
2015    7        8    22   3    3.8082   448.9    4.448      34.842
2015    7        8    22   9    3.8093   448.7    4.453      34.827
2015    7        8    22  15    3.8104   448.5    4.457      34.813
2015    7        8    22  21    3.8116   448.3    4.461      34.798
2015    7        8    22  27    3.8128   448.1    4.466      34.784
2015    7        8    22  32    3.8140   447.9    4.470      34.769
2015    7        8    22  38    3.8152   447.7    4.474      34.755
2015    7        8    22  44    3.8165   447.5    4.479      34.741
2015    7        8    22  50    3.8177   447.4    4.483      34.727
2015    7        8    22  55    3.8190   447.2    4.488      34.713
2015    7        8    23   1    3.8204   447.0    4.492      34.699
2015    7        8    23   7    3.8217   446.8    4.497      34.685
2015    7        8    23  13    3.8231   446.6    4.502      34.672
2015    7        8    23  19    3.8245   446.4    4.506      34.658
2015    7        8    23  24    3.8259   446.2    4.511      34.645
2015    7        8    23  30    3.8274   446.0    4.516      34.631
2015    7        8    23  36    3.8289   445.8    4.521      34.618
2015    7        8    23  42    3.8304   445.6    4.525      34.604
2015    7        8    23  48    3.8319   445.4    4.530      34.591
2015    7        8    23  53    3.8335   445.2    4.535      34.578
2015    7        8    23  59    3.8350   445.0    4.540      34.565
2015    7        9     0   5    3.8366   444.8    4.545      34.552
2015    7        9     0  11    3.8382   444.6    4.550      34.539
2015    7        9     0  16    3.8399   444.5    4.555      34.527
2015    7        9     0  22    3.8415   444.3    4.560      34.514
2015    7        9     0  28    3.8432   444.1    4.565      34.502
2015    7        9     0  34    3.8449   443.9    4.571      34.489
2015    7        9     0  40    3.8467   443.7    4.576      34.477
2015    7        9     0  45    3.8484   443.5    4.581      34.465
2015    7        9     0  51    3.8502   443.3    4.587      34.453
2015    7        9     0  57    3.8520   443.1    4.592      34.441
2015    7        9     1   3    3.8539   442.9    4.598      34.429
2015    7        9     1   8    3.8557   442.7    4.603      34.418
2015    7        9     1  14    3.8576   442.5    4.609      34.407
2015    7        9     1  20    3.8595   442.3    4.614      34.395
2015    7        9     1  26    3.8614   442.1    4.620      34.384
2015    7        9     1  32    3.8634   441.9    4.626      34.373
2015    7        9     1  37    3.8653   441.7    4.632      34.363
2015    7        9     1  43    3.8673   441.5    4.637      34.352
2015    7        9     1  49    3.8693   441.3    4.643      34.342
2015    7        9     1  55    3.8714   441.2    4.649      34.332
2015    7        9     2   1    3.8735   441.0    4.655      34.322
2015    7        9     2   6    3.8755   440.8    4.662      34.312
2015    7        9     2  12    3.8777   440.6    4.668      34.302
2015    7        9     2  18    3.8798   440.4    4.674      34.292
2015    7        9     2  24    3.8820   440.2    4.680      34.283
2015    7        9     2  29    3.8842   440.0    4.686      34.273
2015    7        9     2  35    3.8864   439.8    4.693      34.264
2015    7        9     2  41    3.8886   439.6    4.699      34.255
2015    7        9     2  47    3.8909   439.4    4.705      34.246
2015    7        9     2  53    3.8932   439.2    4.712      34.238
2015    7        9     2  58    3.8955   439.0    4.718      34.229
2015    7        9     3   4    3.8978   438.9    4.725      34.220
2015    7        9     3  10    3.9002   438.7    4.731      34.212
2015    7        9     3  16    3.9026   438.5    4.738      34.203
2015    7        9     3  22    3.9050   438.3    4.744      34.195
2015    7        9     3  27    3.9074   438.1    4.751      34.187
2015    7        9     3  33    3.9099   437.9    4.757      34.178
2015    7        9     3  39    3.9123   437.7    4.764      34.170
2015    7        9     3  45    3.9149   437.5    4.771      34.162
2015    7        9     3  50    3.9174   437.3    4.777      34.154
2015    7        9     3  56    3.9200   437.2    4.784      34.146
2015    7        9     4   2    3.9225   437.0    4.790      34.138
2015    7        9     4   8    3.9251   436.8    4.797      34.130
2015    7        9     4  14    3.9278   436.6    4.803      34.122
2015    7        9     4  19    3.9304   436.4    4.810      34.114
2015    7        9     4  25    3.9331   436.2    4.816      34.107
2015    7        9     4  31    3.9358   436.0    4.823      34.099
2015    7        9     4  37    3.9386   435.8    4.829      34.091
2015    7        9     4  42    3.9413   435.7    4.836      34.084
2015    7        9     4  48    3.9442   435.5    4.842      34.076
2015    7        9     4  54    3.9470   435.3    4.849      34.068
2015    7        9     5   0    3.9499   435.1    4.855      34.061
2015    7        9     5   6    3.9528   434.9    4.862      34.054
2015    7        9     5  11    3.9557   434.7    4.868      34.046
2015    7        9     5  17    3.9587   434.6    4.875      34.039
2015    7        9     5  23    3.9617   434.4    4.881      34.032
2015    7        9     5  29    3.9648   434.2    4.888      34.025
2015    7        9     5  35    3.9679   434.0    4.894      34.018
2015    7        9     5  40    3.9710   433.8    4.901      34.011
2015    7        9     5  46    3.9742   433.7    4.907      34.004
2015    7        9     5  52    3.9774   433.5    4.914      33.997
2015    7        9     5  58    3.9806   433.3    4.921      33.991
2015    7        9     6   3    3.9839   433.1    4.927      33.984
2015    7        9     6   9    3.9872   433.0    4.934      33.978
2015    7        9     6  15    3.9906   432.8    4.941      33.971
2015    7        9     6  21    3.9940   432.6    4.948      33.965
2015    7        9     6  27    3.9975   432.4    4.954      33.959
2015    7        9     6  32    4.0009   432.3    4.961      33.953
2015    7        9     6  38    4.0045   432.1    4.968      33.947
2015    7        9     6  44    4.0081   431.9    4.975      33.941
2015    7        9     6  50    4.0117   431.8    4.982      33.935
2015    7        9     6  55    4.0153   431.6    4.989      33.929
2015    7        9     7   1    4.0191   431.4    4.996      33.924
2015    7        9     7   7    4.0228   431.2    5.004      33.919
2015    7        9     7  13    4.0266   431.1    5.011      33.913
2015    7        9     7  19    4.0305   430.9    5.019      33.908
2015    7        9     7  24    4.0344   430.7    5.026      33.904
2015    7        9     7  30    4.0383   430.6    5.034      33.899
2015    7        9     7  36    4.0423   430.4    5.042      33.895
2015    7        9     7  42    4.0463   430.2    5.050      33.890
2015    7        9     7  48    4.0504   430.1    5.058      33.886
2015    7        9     7  53    4.0545   429.9    5.066      33.883
2015    7        9     7  59    4.0587   429.7    5.074      33.879
2015    7        9     8   5    4.0630   429.5    5.083      33.876
2015    7        9     8  11    4.0673   429.4    5.092      33.873
2015    7        9     8  16    4.0716   429.2    5.101      33.871
2015    7        9     8  22    4.0761   429.0    5.110      33.869
2015    7        9     8  28    4.0805   428.9    5.119      33.867
2015    7        9     8  34    4.0851   428.7    5.129      33.866
2015    7        9     8  40    4.0898   428.5    5.139      33.866
2015    7        9     8  45    4.0945   428.4    5.150      33.866
2015    7        9     8  51    4.0993   428.2    5.160      33.867
2015    7        9     8  57    4.1042   428.0    5.171      33.868
2015    7        9     9   3    4.1091   427.8    5.182      33.870
2015    7        9     9   8    4.1143   427.7    5.194      33.873
2015    7        9     9  14    4.1194   427.5    5.206      33.877
2015    7        9     9  20    4.1247   427.3    5.219      33.882
2015    7        9     9  26    4.1300   427.2    5.232      33.888
2015    7        9     9  32    4.1355   427.0    5.245      33.897
2015    7        9     9  37    4.1410   426.8    5.258      33.906
2015    7        9     9  43    4.1467   426.7    5.272      33.917
2015    7        9     9  49    4.1524   426.5    5.286      33.929
2015    7        9     9  55    4.1582   426.4    5.301      33.943
2015    7        9    10   1    4.1640   426.2    5.315      33.958
2015    7        9    10   6    4.1700   426.1    5.330      33.975
2015    7        9    10  12    4.1759   425.9    5.345      33.993
2015    7        9    10  18    4.1819   425.8    5.360      34.014
2015    7        9    10  24    4.1879   425.6    5.375      34.035
2015    7        9    10  29    4.1939   425.5    5.390      34.058
2015    7        9    10  35    4.1999   425.4    5.404      34.082
2015    7        9    10  41    4.2059   425.2    5.419      34.106
2015    7        9    10  47    4.2119   425.1    5.433      34.132
2015    7        9    10  53    4.2180   425.0    5.447      34.157
2015    7        9    10  58    4.2239   424.8    5.461      34.182
2015    7        9    11   4    4.2299   424.7    5.475      34.207
2015    7        9    11  10    4.2358   424.6    5.489      34.232
2015    7        9    11  16    4.2417   424.5    5.502      34.257
2015    7        9    11  22    4.2476   424.3    5.514      34.282
2015    7        9    11  27    4.2535   424.2    5.527      34.306
2015    7        9    11  33    4.2593   424.1    5.539      34.330
2015    7        9    11  39    4.2651   424.0    5.551      34.352
2015    7        9    11  45    4.2709   423.9    5.563      34.374
2015    7        9    11  50    4.2767   423.7    5.575      34.395
2015    7        9    11  56    4.2825   423.6    5.586      34.415
2015    7        9    12   2    4.2884   423.5    5.597      34.435
2015    7        9    12   8    4.2942   423.4    5.608      34.454
2015    7        9    12  14    4.3000   423.3    5.619      34.472
2015    7        9    12  19    4.3058   423.2    5.629      34.490
2015    7        9    12  25    4.3116   423.1    5.640      34.507
2015    7        9    12  31    4.3175   422.9    5.650      34.524
2015    7        9    12  37    4.3233   422.8    5.661      34.541
2015    7        9    12  42    4.3292   422.7    5.671      34.557
2015    7        9    12  48    4.3351   422.6    5.681      34.572
2015    7        9    12  54    4.3411   422.5    5.691      34.588
2015    7        9    13   0    4.3470   422.4    5.701      34.603
2015    7        9    13   6    4.3530   422.3    5.711      34.617
2015    7        9    13  11    4.3590   422.2    5.721      34.632
2015    7        9    13  17    4.3651   422.1    5.730      34.646
2015    7        9    13  23    4.3712   422.0    5.740      34.659
2015    7        9    13  29    4.3773   421.9    5.750      34.673
2015    7        9    13  35    4.3835   421.8    5.760      34.687
2015    7        9    13  40    4.3897   421.7    5.770      34.700
2015    7        9    13  46    4.3960   421.6    5.779      34.713
2015    7        9    13  52    4.4023   421.5    5.789      34.726
2015    7        9    13  58    4.4087   421.4    5.799      34.739
2015    7        9    14   3    4.4152   421.3    5.809      34.752
2015    7        9    14   9    4.4217   421.2    5.819      34.766
2015    7        9    14  15    4.4282   421.1    5.830      34.779
2015    7        9    14  21    4.4349   421.0    5.840      34.792
2015    7        9    14  27    4.4416   420.9    5.850      34.806
2015    7        9    14  32    4.4484   420.8    5.861      34.820
2015    7        9    14  38    4.4553   420.7    5.872      34.834
2015    7        9    14  44    4.4623   420.6    5.883      34.849
2015    7        9    14  50    4.4694   420.6    5.894      34.864
2015    7        9    14  55    4.4766   420.5    5.906      34.880
2015    7        9    15   1    4.4839   420.4    5.918      34.896
2015    7        9    15   7    4.4913   420.3    5.930      34.913
2015    7        9    15  13    4.4988   420.2    5.943      34.931
2015    7        9    15  19    4.5064   420.1    5.956      34.950
2015    7        9    15  24    4.5141   420.1    5.970      34.969
2015    7        9    15  30    4.5221   420.0    5.984      34.990
2015    7        9    15  36    4.5301   419.9    5.998      35.012
2015    7        9    15  42    4.5382   419.8    6.013      35.035
2015    7        9    15  47    4.5465   419.8    6.029      35.059
2015    7        9    15  53    4.5550   419.7    6.045      35.086
2015    7        9    15  59    4.5636   419.6    6.062      35.113
2015    7        9    16   5    4.5725   419.5    6.080      35.142
2015    7        9    16  11    4.5815   419.5    6.099      35.172
2015    7        9    16  16    4.5907   419.4    6.118      35.205
2015    7        9    16  22    4.6000   419.4    6.139      35.241
2015    7        9    16  28    4.6096   419.3    6.160      35.281
2015    7        9    16  34    4.6193   419.3    6.182      35.324
2015    7        9    16  40    4.6293   419.2    6.205      35.370
2015    7        9    16  45    4.6394   419.2    6.228      35.418
2015    7        9    16  51    4.6497   419.2    6.252      35.471
2015    7        9    16  57    4.6601   419.1    6.277      35.527
2015    7        9    17   3    4.6706   419.1    6.303      35.588
2015    7        9    17   8    4.6812   419.1    6.328      35.652
2015    7        9    17  14    4.6919   419.1    6.354      35.720
2015    7        9    17  20    4.7025   419.1    6.380      35.791
2015    7        9    17  26    4.7132   419.2    6.406      35.865
2015    7        9    17  32    4.7238   419.2    6.432      35.943
2015    7        9    17  37    4.7345   419.2    6.457      36.022
2015    7        9    17  43    4.7450   419.2    6.482      36.101
2015    7        9    17  49    4.7554   419.3    6.506      36.181
2015    7        9    17  55    4.7657   419.3    6.530      36.261
2015    7        9    18   1    4.7759   419.4    6.552      36.340
2015    7        9    18   6    4.7859   419.4    6.574      36.419
2015    7        9    18  12    4.7958   419.5    6.595      36.496
2015    7        9    18  18    4.8055   419.5    6.615      36.571
2015    7        9    18  24    4.8151   419.6    6.634      36.644
2015    7        9    18  29    4.8245   419.6    6.652      36.714
2015    7        9    18  35    4.8339   419.7    6.669      36.782
2015    7        9    18  41    4.8430   419.7    6.686      36.847
2015    7        9    18  47    4.8522   419.7    6.701      36.909
2015    7        9    18  53    4.8611   419.8    6.716      36.969
2015    7        9    18  58    4.8700   419.8    6.730      37.026
2015    7        9    19   4    4.8788   419.8    6.744      37.080
2015    7        9    19  10    4.8876   419.9    6.757      37.132
2015    7        9    19  16    4.8962   419.9    6.769      37.182
2015    7        9    19  22    4.9048   419.9    6.781      37.230
2015    7        9    19  27    4.9134   420.0    6.793      37.276
2015    7        9    19  33    4.9219   420.0    6.804      37.320
2015    7        9    19  39    4.9303   420.0    6.815      37.362
2015    7        9    19  45    4.9388   420.0    6.826      37.403
2015    7        9    19  50    4.9472   420.1    6.836      37.443
2015    7        9    19  56    4.9556   420.1    6.846      37.481
2015    7        9    20   2    4.9640   420.1    6.856      37.518
2015    7        9    20   8    4.9724   420.1    6.865      37.554
2015    7        9    20  14    4.9807   420.1    6.874      37.589
2015    7        9    20  19    4.9891   420.1    6.884      37.623
2015    7        9    20  25    4.9975   420.1    6.893      37.656
2015    7        9    20  31    5.0059   420.2    6.902      37.689
2015    7        9    20  37    5.0142   420.2    6.911      37.721
2015    7        9    20  42    5.0227   420.2    6.920      37.752
2015    7        9    20  48    5.0311   420.2    6.929      37.783
2015    7        9    20  54    5.0395   420.2    6.937      37.814
2015    7        9    21   0    5.0480   420.2    6.946      37.844
2015    7        9    21   6    5.0565   420.2    6.955      37.874
2015    7        9    21  11    5.0651   420.3    6.964      37.904
2015    7        9    21  17    5.0736   420.3    6.973      37.934
2015    7        9    21  23    5.0823   420.3    6.982      37.964
2015    7        9    21  29    5.0910   420.3    6.991      37.994
2015    7        9    21  35    5.0997   420.3    7.000      38.024
2015    7        9    21  40    5.1086   420.4    7.009      38.054
2015    7        9    21  46    5.1174   420.4    7.019      38.085
2015    7        9    21  52    5.1264   420.4    7.029      38.116
2015    7        9    21  58    5.1355   420.4    7.038      38.148
2015    7        9    22   3    5.1446   420.5    7.049      38.181
2015    7        9    22   9    5.1539   420.5    7.059      38.214
2015    7        9    22  15    5.1632   420.5    7.070      38.248
2015    7        9    22  21    5.1727   420.6    7.081      38.283
2015    7        9    22  27    5.1822   420.6    7.093      38.320
2015    7        9    22  32    5.1919   420.7    7.105      38.357
2015    7        9    22  38    5.2017   420.7    7.117      38.396
2015    7        9    22  44    5.2116   420.8    7.130      38.436
2015    7        9    22  50    5.2217   420.8    7.144      38.478
2015    7        9    22  55    5.2318   420.9    7.158      38.522
2015    7        9    23   1    5.2421   421.0    7.173      38.568
2015    7        9    23   7    5.2525   421.0    7.188      38.615
2015    7        9    23  13    5.2630   421.1    7.204      38.664
2015    7        9    23  19    5.2737   421.2    7.221      38.714
2015    7        9    23  24    5.2845   421.3    7.239      38.768
2015    7        9    23  30    5.2954   421.4    7.258      38.824
2015    7        9    23  36    5.3065   421.5    7.277      38.885
2015    7        9    23  42    5.3176   421.6    7.297      38.948
2015    7        9    23  48    5.3289   421.7    7.318      39.014
2015    7        9    23  53    5.3402   421.8    7.339      39.083
2015    7        9    23  59    5.3516   421.9    7.362      39.155
2015    7       10     0   5    5.3630   422.0    7.385      39.232
2015    7       10     0  11    5.3744   422.2    7.408      39.313
2015    7       10     0  16    5.3858   422.3    7.432      39.397
2015    7       10     0  22    5.3972   422.5    7.457      39.484
2015    7       10     0  28    5.4086   422.6    7.481      39.574
2015    7       10     0  34    5.4199   422.8    7.506      39.667
2015    7       10     0  40    5.4311   422.9    7.531      39.763
2015    7       10     0  45    5.4423   423.1    7.556      39.862
2015    7       10     0  51    5.4534   423.3    7.581      39.963
2015    7       10     0  57    5.4644   423.5    7.606      40.066
2015    7       10     1   3    5.4753   423.7    7.631      40.170
2015    7       10     1   8    5.4861   423.8    7.655      40.276
2015    7       10     1  14    5.4969   424.0    7.679      40.386
2015    7       10     1  20    5.5076   424.2    7.703      40.497
2015    7       10     1  26    5.5181   424.4    7.726      40.610
2015    7       10     1  32    5.5287   424.6    7.749      40.724
2015    7       10     1  37    5.5391   424.8    7.771      40.838
2015    7       10     1  43    5.5494   425.1    7.792      40.953
2015    7       10     1  49    5.5597   425.3    7.812      41.069
2015    7       10     1  55    5.5698   425.5    7.832      41.186
2015    7       10     2   1    5.5799   425.7    7.851      41.302
2015    7       10     2   6    5.5899   425.9    7.869      41.417
2015    7       10     2  12    5.5997   426.1    7.886      41.530
2015    7       10     2  18    5.6094   426.3    7.901      41.643
2015    7       10     2  24    5.6190   426.5    7.916      41.753
2015    7       10     2  29    5.6285   426.7    7.930      41.862
2015    7       10     2  35    5.6377   426.9    7.943      41.968
2015    7       10     2  41    5.6470   427.1    7.955      42.071
2015    7       10     2  47    5.6559   427.3    7.965      42.171
2015    7       10     2  53    5.6648   427.5    7.975      42.267
2015    7       10     2  58    5.6735   427.7    7.984      42.359
2015    7       10     3   4    5.6821   427.9    7.992      42.449
2015    7       10     3  10    5.6904   428.1    7.998      42.535
2015    7       10     3  16    5.6986   428.3    8.004      42.618
2015    7       10     3  22    5.7066   428.5    8.009      42.698
2015    7       10     3  27    5.7144   428.7    8.013      42.774
2015    7       10     3  33    5.7221   428.9    8.016      42.847
2015    7       10     3  39    5.7295   429.1    8.019      42.917
2015    7       10     3  45    5.7368   429.3    8.020      42.983
2015    7       10     3  50    5.7439   429.5    8.021      43.046
2015    7       10     3  56    5.7509   429.7    8.021      43.106
2015    7       10     4   2    5.7577   429.9    8.020      43.163
2015    7       10     4   8    5.7643   430.1    8.019      43.216
2015    7       10     4  14    5.7707   430.3    8.017      43.266
2015    7       10     4  19    5.7771   430.4    8.014      43.314
2015    7       10     4  25    5.7832   430.6    8.011      43.358
2015    7       10     4  31    5.7893   430.8    8.008      43.400
2015    7       10     4  37    5.7953   431.0    8.004      43.439
2015    7       10     4  42    5.8012   431.1    8.000      43.476
2015    7       10     4  48    5.8069   431.3    7.995      43.510
2015    7       10     4  54    5.8127   431.4    7.991      43.542
2015    7       10     5   0    5.8184   431.6    7.986      43.572
2015    7       10     5   6    5.8240   431.8    7.981      43.601
2015    7       10     5  11    5.8296   431.9    7.976      43.627
2015    7       10     5  17    5.8352   432.0    7.971      43.653
2015    7       10     5  23    5.8408   432.2    7.965      43.677
2015    7       10     5  29    5.8464   432.3    7.960      43.700
2015    7       10     5  34    5.8520   432.5    7.955      43.722
2015    7       10     5  40    5.8576   432.6    7.950      43.743
2015    7       10     5  46    5.8632   432.7    7.944      43.764
2015    7       10     5  52    5.8689   432.9    7.939      43.785
2015    7       10     5  58    5.8746   433.0    7.934      43.805
2015    7       10     6   3    5.8803   433.2    7.928      43.825
2015    7       10     6   9    5.8861   433.3    7.923      43.845
2015    7       10     6  15    5.8918   433.5    7.918      43.865
2015    7       10     6  21    5.8976   433.6    7.913      43.884
2015    7       10     6  26    5.9035   433.8    7.908      43.902
2015    7       10     6  32    5.9094   433.9    7.903      43.921
2015    7       10     6  38    5.9153   434.1    7.899      43.939
2015    7       10     6  44    5.9213   434.2    7.894      43.958
2015    7       10     6  50    5.9273   434.3    7.890      43.977
2015    7       10     6  55    5.9334   434.5    7.887      43.996
2015    7       10     7   1    5.9397   434.6    7.884      44.016
2015    7       10     7   7    5.9459   434.7    7.881      44.037
2015    7       10     7  13    5.9523   434.9    7.879      44.059
2015    7       10     7  19    5.9588   435.0    7.877      44.083
2015    7       10     7  24    5.9655   435.1    7.876      44.108
2015    7       10     7  30    5.9723   435.3    7.875      44.136
2015    7       10     7  36    5.9792   435.4    7.875      44.166
2015    7       10     7  42    5.9864   435.6    7.876      44.199
2015    7       10     7  47    5.9938   435.7    7.877      44.236
2015    7       10     7  53    6.0013   435.9    7.878      44.276
2015    7       10     7  59    6.0091   436.1    7.881      44.321
2015    7       10     8   5    6.0170   436.3    7.884      44.369
2015    7       10     8  11    6.0252   436.5    7.887      44.421
2015    7       10     8  16    6.0336   436.7    7.892      44.478
2015    7       10     8  22    6.0421   436.9    7.897      44.537
2015    7       10     8  28    6.0509   437.1    7.903      44.600
2015    7       10     8  34    6.0598   437.3    7.909      44.666
2015    7       10     8  40    6.0689   437.5    7.916      44.736
2015    7       10     8  45    6.0782   437.7    7.924      44.809
2015    7       10     8  51    6.0875   438.0    7.932      44.887
2015    7       10     8  57    6.0971   438.2    7.940      44.968
2015    7       10     9   3    6.1067   438.4    7.949      45.053
2015    7       10     9   8    6.1165   438.7    7.959      45.140
2015    7       10     9  14    6.1264   438.9    7.969      45.231
2015    7       10     9  20    6.1363   439.2    7.979      45.324
2015    7       10     9  26    6.1464   439.4    7.990      45.419
2015    7       10     9  32    6.1565   439.7    8.001      45.517
2015    7       10     9  37    6.1667   439.9    8.012      45.618
2015    7       10     9  43    6.1769   440.2    8.024      45.722
2015    7       10     9  49    6.1873   440.4    8.037      45.828
2015    7       10     9  55    6.1977   440.7    8.050      45.937
2015    7       10    10   1    6.2082   441.0    8.063      46.049
2015    7       10    10   6    6.2187   441.2    8.077      46.165
2015    7       10    10  12    6.2293   441.5    8.092      46.285
2015    7       10    10  18    6.2399   441.8    8.107      46.410
2015    7       10    10  24    6.2505   442.1    8.123      46.537
2015    7       10    10  29    6.2611   442.4    8.139      46.667
2015    7       10    10  35    6.2716   442.7    8.155      46.801
2015    7       10    10  41    6.2821   443.0    8.172      46.941
2015    7       10    10  47    6.2925   443.3    8.189      47.086
2015    7       10    10  53    6.3028   443.7    8.205      47.235
2015    7       10    10  58    6.3129   444.0    8.222      47.388
2015    7       10    11   4    6.3229   444.4    8.238      47.543
2015    7       10    11  10    6.3326   444.7    8.254      47.700
2015    7       10    11  16    6.3421   445.1    8.269      47.860
2015    7       10    11  21    6.3513   445.5    8.283      48.021
2015    7       10    11  27    6.3602   445.9    8.296      48.182
2015    7       10    11  33    6.3688   446.3    8.308      48.341
2015    7       10    11  39    6.3770   446.6    8.319      48.498
2015    7       10    11  45    6.3850   447.1    8.328      48.653
2015    7       10    11  50    6.3926   447.5    8.336      48.806
2015    7       10    11  56    6.3998   447.9    8.342      48.957
2015    7       10    12   2    6.4067   448.3    8.348      49.103
2015    7       10    12   8    6.4134   448.7    8.351      49.245
2015    7       10    12  13    6.4197   449.1    8.354      49.381
2015    7       10    12  19    6.4257   449.5    8.355      49.514
2015    7       10    12  25    6.4314   449.9    8.355      49.642
2015    7       10    12  31    6.4369   450.4    8.353      49.766
2015    7       10    12  37    6.4421   450.8    8.351      49.886
2015    7       10    12  42    6.4471   451.2    8.347      50.002
2015    7       10    12  48    6.4519   451.6    8.343      50.115
2015    7       10    12  54    6.4565   452.0    8.337      50.224
2015    7       10    13   0    6.4609   452.4    8.331      50.329
2015    7       10    13   6    6.4652   452.8    8.324      50.432
2015    7       10    13  11    6.4692   453.3    8.316      50.531
2015    7       10    13  17    6.4732   453.7    8.308      50.627
2015    7       10    13  23    6.4770   454.1    8.299      50.721
2015    7       10    13  29    6.4807   454.5    8.289      50.812
2015    7       10    13  34    6.4843   454.9    8.279      50.901
2015    7       10    13  40    6.4878   455.3    8.269      50.987
2015    7       10    13  46    6.4913   455.7    8.258      51.071
2015    7       10    13  52    6.4946   456.1    8.247      51.154
2015    7       10    13  58    6.4979   456.5    8.236      51.235
2015    7       10    14   3    6.5011   456.8    8.224      51.315
2015    7       10    14   9    6.5042   457.2    8.212      51.393
2015    7       10    14  15    6.5073   457.6    8.200      51.470
2015    7       10    14  21    6.5103   458.0    8.188      51.547
2015    7       10    14  26    6.5133   458.4    8.176      51.622
2015    7       10    14  32    6.5162   458.8    8.163      51.697
2015    7       10    14  38    6.5191   459.2    8.150      51.770
2015    7       10    14  44    6.5219   459.6    8.138      51.843
2015    7       10    14  50    6.5247   460.0    8.125      51.915
2015    7       10    14  55    6.5274   460.3    8.112      51.986
2015    7       10    15   1    6.5302   460.7    8.099      52.057
2015    7       10    15   7    6.5329   461.1    8.087      52.128
2015    7       10    15  13    6.5357   461.5    8.074      52.198
2015    7       10    15  19    6.5384   461.9    8.061      52.269
2015    7       10    15  24    6.5412   462.2    8.049      52.340
2015    7       10    15  30    6.5439   462.6    8.036      52.411
2015    7       10    15  36    6.5467   463.0    8.024      52.483
2015    7       10    15  42    6.5495   463.4    8.012      52.556
2015    7       10    15  47    6.5522   463.8    8.000      52.631
2015    7       10    15  53    6.5550   464.2    7.988      52.707
2015    7       10    15  59    6.5577   464.6    7.976      52.783
2015    7       10    16   5    6.5604   465.0    7.965      52.860
2015    7       10    16  11    6.5631   465.4    7.953      52.937
2015    7       10    16  16    6.5657   465.8    7.942      53.015
2015    7       10    16  22    6.5683   466.2    7.931      53.092
2015    7       10    16  28    6.5709   466.6    7.920      53.169
2015    7       10    16  34    6.5733   467.0    7.909      53.247
2015    7       10    16  40    6.5758   467.4    7.898      53.324
2015    7       10    16  45    6.5782   467.8    7.888      53.401
2015    7       10    16  51    6.5805   468.1    7.878      53.477
2015    7       10    16  57    6.5828   468.5    7.869      53.553
2015    7       10    17   3    6.5851   468.9    7.860      53.629
2015    7       10    17   8    6.5874   469.3    7.851      53.705
2015    7       10    17  14    6.5896   469.6    7.843      53.781
2015    7       10    17  20    6.5919   470.0    7.836      53.859
2015    7       10    17  26    6.5941   470.3    7.829      53.937
2015    7       10    17  32    6.5964   470.7    7.824      54.017
2015    7       10    17  37    6.5987   471.0    7.819      54.099
2015    7       10    17  43    6.6010   471.4    7.815      54.183
2015    7       10    17  49    6.6034   471.7    7.813      54.268
2015    7       10    17  55    6.6059   472.1    7.811      54.355
2015    7       10    18   0    6.6085   472.4    7.812      54.447
2015    7       10    18   6    6.6112   472.8    7.813      54.541
2015    7       10    18  12    6.6142   473.1    7.816      54.640
2015    7       10    18  18    6.6171   473.5    7.821      54.746
2015    7       10    18  24    6.6202   473.8    7.826      54.859
2015    7       10    18  29    6.6233   474.2    7.832      54.979
2015    7       10    18  35    6.6265   474.6    7.839      55.104
2015    7       10    18  41    6.6295   475.0    7.846      55.235
2015    7       10    18  47    6.6325   475.4    7.854      55.371
2015    7       10    18  53    6.6353   475.8    7.861      55.510
2015    7       10    18  58    6.6381   476.2    7.869      55.653
2015    7       10    19   4    6.6405   476.6    7.875      55.799
2015    7       10    19  10    6.6428   477.0    7.881      55.947
2015    7       10    19  16    6.6446   477.4    7.885      56.098
2015    7       10    19  21    6.6463   477.9    7.889      56.249
2015    7       10    19  27    6.6474   478.4    7.891      56.403
2015    7       10    19  33    6.6482   478.8    7.891      56.555
2015    7       10    19  39    6.6485   479.3    7.890      56.705
2015    7       10    19  45    6.6486   479.8    7.887      56.851
2015    7       10    19  50    6.6483   480.3    7.883      56.995
2015    7       10    19  56    6.6478   480.8    7.878      57.135
2015    7       10    20   2    6.6470   481.3    7.871      57.273
2015    7       10    20   8    6.6459   481.8    7.863      57.407
2015    7       10    20  13    6.6446   482.3    7.854      57.538
2015    7       10    20  19    6.6431   482.8    7.843      57.666
2015    7       10    20  25    6.6414   483.3    7.832      57.792
2015    7       10    20  31    6.6397   483.8    7.820      57.914
2015    7       10    20  37    6.6379   484.3    7.808      58.034
2015    7       10    20  42    6.6360   484.8    7.794      58.150
2015    7       10    20  48    6.6341   485.3    7.780      58.263
2015    7       10    20  54    6.6322   485.8    7.766      58.373
2015    7       10    21   0    6.6302   486.2    7.751      58.480
2015    7       10    21   5    6.6283   486.7    7.736      58.585
2015    7       10    21  11    6.6263   487.2    7.720      58.688
2015    7       10    21  17    6.6244   487.7    7.705      58.788
2015    7       10    21  23    6.6225   488.1    7.689      58.886
2015    7       10    21  29    6.6206   488.6    7.672      58.981
2015    7       10    21  34    6.6188   489.1    7.656      59.076
2015    7       10    21  40    6.6171   489.6    7.639      59.167
2015    7       10    21  46    6.6154   490.0    7.623      59.257
2015    7       10    21  52    6.6138   490.5    7.606      59.345
2015    7       10    21  58    6.6123   491.0    7.589      59.431
2015    7       10    22   3    6.6108   491.5    7.572      59.515
2015    7       10    22   9    6.6093   492.0    7.554      59.597
2015    7       10    22  15    6.6079   492.5    7.537      59.677
2015    7       10    22  21    6.6065   492.9    7.519      59.755
2015    7       10    22  26    6.6050   493.4    7.501      59.832
2015    7       10    22  32    6.6035   493.9    7.483      59.907
2015    7       10    22  38    6.6020   494.5    7.464      59.981
2015    7       10    22  44    6.6004   495.0    7.445      60.054
2015    7       10    22  50    6.5987   495.5    7.426      60.125
2015    7       10    22  55    6.5969   496.0    7.406      60.195
2015    7       10    23   1    6.5949   496.5    7.386      60.264
2015    7       10    23   7    6.5928   497.1    7.365      60.332
2015    7       10    23  13    6.5905   497.6    7.344      60.397
2015    7       10    23  19    6.5880   498.2    7.321      60.460
2015    7       10    23  24    6.5852   498.7    7.298      60.522
2015    7       10    23  30    6.5822   499.3    7.274      60.583
2015    7       10    23  36    6.5789   499.9    7.248      60.642
2015    7       10    23  42    6.5752   500.4    7.222      60.695
2015    7       10    23  47    6.5712   501.0    7.194      60.742
2015    7       10    23  53    6.5666   501.6    7.165      60.784
2015    7       10    23  59    6.5618   502.1    7.136      60.819
2015    7       11     0   5    6.5565   502.7    7.106      60.849
2015    7       11     0  11    6.5509   503.3    7.075      60.873
2015    7       11     0  16    6.5448   503.8    7.043      60.892
2015    7       11     0  22    6.5385   504.3    7.011      60.904
2015    7       11     0  28    6.5318   504.8    6.979      60.908
2015    7       11     0  34    6.5249   505.3    6.946      60.906
2015    7       11     0  39    6.5177   505.8    6.914      60.898
2015    7       11     0  45    6.5103   506.2    6.882      60.883
2015    7       11     0  51    6.5027   506.7    6.851      60.863
2015    7       11     0  57    6.4950   507.1    6.820      60.843
2015    7       11     1   3    6.4873   507.5    6.790      60.824
2015    7       11     1   8    6.4798   507.9    6.761      60.807
2015    7       11     1  14    6.4722   508.3    6.732      60.791
2015    7       11     1  20    6.4647   508.8    6.705      60.778
2015    7       11     1  26    6.4571   509.2    6.678      60.770
2015    7       11     1  32    6.4497   509.6    6.652      60.769
2015    7       11     1  37    6.4421   510.0    6.627      60.774
2015    7       11     1  43    6.4346   510.5    6.602      60.786
2015    7       11     1  49    6.4270   511.0    6.578      60.804
2015    7       11     1  55    6.4194   511.4    6.554      60.828
2015    7       11     2   0    6.4116   511.9    6.530      60.855
2015    7       11     2   6    6.4038   512.4    6.506      60.885
2015    7       11     2  12    6.3957   512.9    6.482      60.917
2015    7       11     2  18    6.3876   513.4    6.459      60.949
2015    7       11     2  24    6.3791   513.9    6.435      60.982
2015    7       11     2  29    6.3705   514.3    6.411      61.014
2015    7       11     2  35    6.3617   514.8    6.388      61.044
2015    7       11     2  41    6.3528   515.2    6.364      61.070
2015    7       11     2  47    6.3436   515.7    6.340      61.092
2015    7       11     2  52    6.3344   516.1    6.317      61.111
2015    7       11     2  58    6.3251   516.5    6.293      61.127
2015    7       11     3   4    6.3158   516.9    6.270      61.139
2015    7       11     3  10    6.3064   517.3    6.247      61.150
2015    7       11     3  16    6.2971   517.7    6.224      61.160
2015    7       11     3  21    6.2878   518.1    6.202      61.168
2015    7       11     3  27    6.2785   518.5    6.180      61.176
2015    7       11     3  33    6.2693   518.9    6.158      61.183
2015    7       11     3  39    6.2601   519.3    6.137      61.191
2015    7       11     3  44    6.2509   519.6    6.116      61.199
2015    7       11     3  50    6.2418   520.0    6.095      61.206
2015    7       11     3  56    6.2327   520.4    6.074      61.212
2015    7       11     4   2    6.2237   520.8    6.054      61.219
2015    7       11     4   8    6.2147   521.2    6.034      61.224
2015    7       11     4  13    6.2057   521.5    6.014      61.229
2015    7       11     4  19    6.1967   521.9    5.994      61.233
2015    7       11     4  25    6.1878   522.3    5.974      61.235
2015    7       11     4  31    6.1788   522.7    5.955      61.236
2015    7       11     4  36    6.1700   523.0    5.936      61.236
2015    7       11     4  42    6.1610   523.4    5.917      61.234
2015    7       11     4  48    6.1522   523.7    5.898      61.231
2015    7       11     4  54    6.1433   524.1    5.879      61.227
2015    7       11     5   0    6.1345   524.5    5.861      61.220
2015    7       11     5   5    6.1255   524.8    5.842      61.212
2015    7       11     5  11    6.1167   525.2    5.824      61.203
2015    7       11     5  17    6.1076   525.5    5.806      61.191
2015    7       11     5  23    6.0987   525.9    5.788      61.179
2015    7       11     5  29    6.0895   526.3    5.770      61.165
2015    7       11     5  34    6.0803   526.7    5.752      61.150
2015    7       11     5  40    6.0710   527.0    5.734      61.135
2015    7       11     5  46    6.0616   527.4    5.716      61.120
2015    7       11     5  52    6.0519   527.8    5.697      61.105
2015    7       11     5  57    6.0423   528.2    5.679      61.091
2015    7       11     6   3    6.0324   528.6    5.660      61.077
2015    7       11     6   9    6.0224   529.0    5.641      61.063
2015    7       11     6  15    6.0121   529.4    5.622      61.050
2015    7       11     6  21    6.0017   529.9    5.601      61.035
2015    7       11     6  26    5.9909   530.3    5.581      61.019
2015    7       11     6  32    5.9800   530.7    5.559      61.000
2015    7       11     6  38    5.9687   531.2    5.537      60.982
2015    7       11     6  44    5.9572   531.6    5.513      60.960
2015    7       11     6  50    5.9452   532.1    5.489      60.930
2015    7       11     6  55    5.9329   532.5    5.464      60.891
2015    7       11     7   1    5.9201   532.9    5.437      60.843
2015    7       11     7   7    5.9071   533.4    5.410      60.790
2015    7       11     7  13    5.8936   533.8    5.382      60.729
2015    7       11     7  18    5.8798   534.2    5.353      60.656
2015    7       11     7  24    5.8655   534.7    5.324      60.573
2015    7       11     7  30    5.8511   535.0    5.295      60.481
2015    7       11     7  36    5.8363   535.4    5.266      60.381
2015    7       11     7  42    5.8215   535.8    5.236      60.275
2015    7       11     7  47    5.8065   536.2    5.207      60.163
2015    7       11     7  53    5.7914   536.5    5.178      60.046
2015    7       11     7  59    5.7764   536.8    5.150      59.923
2015    7       11     8   5    5.7614   537.1    5.123      59.801
2015    7       11     8  10    5.7464   537.4    5.096      59.679
2015    7       11     8  16    5.7317   537.7    5.070      59.559
2015    7       11     8  22    5.7171   538.0    5.045      59.438
2015    7       11     8  28    5.7026   538.3    5.020      59.317
2015    7       11     8  34    5.6883   538.5    4.997      59.198
2015    7       11     8  39    5.6742   538.8    4.974      59.084
2015    7       11     8  45    5.6602   539.1    4.952      58.973
2015    7       11     8  51    5.6463   539.4    4.930      58.865
2015    7       11     8  57    5.6325   539.6    4.909      58.758
2015    7       11     9   2    5.6188   539.9    4.888      58.653
2015    7       11     9   8    5.6051   540.2    4.867      58.548
2015    7       11     9  14    5.5915   540.4    4.847      58.443
2015    7       11     9  20    5.5779   540.7    4.826      58.337
2015    7       11     9  26    5.5644   540.9    4.806      58.229
2015    7       11     9  31    5.5508   541.1    4.786      58.121
2015    7       11     9  37    5.5374   541.4    4.767      58.011
2015    7       11     9  43    5.5239   541.6    4.747      57.900
2015    7       11     9  49    5.5105   541.8    4.728      57.789
2015    7       11     9  55    5.4972   542.0    4.709      57.676
2015    7       11    10   0    5.4838   542.2    4.690      57.563
2015    7       11    10   6    5.4705   542.4    4.671      57.448
2015    7       11    10  12    5.4573   542.6    4.652      57.332
2015    7       11    10  18    5.4441   542.8    4.634      57.214
2015    7       11    10  23    5.4309   542.9    4.616      57.097
2015    7       11    10  29    5.4178   543.1    4.598      56.978
2015    7       11    10  35    5.4048   543.2    4.580      56.859
2015    7       11    10  41    5.3918   543.4    4.562      56.739
2015    7       11    10  47    5.3789   543.5    4.545      56.619
2015    7       11    10  52    5.3660   543.7    4.528      56.498
2015    7       11    10  58    5.3532   543.8    4.511      56.377
2015    7       11    11   4    5.3404   543.9    4.494      56.257
2015    7       11    11  10    5.3278   544.0    4.478      56.136
2015    7       11    11  15    5.3152   544.1    4.462      56.016
2015    7       11    11  21    5.3026   544.3    4.446      55.896
2015    7       11    11  27    5.2902   544.4    4.431      55.777
2015    7       11    11  33    5.2778   544.5    4.415      55.659
2015    7       11    11  39    5.2655   544.5    4.400      55.542
2015    7       11    11  44    5.2532   544.6    4.385      55.426
2015    7       11    11  50    5.2410   544.7    4.371      55.311
2015    7       11    11  56    5.2289   544.8    4.356      55.197
2015    7       11    12   2    5.2168   544.9    4.342      55.084
2015    7       11    12   7    5.2047   544.9    4.328      54.973
2015    7       11    12  13    5.1928   545.0    4.314      54.863
2015    7       11    12  19    5.1809   545.0    4.301      54.755
2015    7       11    12  25    5.1690   545.1    4.287      54.647
2015    7       11    12  31    5.1572   545.1    4.274      54.541
2015    7       11    12  36    5.1454   545.2    4.262      54.436
2015    7       11    12  42    5.1337   545.2    4.249      54.333
2015    7       11    12  48    5.1220   545.3    4.236      54.230
2015    7       11    12  54    5.1104   545.3    4.224      54.128
2015    7       11    13   0    5.0989   545.3    4.212      54.027
2015    7       11    13   5    5.0874   545.3    4.201      53.927
2015    7       11    13  11    5.0759   545.4    4.189      53.827
2015    7       11    13  17    5.0646   545.4    4.178      53.727
2015    7       11    13  23    5.0532   545.4    4.167      53.628
2015    7       11    13  28    5.0420   545.4    4.156      53.529
2015    7       11    13  34    5.0308   545.4    4.145      53.430
2015    7       11    13  40    5.0197   545.4    4.135      53.332
2015    7       11    13  46    5.0086   545.3    4.125      53.233
2015    7       11    13  52    4.9977   545.3    4.116      53.135
2015    7       11    13  57    4.9868   545.3    4.106      53.037
2015    7       11    14   3    4.9760   545.3    4.097      52.940
2015    7       11    14   9    4.9653   545.2    4.088      52.843
2015    7       11    14  15    4.9547   545.2    4.080      52.748
2015    7       11    14  21    4.9442   545.1    4.071      52.653
2015    7       11    14  26    4.9338   545.1    4.063      52.560
2015    7       11    14  32    4.9235   545.0    4.056      52.468
2015    7       11    14  38    4.9133   545.0    4.048      52.378
2015    7       11    14  44    4.9032   544.9    4.041      52.291
2015    7       11    14  49    4.8932   544.8    4.034      52.205
2015    7       11    14  55    4.8833   544.8    4.027      52.122
2015    7       11    15   1    4.8735   544.7    4.020      52.041
2015    7       11    15   7    4.8639   544.6    4.014      51.962
2015    7       11    15  13    4.8543   544.6    4.008      51.884
2015    7       11    15  18    4.8448   544.5    4.002      51.807
2015    7       11    15  24    4.8354   544.4    3.996      51.730
2015    7       11    15  30    4.8262   544.3    3.990      51.654
2015    7       11    15  36    4.8169   544.2    3.985      51.579
2015    7       11    15  41    4.8078   544.1    3.979      51.504
2015    7       11    15  47    4.7987   544.1    3.974      51.430
2015    7       11    15  53    4.7897   544.0    3.969      51.356
2015    7       11    15  59    4.7807   543.9    3.963      51.283
2015    7       11    16   5    4.7719   543.9    3.958      51.211
2015    7       11    16  10    4.7630   543.8    3.953      51.138
2015    7       11    16  16    4.7542   543.7    3.947      51.065
2015    7       11    16  22    4.7454   543.7    3.942      50.991
2015    7       11    16  28    4.7367   543.6    3.936      50.917
2015    7       11    16  33    4.7280   543.6    3.931      50.842
2015    7       11    16  39    4.7193   543.5    3.925      50.767
2015    7       11    16  45    4.7106   543.5    3.919      50.691
2015    7       11    16  51    4.7019   543.4    3.913      50.615
2015    7       11    16  57    4.6932   543.4    3.907      50.539
2015    7       11    17   2    4.6846   543.3    3.901      50.462
2015    7       11    17   8    4.6759   543.3    3.895      50.384
2015    7       11    17  14    4.6672   543.2    3.888      50.305
2015    7       11    17  20    4.6586   543.2    3.882      50.225
2015    7       11    17  26    4.6499   543.1    3.875      50.143
2015    7       11    17  31    4.6413   543.0    3.868      50.061
2015    7       11    17  37    4.6326   543.0    3.862      49.977
2015    7       11    17  43    4.6240   542.9    3.855      49.893
2015    7       11    17  49    4.6154   542.9    3.848      49.808
2015    7       11    17  54    4.6068   542.8    3.841      49.722
2015    7       11    18   0    4.5982   542.7    3.834      49.635
2015    7       11    18   6    4.5896   542.7    3.827      49.548
2015    7       11    18  12    4.5811   542.6    3.820      49.460
2015    7       11    18  18    4.5727   542.5    3.813      49.371
2015    7       11    18  23    4.5642   542.5    3.806      49.282
2015    7       11    18  29    4.5558   542.4    3.799      49.193
2015    7       11    18  35    4.5475   542.3    3.792      49.104
2015    7       11    18  41    4.5392   542.2    3.785      49.016
2015    7       11    18  46    4.5310   542.2    3.778      48.927
2015    7       11    18  52    4.5229   542.1    3.771      48.839
2015    7       11    18  58    4.5148   542.0    3.764      48.750
2015    7       11    19   4    4.5067   541.9    3.757      48.663
2015    7       11    19  10    4.4987   541.8    3.751      48.576
2015    7       11    19  15    4.4908   541.7    3.744      48.490
2015    7       11    19  21    4.4829   541.6    3.737      48.404
2015    7       11    19  27    4.4751   541.5    3.730      48.319
2015    7       11    19  33    4.4673   541.4    3.724      48.235
2015    7       11    19  38    4.4596   541.3    3.717      48.152
2015    7       11    19  44    4.4520   541.2    3.711      48.069
2015    7       11    19  50    4.4444   541.1    3.704      47.987
2015    7       11    19  56    4.4369   541.0    3.698      47.905
2015    7       11    20   2    4.4294   540.9    3.692      47.824
2015    7       11    20   7    4.4220   540.8    3.686      47.744
2015    7       11    20  13    4.4146   540.7    3.680      47.664
2015    7       11    20  19    4.4073   540.6    3.674      47.584
2015    7       11    20  25    4.4001   540.5    3.668      47.505
2015    7       11    20  31    4.3929   540.3    3.662      47.425
2015    7       11    20  36    4.3857   540.2    3.657      47.346
2015    7       11    20  42    4.3787   540.1    3.652      47.267
2015    7       11    20  48    4.3716   540.0    3.646      47.189
2015    7       11    20  54    4.3647   539.8    3.641      47.110
2015    7       11    20  59    4.3578   539.7    3.636      47.033
2015    7       11    21   5    4.3509   539.6    3.632      46.955
2015    7       11    21  11    4.3441   539.4    3.627      46.878
2015    7       11    21  17    4.3374   539.3    3.623      46.802
2015    7       11    21  23    4.3307   539.1    3.618      46.727
2015    7       11    21  28    4.3240   539.0    3.614      46.653
2015    7       11    21  34    4.3175   538.9    3.610      46.580
2015    7       11    21  40    4.3109   538.7    3.607      46.508
2015    7       11    21  46    4.3044   538.6    3.603      46.437
2015    7       11    21  52    4.2979   538.4    3.599      46.368
2015    7       11    21  57    4.2915   538.3    3.596      46.301
2015    7       11    22   3    4.2851   538.1    3.592      46.236
2015    7       11    22   9    4.2787   538.0    3.589      46.173
2015    7       11    22  15    4.2723   537.8    3.586      46.111
2015    7       11    22  20    4.2660   537.7    3.583      46.051
2015    7       11    22  26    4.2597   537.5    3.580      45.991
2015    7       11    22  32    4.2534   537.3    3.576      45.933
2015    7       11    22  38    4.2472   537.2    3.573      45.875
2015    7       11    22  44    4.2409   537.0    3.570      45.818
2015    7       11    22  49    4.2347   536.9    3.567      45.761
2015    7       11    22  55    4.2285   536.7    3.564      45.704
2015    7       11    23   1    4.2224   536.5    3.560      45.647
2015    7       11    23   7    4.2162   536.4    3.557      45.590
2015    7       11    23  12    4.2100   536.2    3.554      45.532
2015    7       11    23  18    4.2039   536.0    3.550      45.474
2015    7       11    23  24    4.1978   535.9    3.547      45.415
2015    7       11    23  30    4.1917   535.7    3.543      45.356
2015    7       11    23  36    4.1856   535.5    3.540      45.295
2015    7       11    23  41    4.1795   535.4    3.536      45.233
2015    7       11    23  47    4.1734   535.2    3.533      45.171
2015    7       11    23  53    4.1674   535.0    3.529      45.108
2015    7       11    23  59    4.1613   534.8    3.526      45.045
2015    7       12     0   4    4.1553   534.7    3.522      44.981
2015    7       12     0  10    4.1493   534.5    3.518      44.916
2015    7       12     0  16    4.1432   534.3    3.515      44.851
2015    7       12     0  22    4.1372   534.2    3.511      44.785
2015    7       12     0  28    4.1312   534.0    3.508      44.719
2015    7       12     0  33    4.1252   533.8    3.504      44.652
2015    7       12     0  39    4.1193   533.6    3.501      44.585
2015    7       12     0  45    4.1133   533.5    3.497      44.518
2015    7       12     0  51    4.1074   533.3    3.494      44.451
2015    7       12     0  56    4.1014   533.1    3.490      44.383
2015    7       12     1   2    4.0955   532.9    3.487      44.315
2015    7       12     1   8    4.0896   532.7    3.483      44.247
2015    7       12     1  14    4.0837   532.5    3.480      44.179
2015    7       12     1  20    4.0779   532.4    3.477      44.110
2015    7       12     1  25    4.0721   532.2    3.473      44.042
2015    7       12     1  31    4.0663   532.0    3.470      43.973
2015    7       12     1  37    4.0605   531.8    3.467      43.904
2015    7       12     1  43    4.0547   531.6    3.464      43.836
2015    7       12     1  49    4.0490   531.4    3.461      43.767
2015    7       12     1  54    4.0433   531.2    3.458      43.698
2015    7       12     2   0    4.0377   531.0    3.455      43.630
2015    7       12     2   6    4.0321   530.8    3.452      43.561
2015    7       12     2  12    4.0265   530.6    3.450      43.493
2015    7       12     2  17    4.0210   530.4    3.447      43.425
2015    7       12     2  23    4.0155   530.2    3.445      43.357
2015    7       12     2  29    4.0100   530.0    3.442      43.289
2015    7       12     2  35    4.0045   529.8    3.440      43.221
2015    7       12     2  41    3.9991   529.6    3.437      43.154
2015    7       12     2  46    3.9938   529.4    3.435      43.087
2015    7       12     2  52    3.9884   529.2    3.433      43.021
2015    7       12     2  58    3.9831   529.0    3.431      42.955
2015    7       12     3   4    3.9778   528.8    3.429      42.889
2015    7       12     3   9    3.9726   528.6    3.427      42.824
2015    7       12     3  15    3.9674   528.4    3.425      42.759
2015    7       12     3  21    3.9622   528.1    3.423      42.694
2015    7       12     3  27    3.9571   527.9    3.421      42.630
2015    7       12     3  33    3.9520   527.7    3.420      42.567
2015    7       12     3  38    3.9469   527.5    3.418      42.504
2015    7       12     3  44    3.9418   527.3    3.416      42.442
2015    7       12     3  50    3.9368   527.1    3.414      42.380
2015    7       12     3  56    3.9318   526.8    3.413      42.318
2015    7       12     4   2    3.9268   526.6    3.411      42.257
2015    7       12     4   7    3.9219   526.4    3.410      42.196
2015    7       12     4  13    3.9170   526.2    3.408      42.135
2015    7       12     4  19    3.9121   525.9    3.406      42.075
2015    7       12     4  25    3.9072   525.7    3.405      42.016
2015    7       12     4  30    3.9024   525.5    3.403      41.956
2015    7       12     4  36    3.8975   525.3    3.401      41.898
2015    7       12     4  42    3.8927   525.0    3.400      41.839
2015    7       12     4  48    3.8879   524.8    3.398      41.781
2015    7       12     4  54    3.8832   524.6    3.396      41.723
2015    7       12     4  59    3.8784   524.4    3.395      41.666
2015    7       12     5   5    3.8737   524.1    3.393      41.609
2015    7       12     5  11    3.8690   523.9    3.391      41.552
2015    7       12     5  17    3.8643   523.7    3.389      41.496
2015    7       12     5  23    3.8596   523.4    3.388      41.439
2015    7       12     5  28    3.8550   523.2    3.386      41.383
2015    7       12     5  34    3.8503   523.0    3.384      41.326
2015    7       12     5  40    3.8457   522.7    3.382      41.270
2015    7       12     5  46    3.8411   522.5    3.380      41.213
2015    7       12     5  51    3.8365   522.3    3.378      41.157
2015    7       12     5  57    3.8319   522.0    3.376      41.100
2015    7       12     6   3    3.8274   521.8    3.374      41.043
2015    7       12     6   9    3.8228   521.6    3.372      40.986
2015    7       12     6  15    3.8183   521.3    3.369      40.928
2015    7       12     6  20    3.8137   521.1    3.367      40.871
2015    7       12     6  26    3.8092   520.9    3.365      40.813
2015    7       12     6  32    3.8047   520.6    3.363      40.755
2015    7       12     6  38    3.8002   520.4    3.361      40.696
2015    7       12     6  43    3.7957   520.2    3.358      40.638
2015    7       12     6  49    3.7912   519.9    3.356      40.579
2015    7       12     6  55    3.7868   519.7    3.354      40.520
2015    7       12     7   1    3.7823   519.4    3.352      40.461
2015    7       12     7   7    3.7779   519.2    3.350      40.401
2015    7       12     7  12    3.7735   518.9    3.347      40.342
2015    7       12     7  18    3.7691   518.7    3.345      40.282
2015    7       12     7  24    3.7647   518.5    3.343      40.222
2015    7       12     7  30    3.7603   518.2    3.341      40.162
2015    7       12     7  35    3.7559   518.0    3.338      40.103
2015    7       12     7  41    3.7516   517.7    3.336      40.042
2015    7       12     7  47    3.7473   517.5    3.334      39.983
2015    7       12     7  53    3.7430   517.2    3.332      39.922
2015    7       12     7  59    3.7387   517.0    3.330      39.863
2015    7       12     8   4    3.7344   516.7    3.327      39.803
2015    7       12     8  10    3.7302   516.5    3.325      39.743
2015    7       12     8  16    3.7259   516.2    3.323      39.683
2015    7       12     8  22    3.7217   516.0    3.321      39.623
2015    7       12     8  27    3.7175   515.7    3.319      39.563
2015    7       12     8  33    3.7134   515.5    3.317      39.504
2015    7       12     8  39    3.7092   515.2    3.315      39.444
2015    7       12     8  45    3.7051   515.0    3.314      39.385
2015    7       12     8  51    3.7010   514.7    3.312      39.325
2015    7       12     8  56    3.6969   514.5    3.310      39.266
2015    7       12     9   2    3.6928   514.2    3.308      39.207
2015    7       12     9   8    3.6888   514.0    3.307      39.148
2015    7       12     9  14    3.6848   513.7    3.305      39.090
2015    7       12     9  20    3.6808   513.5    3.304      39.031
2015    7       12     9  25    3.6768   513.2    3.302      38.973
2015    7       12     9  31    3.6729   512.9    3.301      38.915
2015    7       12     9  37    3.6690   512.7    3.300      38.858
2015    7       12     9  43    3.6651   512.4    3.299      38.801
2015    7       12     9  48    3.6612   512.2    3.298      38.744
2015    7       12     9  54    3.6574   511.9    3.297      38.688
2015    7       12    10   0    3.6536   511.6    3.296      38.632
2015    7       12    10   6    3.6498   511.4    3.295      38.577
2015    7       12    10  12    3.6460   511.1    3.294      38.522
2015    7       12    10  17    3.6423   510.8    3.293      38.468
2015    7       12    10  23    3.6386   510.6    3.293      38.414
2015    7       12    10  29    3.6350   510.3    3.292      38.361
2015    7       12    10  35    3.6313   510.0    3.292      38.307
2015    7       12    10  40    3.6277   509.8    3.291      38.254
2015    7       12    10  46    3.6241   509.5    3.291      38.202
2015    7       12    10  52    3.6205   509.3    3.290      38.149
2015    7       12    10  58    3.6170   509.0    3.290      38.097
2015    7       12    11   4    3.6134   508.7    3.289      38.045
2015    7       12    11   9    3.6098   508.5    3.289      37.992
2015    7       12    11  15    3.6063   508.2    3.289      37.940
2015    7       12    11  21    3.6028   507.9    3.288      37.888
2015    7       12    11  27    3.5993   507.7    3.288      37.836
2015    7       12    11  33    3.5957   507.4    3.287      37.783
2015    7       12    11  38    3.5922   507.1    3.287      37.731
2015    7       12    11  44    3.5886   506.9    3.286      37.678
2015    7       12    11  50    3.5851   506.6    3.286      37.624
2015    7       12    11  56    3.5816   506.3    3.285      37.571
2015    7       12    12   1    3.5780   506.1    3.285      37.517
2015    7       12    12   7    3.5744   505.8    3.284      37.462
2015    7       12    12  13    3.5709   505.5    3.283      37.408
2015    7       12    12  19    3.5673   505.2    3.283      37.353
2015    7       12    12  25    3.5638   505.0    3.282      37.298
2015    7       12    12  30    3.5602   504.7    3.281      37.242
2015    7       12    12  36    3.5567   504.4    3.281      37.186
2015    7       12    12  42    3.5531   504.1    3.280      37.130
2015    7       12    12  48    3.5496   503.8    3.279      37.074
2015    7       12    12  54    3.5460   503.6    3.279      37.017
2015    7       12    12  59    3.5425   503.3    3.278      36.961
2015    7       12    13   5    3.5390   503.0    3.277      36.904
2015    7       12    13  11    3.5355   502.7    3.276      36.848
2015    7       12    13  17    3.5320   502.4    3.276      36.791
2015    7       12    13  22    3.5285   502.1    3.275      36.735
2015    7       12    13  28    3.5251   501.8    3.275      36.679
2015    7       12    13  34    3.5217   501.5    3.274      36.623
2015    7       12    13  40    3.5183   501.2    3.274      36.567
2015    7       12    13  46    3.5149   500.9    3.273      36.512
2015    7       12    13  51    3.5115   500.6    3.273      36.457
2015    7       12    13  57    3.5082   500.3    3.273      36.403
2015    7       12    14   3    3.5049   500.0    3.273      36.349
2015    7       12    14   9    3.5016   499.7    3.273      36.295
2015    7       12    14  14    3.4984   499.4    3.273      36.243
2015    7       12    14  20    3.4952   499.1    3.273      36.191
2015    7       12    14  26    3.4920   498.8    3.273      36.140
2015    7       12    14  32    3.4889   498.5    3.274      36.089
2015    7       12    14  38    3.4858   498.2    3.274      36.039
2015    7       12    14  43    3.4827   497.9    3.275      35.990
2015    7       12    14  49    3.4797   497.6    3.275      35.941
2015    7       12    14  55    3.4767   497.3    3.275      35.893
2015    7       12    15   1    3.4737   497.0    3.276      35.845
2015    7       12    15   6    3.4707   496.7    3.276      35.797
2015    7       12    15  12    3.4677   496.4    3.277      35.750
2015    7       12    15  18    3.4647   496.1    3.277      35.703
2015    7       12    15  24    3.4617   495.8    3.278      35.656
2015    7       12    15  30    3.4588   495.5    3.278      35.609
2015    7       12    15  35    3.4558   495.2    3.278      35.561
2015    7       12    15  41    3.4528   494.9    3.278      35.513
2015    7       12    15  47    3.4498   494.6    3.278      35.465
2015    7       12    15  53    3.4468   494.3    3.278      35.417
2015    7       12    15  58    3.4439   494.0    3.278      35.368
2015    7       12    16   4    3.4409   493.7    3.278      35.319
2015    7       12    16  10    3.4379   493.4    3.278      35.270
2015    7       12    16  16    3.4349   493.1    3.277      35.219
2015    7       12    16  22    3.4319   492.8    3.277      35.169
2015    7       12    16  27    3.4289   492.5    3.276      35.118
2015    7       12    16  33    3.4259   492.2    3.276      35.067
2015    7       12    16  39    3.4229   492.0    3.275      35.015
2015    7       12    16  45    3.4200   491.7    3.275      34.963
2015    7       12    16  50    3.4170   491.4    3.274      34.911
2015    7       12    16  56    3.4140   491.1    3.273      34.858
2015    7       12    17   2    3.4110   490.8    3.272      34.805
2015    7       12    17   8    3.4081   490.5    3.272      34.752
2015    7       12    17  14    3.4051   490.2    3.271      34.699
2015    7       12    17  19    3.4022   489.9    3.270      34.645
2015    7       12    17  25    3.3992   489.6    3.269      34.592
2015    7       12    17  31    3.3963   489.3    3.268      34.538
2015    7       12    17  37    3.3934   489.0    3.267      34.484
2015    7       12    17  43    3.3905   488.7    3.267      34.430
2015    7       12    17  48    3.3876   488.5    3.266      34.376
2015    7       12    17  54    3.3847   488.2    3.265      34.321
2015    7       12    18   0    3.3819   487.9    3.264      34.267
2015    7       12    18   6    3.3790   487.6    3.263      34.213
2015    7       12    18  11    3.3761   487.3    3.262      34.158
2015    7       12    18  17    3.3732   487.0    3.261      34.104
2015    7       12    18  23    3.3704   486.7    3.261      34.049
2015    7       12    18  29    3.3675   486.4    3.260      33.994
2015    7       12    18  35    3.3646   486.1    3.259      33.939
2015    7       12    18  40    3.3618   485.8    3.258      33.884
2015    7       12    18  46    3.3589   485.5    3.257      33.829
2015    7       12    18  52    3.3560   485.2    3.256      33.773
2015    7       12    18  58    3.3532   484.9    3.255      33.718
2015    7       12    19   4    3.3503   484.7    3.254      33.662
2015    7       12    19   9    3.3474   484.4    3.253      33.606
2015    7       12    19  15    3.3446   484.1    3.252      33.549
2015    7       12    19  21    3.3417   483.8    3.252      33.493
2015    7       12    19  27    3.3389   483.5    3.251      33.436
2015    7       12    19  32    3.3360   483.1    3.250      33.379
2015    7       12    19  38    3.3332   482.8    3.249      33.322
2015    7       12    19  44    3.3304   482.5    3.248      33.265
2015    7       12    19  50    3.3275   482.2    3.247      33.208
2015    7       12    19  56    3.3247   481.9    3.246      33.150
2015    7       12    20   1    3.3219   481.6    3.245      33.093
2015    7       12    20   7    3.3191   481.3    3.244      33.036
2015    7       12    20  13    3.3164   481.0    3.243      32.979
2015    7       12    20  19    3.3136   480.7    3.243      32.922
2015    7       12    20  25    3.3109   480.3    3.242      32.865
2015    7       12    20  30    3.3082   480.0    3.241      32.808
2015    7       12    20  36    3.3055   479.7    3.241      32.752
2015    7       12    20  42    3.3028   479.4    3.240      32.697
2015    7       12    20  48    3.3002   479.1    3.240      32.641
2015    7       12    20  53    3.2976   478.7    3.239      32.586
2015    7       12    20  59    3.2950   478.4    3.239      32.532
2015    7       12    21   5    3.2924   478.1    3.239      32.479
2015    7       12    21  11    3.2899   477.8    3.239      32.426
2015    7       12    21  17    3.2874   477.4    3.239      32.373
2015    7       12    21  22    3.2850   477.1    3.239      32.322
2015    7       12    21  28    3.2826   476.8    3.239      32.272
2015    7       12    21  34    3.2803   476.5    3.239      32.222
2015    7       12    21  40    3.2779   476.1    3.240      32.174
2015    7       12    21  45    3.2756   475.8    3.241      32.126
2015    7       12    21  51    3.2734   475.5    3.241      32.080
2015    7       12    21  57    3.2711   475.2    3.242      32.033
2015    7       12    22   3    3.2689   474.8    3.243      31.988
2015    7       12    22   9    3.2668   474.5    3.244      31.944
2015    7       12    22  14    3.2646   474.2    3.245      31.900
2015    7       12    22  20    3.2625   473.9    3.246      31.857
2015    7       12    22  26    3.2603   473.5    3.247      31.815
2015    7       12    22  32    3.2582   473.2    3.248      31.773
2015    7       12    22  37    3.2562   472.9    3.249      31.732
2015    7       12    22  43    3.2541   472.6    3.251      31.690
2015    7       12    22  49    3.2520   472.3    3.252      31.649
2015    7       12    22  55    3.2499   471.9    3.253      31.608
2015    7       12    23   1    3.2479   471.6    3.254      31.567
2015    7       12    23   6    3.2458   471.3    3.255      31.526
2015    7       12    23  12    3.2438   471.0    3.257      31.486
2015    7       12    23  18    3.2418   470.6    3.258      31.445
2015    7       12    23  24    3.2397   470.3    3.259      31.404
2015    7       12    23  29    3.2377   470.0    3.260      31.363
2015    7       12    23  35    3.2357   469.7    3.262      31.322
2015    7       12    23  41    3.2337   469.4    3.263      31.281
2015    7       12    23  47    3.2317   469.1    3.264      31.240
2015    7       12    23  53    3.2297   468.7    3.265      31.199
2015    7       12    23  58    3.2277   468.4    3.267      31.158
2015    7       13     0   4    3.2257   468.1    3.268      31.116
2015    7       13     0  10    3.2237   467.8    3.270      31.075
2015    7       13     0  16    3.2217   467.5    3.271      31.033
2015    7       13     0  22    3.2197   467.1    3.272      30.991
2015    7       13     0  27    3.2177   466.8    3.274      30.949
2015    7       13     0  33    3.2157   466.5    3.275      30.907
2015    7       13     0  39    3.2138   466.2    3.277      30.865
2015    7       13     0  45    3.2117   465.9    3.278      30.823
2015    7       13     0  50    3.2098   465.5    3.279      30.780
2015    7       13     0  56    3.2077   465.2    3.281      30.738
2015    7       13     1   2    3.2057   464.9    3.282      30.695
2015    7       13     1   8    3.2037   464.6    3.284      30.652
2015    7       13     1  14    3.2017   464.2    3.285      30.608
2015    7       13     1  19    3.1997   463.9    3.287      30.565
2015    7       13     1  25    3.1977   463.6    3.288      30.521
2015    7       13     1  31    3.1957   463.2    3.289      30.478
2015    7       13     1  37    3.1938   462.9    3.291      30.434
2015    7       13     1  43    3.1918   462.6    3.292      30.390
2015    7       13     1  48    3.1898   462.2    3.294      30.346
2015    7       13     1  54    3.1878   461.9    3.295      30.302
2015    7       13     2   0    3.1859   461.6    3.297      30.258
2015    7       13     2   6    3.1839   461.2    3.298      30.214
2015    7       13     2  11    3.1820   460.9    3.300      30.170
2015    7       13     2  17    3.1801   460.6    3.301      30.126
2015    7       13     2  23    3.1782   460.2    3.303      30.082
2015    7       13     2  29    3.1763   459.9    3.304      30.038
2015    7       13     2  35    3.1744   459.6    3.306      29.994
2015    7       13     2  40    3.1726   459.2    3.307      29.951
2015    7       13     2  46    3.1708   458.9    3.309      29.907
2015    7       13     2  52    3.1689   458.6    3.310      29.863
2015    7       13     2  58    3.1671   458.2    3.311      29.820
2015    7       13     3   4    3.1654   457.9    3.313      29.776
2015    7       13     3   9    3.1636   457.5    3.314      29.733
2015    7       13     3  15    3.1618   457.2    3.316      29.689
2015    7       13     3  21    3.1601   456.9    3.317      29.646
2015    7       13     3  27    3.1584   456.5    3.318      29.602
2015    7       13     3  32    3.1567   456.2    3.320      29.559
2015    7       13     3  38    3.1550   455.9    3.321      29.515
2015    7       13     3  44    3.1533   455.5    3.322      29.471
2015    7       13     3  50    3.1516   455.2    3.323      29.428
2015    7       13     3  56    3.1500   454.8    3.324      29.384
2015    7       13     4   1    3.1483   454.5    3.326      29.340
2015    7       13     4   7    3.1467   454.2    3.327      29.296
2015    7       13     4  13    3.1451   453.8    3.328      29.252
2015    7       13     4  19    3.1435   453.5    3.329      29.208
2015    7       13     4  24    3.1419   453.1    3.330      29.164
2015    7       13     4  30    3.1403   452.8    3.331      29.120
2015    7       13     4  36    3.1388   452.5    3.332      29.075
2015    7       13     4  42    3.1372   452.1    3.333      29.031
2015    7       13     4  48    3.1357   451.8    3.334      28.986
2015    7       13     4  53    3.1342   451.4    3.335      28.941
2015    7       13     4  59    3.1327   451.1    3.336      28.897
2015    7       13     5   5    3.1312   450.7    3.337      28.852
2015    7       13     5  11    3.1298   450.4    3.338      28.807
2015    7       13     5  17    3.1283   450.0    3.339      28.762
2015    7       13     5  22    3.1269   449.7    3.340      28.718
2015    7       13     5  28    3.1255   449.4    3.341      28.673
2015    7       13     5  34    3.1241   449.0    3.342      28.628
2015    7       13     5  40    3.1227   448.7    3.343      28.584
2015    7       13     5  45    3.1214   448.3    3.344      28.540
2015    7       13     5  51    3.1201   448.0    3.346      28.495
2015    7       13     5  57    3.1188   447.6    3.347      28.452
2015    7       13     6   3    3.1175   447.3    3.348      28.408
2015    7       13     6   9    3.1162   446.9    3.350      28.365
2015    7       13     6  14    3.1150   446.6    3.351      28.322
2015    7       13     6  20    3.1138   446.2    3.353      28.279
2015    7       13     6  26    3.1126   445.9    3.354      28.236
2015    7       13     6  32    3.1114   445.6    3.356      28.195
2015    7       13     6  37    3.1103   445.2    3.358      28.153
2015    7       13     6  43    3.1091   444.9    3.359      28.112
2015    7       13     6  49    3.1080   444.5    3.361      28.071
2015    7       13     6  55    3.1069   444.2    3.363      28.030
2015    7       13     7   1    3.1058   443.9    3.365      27.990
2015    7       13     7   6    3.1047   443.5    3.367      27.951
2015    7       13     7  12    3.1037   443.2    3.369      27.911
2015    7       13     7  18    3.1026   442.8    3.371      27.872
2015    7       13     7  24    3.1016   442.5    3.374      27.833
2015    7       13     7  30    3.1006   442.2    3.376      27.795
2015    7       13     7  35    3.0995   441.8    3.378      27.756
2015    7       13     7  41    3.0985   441.5    3.381      27.718
2015    7       13     7  47    3.0975   441.1    3.383      27.680
2015    7       13     7  53    3.0965   440.8    3.386      27.642
2015    7       13     7  58    3.0955   440.5    3.388      27.605
2015    7       13     8   4    3.0945   440.1    3.391      27.567
2015    7       13     8  10    3.0935   439.8    3.394      27.529
2015    7       13     8  16    3.0925   439.4    3.396      27.492
2015    7       13     8  22    3.0916   439.1    3.399      27.455
2015    7       13     8  27    3.0906   438.7    3.402      27.417
2015    7       13     8  33    3.0897   438.4    3.405      27.380
2015    7       13     8  39    3.0887   438.1    3.408      27.343
2015    7       13     8  45    3.0878   437.7    3.411      27.306
2015    7       13     8  51    3.0869   437.4    3.414      27.269
2015    7       13     8  56    3.0860   437.0    3.417      27.232
2015    7       13     9   2    3.0851   436.7    3.420      27.195
2015    7       13     9   8    3.0843   436.3    3.423      27.159
2015    7       13     9  14    3.0834   436.0    3.427      27.123
2015    7       13     9  19    3.0827   435.6    3.430      27.087
2015    7       13     9  25    3.0819   435.2    3.434      27.051
2015    7       13     9  31    3.0812   434.9    3.437      27.016
2015    7       13     9  37    3.0804   434.5    3.441      26.981
2015    7       13     9  43    3.0798   434.2    3.445      26.947
2015    7       13     9  48    3.0792   433.8    3.449      26.913
2015    7       13     9  54    3.0786   433.5    3.453      26.880
2015    7       13    10   0    3.0781   433.1    3.457      26.847
2015    7       13    10   6    3.0776   432.8    3.461      26.814
2015    7       13    10  12    3.0771   432.4    3.465      26.782
2015    7       13    10  17    3.0767   432.1    3.470      26.751
2015    7       13    10  23    3.0763   431.7    3.475      26.720
2015    7       13    10  29    3.0760   431.4    3.479      26.689
2015    7       13    10  35    3.0757   431.0    3.484      26.659
2015    7       13    10  40    3.0755   430.7    3.489      26.630
2015    7       13    10  46    3.0753   430.3    3.494      26.601
2015    7       13    10  52    3.0752   430.0    3.499      26.573
2015    7       13    10  58    3.0751   429.6    3.505      26.545
2015    7       13    11   4    3.0751   429.3    3.510      26.518
2015    7       13    11   9    3.0751   428.9    3.515      26.491
2015    7       13    11  15    3.0751   428.6    3.521      26.464
2015    7       13    11  21    3.0752   428.2    3.527      26.438
2015    7       13    11  27    3.0754   427.9    3.532      26.413
2015    7       13    11  33    3.0755   427.5    3.538      26.388
2015    7       13    11  38    3.0758   427.2    3.544      26.363
2015    7       13    11  44    3.0760   426.8    3.550      26.339
2015    7       13    11  50    3.0764   426.5    3.557      26.315
2015    7       13    11  56    3.0767   426.1    3.563      26.291
2015    7       13    12   1    3.0771   425.8    3.569      26.268
2015    7       13    12   7    3.0775   425.4    3.575      26.245
2015    7       13    12  13    3.0780   425.1    3.582      26.222
2015    7       13    12  19    3.0785   424.8    3.588      26.200
2015    7       13    12  25    3.0790   424.4    3.595      26.177
2015    7       13    12  30    3.0796   424.1    3.601      26.155
2015    7       13    12  36    3.0802   423.8    3.608      26.133
2015    7       13    12  42    3.0807   423.4    3.615      26.111
2015    7       13    12  48    3.0814   423.1    3.621      26.089
2015    7       13    12  53    3.0820   422.8    3.628      26.068
2015    7       13    12  59    3.0826   422.4    3.634      26.046
2015    7       13    13   5    3.0833   422.1    3.641      26.024
2015    7       13    13  11    3.0840   421.8    3.648      26.002
2015    7       13    13  17    3.0846   421.4    3.654      25.980
2015    7       13    13  22    3.0853   421.1    3.661      25.959
2015    7       13    13  28    3.0860   420.8    3.668      25.936
2015    7       13    13  34    3.0867   420.5    3.674      25.914
2015    7       13    13  40    3.0874   420.1    3.681      25.892
2015    7       13    13  45    3.0881   419.8    3.687      25.870
2015    7       13    13  51    3.0888   419.5    3.694      25.848
2015    7       13    13  57    3.0896   419.2    3.700      25.825
2015    7       13    14   3    3.0903   418.8    3.706      25.802
2015    7       13    14   9    3.0911   418.5    3.713      25.780
2015    7       13    14  14    3.0918   418.2    3.719      25.757
2015    7       13    14  20    3.0926   417.9    3.725      25.734
2015    7       13    14  26    3.0933   417.5    3.731      25.711
2015    7       13    14  32    3.0941   417.2    3.738      25.688
2015    7       13    14  38    3.0949   416.9    3.744      25.664
2015    7       13    14  43    3.0957   416.6    3.750      25.641
2015    7       13    14  49    3.0966   416.3    3.756      25.617
2015    7       13    14  55    3.0974   415.9    3.762      25.594
2015    7       13    15   1    3.0982   415.6    3.768      25.570
2015    7       13    15   6    3.0991   415.3    3.774      25.546
2015    7       13    15  12    3.1000   415.0    3.780      25.523
2015    7       13    15  18    3.1009   414.7    3.786      25.499
2015    7       13    15  24    3.1018   414.4    3.792      25.475
2015    7       13    15  30    3.1027   414.1    3.798      25.451
2015    7       13    15  35    3.1037   413.7    3.804      25.427
2015    7       13    15  41    3.1046   413.4    3.810      25.402
2015    7       13    15  47    3.1056   413.1    3.816      25.378
2015    7       13    15  53    3.1066   412.8    3.822      25.354
2015    7       13    15  59    3.1076   412.5    3.828      25.330
2015    7       13    16   4    3.1087   412.2    3.834      25.306
2015    7       13    16  10    3.1097   411.9    3.840      25.282
2015    7       13    16  16    3.1108   411.6    3.846      25.258
2015    7       13    16  22    3.1119   411.2    3.852      25.234
2015    7       13    16  27    3.1131   410.9    3.858      25.210
2015    7       13    16  33    3.1143   410.6    3.864      25.187
2015    7       13    16  39    3.1155   410.3    3.871      25.163
2015    7       13    16  45    3.1167   410.0    3.877      25.140
2015    7       13    16  51    3.1180   409.7    3.883      25.117
2015    7       13    16  56    3.1193   409.4    3.890      25.095
2015    7       13    17   2    3.1206   409.1    3.897      25.072
2015    7       13    17   8    3.1220   408.8    3.903      25.050
2015    7       13    17  14    3.1235   408.5    3.910      25.029
2015    7       13    17  19    3.1249   408.2    3.917      25.008
2015    7       13    17  25    3.1265   407.9    3.924      24.987
2015    7       13    17  31    3.1280   407.6    3.931      24.967
2015    7       13    17  37    3.1296   407.3    3.939      24.948
2015    7       13    17  43    3.1313   407.0    3.946      24.929
2015    7       13    17  48    3.1330   406.7    3.954      24.910
2015    7       13    17  54    3.1348   406.4    3.962      24.893
2015    7       13    18   0    3.1366   406.1    3.969      24.875
2015    7       13    18   6    3.1384   405.8    3.978      24.859
2015    7       13    18  12    3.1404   405.5    3.986      24.843
2015    7       13    18  17    3.1423   405.2    3.994      24.828
2015    7       13    18  23    3.1444   405.0    4.003      24.814
2015    7       13    18  29    3.1464   404.7    4.012      24.800
2015    7       13    18  35    3.1486   404.4    4.020      24.787
2015    7       13    18  40    3.1507   404.1    4.029      24.774
2015    7       13    18  46    3.1530   403.8    4.039      24.762
2015    7       13    18  52    3.1553   403.6    4.048      24.752
2015    7       13    18  58    3.1576   403.3    4.058      24.741
2015    7       13    19   4    3.1600   403.0    4.067      24.732
2015    7       13    19   9    3.1624   402.8    4.077      24.722
2015    7       13    19  15    3.1649   402.5    4.087      24.714
2015    7       13    19  21    3.1674   402.2    4.097      24.706
2015    7       13    19  27    3.1700   402.0    4.107      24.699
2015    7       13    19  32    3.1726   401.7    4.118      24.692
2015    7       13    19  38    3.1753   401.4    4.128      24.686
2015    7       13    19  44    3.1780   401.2    4.139      24.680
2015    7       13    19  50    3.1807   400.9    4.149      24.675
2015    7       13    19  56    3.1834   400.7    4.160      24.671
2015    7       13    20   1    3.1862   400.4    4.171      24.666
2015    7       13    20   7    3.1890   400.2    4.182      24.662
2015    7       13    20  13    3.1917   400.0    4.192      24.658
2015    7       13    20  19    3.1946   399.7    4.203      24.655
2015    7       13    20  24    3.1974   399.5    4.214      24.652
2015    7       13    20  30    3.2003   399.2    4.225      24.649
2015    7       13    20  36    3.2031   399.0    4.236      24.646
2015    7       13    20  42    3.2060   398.8    4.247      24.644
2015    7       13    20  48    3.2088   398.5    4.259      24.642
2015    7       13    20  53    3.2117   398.3    4.270      24.639
2015    7       13    20  59    3.2146   398.0    4.281      24.637
2015    7       13    21   5    3.2175   397.8    4.292      24.635
2015    7       13    21  11    3.2204   397.6    4.303      24.633
2015    7       13    21  16    3.2234   397.3    4.314      24.631
2015    7       13    21  22    3.2263   397.1    4.324      24.630
2015    7       13    21  28    3.2292   396.9    4.335      24.628
2015    7       13    21  34    3.2321   396.7    4.346      24.626
2015    7       13    21  40    3.2351   396.4    4.357      24.625
2015    7       13    21  45    3.2380   396.2    4.368      24.623
2015    7       13    21  51    3.2410   396.0    4.379      24.622
2015    7       13    21  57    3.2440   395.8    4.389      24.620
2015    7       13    22   3    3.2469   395.5    4.400      24.618
2015    7       13    22   9    3.2499   395.3    4.411      24.617
2015    7       13    22  14    3.2529   395.1    4.421      24.615
2015    7       13    22  20    3.2559   394.9    4.432      24.614
2015    7       13    22  26    3.2589   394.7    4.442      24.612
2015    7       13    22  32    3.2619   394.4    4.453      24.611
2015    7       13    22  37    3.2649   394.2    4.463      24.610
2015    7       13    22  43    3.2679   394.0    4.474      24.608
2015    7       13    22  49    3.2709   393.8    4.484      24.607
2015    7       13    22  55    3.2740   393.6    4.494      24.605
2015    7       13    23   1    3.2770   393.4    4.505      24.604
2015    7       13    23   6    3.2800   393.2    4.515      24.603
2015    7       13    23  12    3.2831   393.0    4.525      24.602
2015    7       13    23  18    3.2861   392.8    4.536      24.601
2015    7       13    23  24    3.2892   392.5    4.546      24.599
2015    7       13    23  30    3.2923   392.3    4.556      24.598
2015    7       13    23  35    3.2953   392.1    4.566      24.597
2015    7       13    23  41    3.2984   391.9    4.576      24.596
2015    7       13    23  47    3.3015   391.7    4.587      24.596
2015    7       13    23  53    3.3046   391.5    4.597      24.595
2015    7       13    23  58    3.3077   391.3    4.607      24.594
2015    7       14     0   4    3.3108   391.1    4.617      24.594
2015    7       14     0  10    3.3139   390.9    4.627      24.593
2015    7       14     0  16    3.3171   390.8    4.637      24.593
2015    7       14     0  22    3.3202   390.6    4.647      24.593
2015    7       14     0  27    3.3233   390.4    4.657      24.593
2015    7       14     0  33    3.3265   390.2    4.668      24.593
2015    7       14     0  39    3.3297   390.0    4.678      24.593
2015    7       14     0  45    3.3328   389.8    4.688      24.594
2015    7       14     0  50    3.3360   389.6    4.698      24.594
2015    7       14     0  56    3.3392   389.4    4.708      24.595
2015    7       14     1   2    3.3424   389.2    4.718      24.596
2015    7       14     1   8    3.3456   389.1    4.729      24.597
2015    7       14     1  14    3.3488   388.9    4.739      24.599
2015    7       14     1  19    3.3521   388.7    4.749      24.600
2015    7       14     1  25    3.3553   388.5    4.759      24.602
2015    7       14     1  31    3.3585   388.3    4.770      24.604
2015    7       14     1  37    3.3618   388.1    4.780      24.606
2015    7       14     1  43    3.3650   388.0    4.790      24.608
2015    7       14     1  48    3.3683   387.8    4.801      24.611
2015    7       14     1  54    3.3716   387.6    4.811      24.613
2015    7       14     2   0    3.3749   387.4    4.821      24.616
2015    7       14     2   6    3.3782   387.3    4.832      24.620
2015    7       14     2  11    3.3815   387.1    4.842      24.623
2015    7       14     2  17    3.3848   386.9    4.853      24.627
2015    7       14     2  23    3.3881   386.7    4.864      24.631
2015    7       14     2  29    3.3915   386.6    4.874      24.634
2015    7       14     2  35    3.3949   386.4    4.885      24.639
2015    7       14     2  40    3.3982   386.2    4.895      24.643
2015    7       14     2  46    3.4016   386.1    4.906      24.648
2015    7       14     2  52    3.4050   385.9    4.917      24.653
2015    7       14     2  58    3.4084   385.7    4.928      24.658
2015    7       14     3   3    3.4118   385.6    4.938      24.663
2015    7       14     3   9    3.4153   385.4    4.949      24.669
2015    7       14     3  15    3.4187   385.2    4.960      24.674
2015    7       14     3  21    3.4222   385.1    4.971      24.680
2015    7       14     3  27    3.4257   384.9    4.982      24.686
2015    7       14     3  32    3.4291   384.7    4.992      24.693
2015    7       14     3  38    3.4326   384.6    5.003      24.699
2015    7       14     3  44    3.4361   384.4    5.014      24.706
2015    7       14     3  50    3.4396   384.3    5.025      24.712
2015    7       14     3  55    3.4432   384.1    5.036      24.719
2015    7       14     4   1    3.4467   383.9    5.047      24.726
2015    7       14     4   7    3.4502   383.8    5.058      24.733
2015    7       14     4  13    3.4538   383.6    5.069      24.740
2015    7       14     4  19    3.4573   383.5    5.080      24.748
2015    7       14     4  24    3.4609   383.3    5.091      24.755
2015    7       14     4  30    3.4644   383.2    5.102      24.763
2015    7       14     4  36    3.4680   383.0    5.113      24.770
2015    7       14     4  42    3.4715   382.9    5.124      24.778
2015    7       14     4  47    3.4751   382.7    5.134      24.786
2015    7       14     4  53    3.4787   382.6    5.145      24.794
2015    7       14     4  59    3.4822   382.4    5.156      24.802
2015    7       14     5   5    3.4858   382.3    5.167      24.810
2015    7       14     5  11    3.4893   382.1    5.178      24.818
2015    7       14     5  16    3.4929   382.0    5.188      24.826
2015    7       14     5  22    3.4965   381.9    5.199      24.834
2015    7       14     5  28    3.5000   381.7    5.210      24.842
2015    7       14     5  34    3.5036   381.6    5.220      24.851
2015    7       14     5  40    3.5071   381.4    5.231      24.859
2015    7       14     5  45    3.5106   381.3    5.242      24.867
2015    7       14     5  51    3.5142   381.1    5.252      24.876
2015    7       14     5  57    3.5177   381.0    5.263      24.884
2015    7       14     6   3    3.5212   380.9    5.273      24.893
2015    7       14     6   8    3.5247   380.7    5.284      24.901
2015    7       14     6  14    3.5282   380.6    5.294      24.910
2015    7       14     6  20    3.5317   380.4    5.304      24.918
2015    7       14     6  26    3.5352   380.3    5.315      24.927
2015    7       14     6  32    3.5387   380.2    5.325      24.936
2015    7       14     6  37    3.5422   380.0    5.335      24.945
2015    7       14     6  43    3.5457   379.9    5.345      24.953
2015    7       14     6  49    3.5492   379.8    5.356      24.962
2015    7       14     6  55    3.5527   379.6    5.366      24.971
2015    7       14     7   0    3.5562   379.5    5.376      24.980
2015    7       14     7   6    3.5596   379.4    5.386      24.990
2015    7       14     7  12    3.5631   379.2    5.396      24.999
2015    7       14     7  18    3.5665   379.1    5.406      25.008
2015    7       14     7  24    3.5700   379.0    5.416      25.018
2015    7       14     7  29    3.5735   378.8    5.426      25.027
2015    7       14     7  35    3.5769   378.7    5.436      25.037
2015    7       14     7  41    3.5804   378.6    5.446      25.046
2015    7       14     7  47    3.5838   378.4    5.456      25.056
2015    7       14     7  53    3.5873   378.3    5.466      25.066
2015    7       14     7  58    3.5907   378.2    5.476      25.076
2015    7       14     8   4    3.5941   378.1    5.486      25.086
2015    7       14     8  10    3.5976   377.9    5.496      25.096
2015    7       14     8  16    3.6010   377.8    5.506      25.107
2015    7       14     8  21    3.6044   377.7    5.516      25.117
2015    7       14     8  27    3.6079   377.5    5.526      25.128
2015    7       14     8  33    3.6113   377.4    5.536      25.138
2015    7       14     8  39    3.6147   377.3    5.546      25.149
2015    7       14     8  45    3.6181   377.2    5.556      25.160
2015    7       14     8  50    3.6215   377.1    5.566      25.171
2015    7       14     8  56    3.6249   376.9    5.575      25.182
2015    7       14     9   2    3.6284   376.8    5.585      25.193
2015    7       14     9   8    3.6318   376.7    5.595      25.204
2015    7       14     9  14    3.6352   376.6    5.605      25.216
2015    7       14     9  19    3.6386   376.5    5.615      25.227
2015    7       14     9  25    3.6420   376.3    5.625      25.238
2015    7       14     9  31    3.6454   376.2    5.634      25.250
2015    7       14     9  37    3.6488   376.1    5.644      25.262
2015    7       14     9  42    3.6522   376.0    5.654      25.273
2015    7       14     9  48    3.6556   375.9    5.664      25.285
2015    7       14     9  54    3.6590   375.7    5.674      25.297
2015    7       14    10   0    3.6624   375.6    5.684      25.309
2015    7       14    10   6    3.6658   375.5    5.693      25.321
2015    7       14    10  11    3.6692   375.4    5.703      25.333
2015    7       14    10  17    3.6726   375.3    5.713      25.345
2015    7       14    10  23    3.6760   375.2    5.723      25.357
2015    7       14    10  29    3.6794   375.1    5.732      25.369
2015    7       14    10  34    3.6828   374.9    5.742      25.382
2015    7       14    10  40    3.6862   374.8    5.752      25.394
2015    7       14    10  46    3.6896   374.7    5.762      25.406
2015    7       14    10  52    3.6930   374.6    5.771      25.419
2015    7       14    10  58    3.6965   374.5    5.781      25.431
2015    7       14    11   3    3.6999   374.4    5.791      25.443
2015    7       14    11   9    3.7033   374.3    5.800      25.456
2015    7       14    11  15    3.7067   374.2    5.810      25.468
2015    7       14    11  21    3.7101   374.1    5.820      25.480
2015    7       14    11  26    3.7135   374.0    5.829      25.493
2015    7       14    11  32    3.7169   373.8    5.839      25.505
2015    7       14    11  38    3.7203   373.7    5.848      25.518
2015    7       14    11  44    3.7237   373.6    5.858      25.530
2015    7       14    11  50    3.7272   373.5    5.868      25.543
2015    7       14    11  55    3.7306   373.4    5.877      25.555
2015    7       14    12   1    3.7340   373.3    5.887      25.568
2015    7       14    12   7    3.7374   373.2    5.896      25.580
2015    7       14    12  13    3.7409   373.1    5.906      25.593
2015    7       14    12  18    3.7443   373.0    5.915      25.605
2015    7       14    12  24    3.7477   372.9    5.924      25.618
2015    7       14    12  30    3.7511   372.8    5.934      25.630
2015    7       14    12  36    3.7546   372.7    5.943      25.643
2015    7       14    12  42    3.7580   372.6    5.953      25.655
2015    7       14    12  47    3.7614   372.5    5.962      25.668
2015    7       14    12  53    3.7648   372.4    5.971      25.680
2015    7       14    12  59    3.7683   372.3    5.981      25.693
2015    7       14    13   5    3.7717   372.2    5.990      25.705
2015    7       14    13  11    3.7751   372.1    5.999      25.718
2015    7       14    13  16    3.7785   372.0    6.008      25.730
2015    7       14    13  22    3.7820   371.9    6.018      25.743
2015    7       14    13  28    3.7854   371.8    6.027      25.756
2015    7       14    13  34    3.7888   371.7    6.036      25.768
2015    7       14    13  39    3.7922   371.6    6.045      25.781
2015    7       14    13  45    3.7957   371.5    6.054      25.793
2015    7       14    13  51    3.7991   371.4    6.063      25.806
2015    7       14    13  57    3.8025   371.3    6.073      25.819
2015    7       14    14   3    3.8059   371.2    6.082      25.831
2015    7       14    14   8    3.8093   371.1    6.091      25.844
2015    7       14    14  14    3.8128   371.0    6.100      25.857
2015    7       14    14  20    3.8162   370.9    6.109      25.869
2015    7       14    14  26    3.8196   370.8    6.118      25.882
2015    7       14    14  31    3.8230   370.7    6.127      25.895
2015    7       14    14  37    3.8264   370.6    6.136      25.908
2015    7       14    14  43    3.8298   370.5    6.145      25.921
2015    7       14    14  49    3.8333   370.4    6.154      25.934
2015    7       14    14  55    3.8367   370.3    6.163      25.947
2015    7       14    15   0    3.8401   370.2    6.172      25.959
2015    7       14    15   6    3.8435   370.1    6.181      25.973
2015    7       14    15  12    3.8469   370.0    6.189      25.985
2015    7       14    15  18    3.8503   370.0    6.198      25.998
2015    7       14    15  24    3.8537   369.9    6.207      26.012
2015    7       14    15  29    3.8571   369.8    6.216      26.025
2015    7       14    15  35    3.8605   369.7    6.225      26.038
2015    7       14    15  41    3.8639   369.6    6.234      26.051
2015    7       14    15  47    3.8674   369.5    6.243      26.064
2015    7       14    15  52    3.8708   369.4    6.252      26.077
2015    7       14    15  58    3.8742   369.3    6.260      26.090
2015    7       14    16   4    3.8775   369.2    6.269      26.104
2015    7       14    16  10    3.8810   369.1    6.278      26.117
2015    7       14    16  16    3.8843   369.1    6.287      26.130
2015    7       14    16  21    3.8878   369.0    6.296      26.143
2015    7       14    16  27    3.8912   368.9    6.304      26.157
2015    7       14    16  33    3.8946   368.8    6.313      26.170
2015    7       14    16  39    3.8979   368.7    6.322      26.183
2015    7       14    16  44    3.9013   368.6    6.331      26.197
2015    7       14    16  50    3.9047   368.5    6.339      26.210
2015    7       14    16  56    3.9081   368.5    6.348      26.223
2015    7       14    17   2    3.9115   368.4    6.357      26.236
2015    7       14    17   8    3.9149   368.3    6.366      26.250
2015    7       14    17  13    3.9183   368.2    6.374      26.263
2015    7       14    17  19    3.9217   368.1    6.383      26.276
2015    7       14    17  25    3.9250   368.0    6.392      26.289
2015    7       14    17  31    3.9284   368.0    6.400      26.303
2015    7       14    17  36    3.9318   367.9    6.409      26.316
2015    7       14    17  42    3.9352   367.8    6.418      26.329
2015    7       14    17  48    3.9385   367.7    6.426      26.342
2015    7       14    17  54    3.9419   367.6    6.435      26.355
2015    7       14    18   0    3.9453   367.5    6.443      26.368
2015    7       14    18   5    3.9486   367.5    6.452      26.381
2015    7       14    18  11    3.9520   367.4    6.461      26.395
2015    7       14    18  17    3.9554   367.3    6.469      26.407
2015    7       14    18  23    3.9587   367.2    6.478      26.421
2015    7       14    18  29    3.9621   367.1    6.486      26.433
2015    7       14    18  34    3.9654   367.1    6.495      26.446
2015    7       14    18  40    3.9688   367.0    6.503      26.459
2015    7       14    18  46    3.9721   366.9    6.512      26.472
2015    7       14    18  52    3.9755   366.8    6.520      26.485
2015    7       14    18  57    3.9788   366.7    6.528      26.497
2015    7       14    19   3    3.9821   366.7    6.537      26.510
2015    7       14    19   9    3.9855   366.6    6.545      26.523
2015    7       14    19  15    3.9888   366.5    6.554      26.535
2015    7       14    19  21    3.9922   366.4    6.562      26.548
2015    7       14    19  26    3.9955   366.4    6.570      26.560
2015    7       14    19  32    3.9988   366.3    6.579      26.573
2015    7       14    19  38    4.0022   366.2    6.587      26.585
2015    7       14    19  44    4.0055   366.1    6.595      26.598
2015    7       14    19  49    4.0088   366.1    6.603      26.610
2015    7       14    19  55    4.0122   366.0    6.612      26.622
2015    7       14    20   1    4.0155   365.9    6.620      26.635
2015    7       14    20   7    4.0188   365.8    6.628      26.647
2015    7       14    20  13    4.0221   365.8    6.636      26.659
2015    7       14    20  18    4.0255   365.7    6.644      26.671
2015    7       14    20  24    4.0288   365.6    6.653      26.684
2015    7       14    20  30    4.0321   365.5    6.661      26.696
2015    7       14    20  36    4.0355   365.5    6.669      26.708
2015    7       14    20  42    4.0388   365.4    6.677      26.720
2015    7       14    20  47    4.0421   365.3    6.685      26.732
2015    7       14    20  53    4.0454   365.2    6.693      26.744
2015    7       14    20  59    4.0488   365.2    6.701      26.756
2015    7       14    21   5    4.0521   365.1    6.709      26.769
2015    7       14    21  10    4.0555   365.0    6.717      26.781
2015    7       14    21  16    4.0588   364.9    6.725      26.793
2015    7       14    21  22    4.0621   364.9    6.734      26.805
2015    7       14    21  28    4.0655   364.8    6.742      26.817
2015    7       14    21  34    4.0688   364.7    6.750      26.830
2015    7       14    21  39    4.0721   364.7    6.758      26.842
2015    7       14    21  45    4.0755   364.6    6.766      26.854
2015    7       14    21  51    4.0788   364.5    6.774      26.866
2015    7       14    21  57    4.0822   364.4    6.782      26.879
2015    7       14    22   2    4.0855   364.4    6.790      26.891
2015    7       14    22   8    4.0889   364.3    6.798      26.904
2015    7       14    22  14    4.0923   364.2    6.806      26.916
2015    7       14    22  20    4.0956   364.2    6.814      26.928
2015    7       14    22  26    4.0990   364.1    6.822      26.941
2015    7       14    22  31    4.1024   364.0    6.830      26.953
2015    7       14    22  37    4.1057   364.0    6.838      26.966
2015    7       14    22  43    4.1091   363.9    6.846      26.979
2015    7       14    22  49    4.1125   363.8    6.854      26.991
2015    7       14    22  55    4.1159   363.8    6.862      27.004
2015    7       14    23   0    4.1193   363.7    6.870      27.017
2015    7       14    23   6    4.1226   363.6    6.878      27.030
2015    7       14    23  12    4.1260   363.6    6.887      27.043
2015    7       14    23  18    4.1294   363.5    6.895      27.055
2015    7       14    23  23    4.1328   363.4    6.903      27.068
2015    7       14    23  29    4.1362   363.4    6.911      27.081
2015    7       14    23  35    4.1396   363.3    6.919      27.094
2015    7       14    23  41    4.1430   363.3    6.927      27.108
2015    7       14    23  47    4.1464   363.2    6.935      27.121
2015    7       14    23  52    4.1498   363.1    6.943      27.134
2015    7       14    23  58    4.1532   363.1    6.951      27.147
2015    7       15     0   4    4.1566   363.0    6.960      27.160
2015    7       15     0  10    4.1600   362.9    6.968      27.173
2015    7       15     0  15    4.1634   362.9    6.976      27.186
2015    7       15     0  21    4.1668   362.8    6.984      27.200
2015    7       15     0  27    4.1702   362.8    6.992      27.213
2015    7       15     0  33    4.1736   362.7    7.000      27.226
2015    7       15     0  39    4.1770   362.6    7.009      27.240
2015    7       15     0  44    4.1804   362.6    7.017      27.253
2015    7       15     0  50    4.1838   362.5    7.025      27.266
2015    7       15     0  56    4.1872   362.5    7.033      27.279
2015    7       15     1   2    4.1906   362.4    7.041      27.293
2015    7       15     1   7    4.1940   362.4    7.049      27.306
2015    7       15     1  13    4.1974   362.3    7.057      27.319
2015    7       15     1  19    4.2008   362.2    7.065      27.332
2015    7       15     1  25    4.2042   362.2    7.074      27.346
2015    7       15     1  31    4.2075   362.1    7.082      27.359
2015    7       15     1  36    4.2109   362.1    7.090      27.372
2015    7       15     1  42    4.2143   362.0    7.098      27.385
2015    7       15     1  48    4.2176   361.9    7.106      27.398
2015    7       15     1  54    4.2210   361.9    7.114      27.411
2015    7       15     1  59    4.2244   361.8    7.122      27.424
2015    7       15     2   5    4.2277   361.8    7.130      27.437
2015    7       15     2  11    4.2311   361.7    7.138      27.450
2015    7       15     2  17    4.2344   361.7    7.146      27.462
2015    7       15     2  23    4.2378   361.6    7.154      27.475
2015    7       15     2  28    4.2411   361.6    7.162      27.488
2015    7       15     2  34    4.2445   361.5    7.170      27.500
2015    7       15     2  40    4.2478   361.4    7.178      27.513
2015    7       15     2  46    4.2511   361.4    7.186      27.525
2015    7       15     2  52    4.2545   361.3    7.193      27.538
2015    7       15     2  57    4.2578   361.3    7.201      27.550
2015    7       15     3   3    4.2611   361.2    7.209      27.562
2015    7       15     3   9    4.2645   361.2    7.217      27.574
2015    7       15     3  15    4.2678   361.1    7.225      27.586
2015    7       15     3  20    4.2711   361.1    7.232      27.598
2015    7       15     3  26    4.2744   361.0    7.240      27.610
2015    7       15     3  32    4.2778   360.9    7.248      27.622
2015    7       15     3  38    4.2811   360.9    7.255      27.634
2015    7       15     3  44    4.2844   360.8    7.263      27.646
2015    7       15     3  49    4.2877   360.8    7.271      27.658
2015    7       15     3  55    4.2910   360.7    7.278      27.669
2015    7       15     4   1    4.2943   360.7    7.286      27.681
2015    7       15     4   7    4.2976   360.6    7.293      27.692
2015    7       15     4  12    4.3010   360.6    7.301      27.704
2015    7       15     4  18    4.3043   360.5    7.309      27.715
2015    7       15     4  24    4.3076   360.5    7.316      27.727
2015    7       15     4  30    4.3109   360.4    7.324      27.738
2015    7       15     4  36    4.3142   360.4    7.331      27.750
2015    7       15     4  41    4.3176   360.3    7.339      27.761
2015    7       15     4  47    4.3209   360.3    7.346      27.772
2015    7       15     4  53    4.3242   360.2    7.354      27.784
2015    7       15     4  59    4.3276   360.1    7.361      27.795
2015    7       15     5   5    4.3309   360.1    7.368      27.806
2015    7       15     5  10    4.3343   360.0    7.376      27.818
2015    7       15     5  16    4.3376   360.0    7.383      27.829
2015    7       15     5  22    4.3410   359.9    7.391      27.841
2015    7       15     5  28    4.3444   359.9    7.398      27.852
2015    7       15     5  33    4.3477   359.8    7.406      27.863
2015    7       15     5  39    4.3511   359.8    7.413      27.875
2015    7       15     5  45    4.3545   359.7    7.421      27.887
2015    7       15     5  51    4.3579   359.7    7.428      27.898
2015    7       15     5  57    4.3613   359.6    7.436      27.910
2015    7       15     6   2    4.3647   359.6    7.443      27.921
2015    7       15     6   8    4.3681   359.5    7.451      27.933
2015    7       15     6  14    4.3716   359.5    7.458      27.945
2015    7       15     6  20    4.3750   359.4    7.466      27.957
2015    7       15     6  26    4.3784   359.4    7.473      27.969
2015    7       15     6  31    4.3819   359.3    7.481      27.981
2015    7       15     6  37    4.3854   359.3    7.489      27.993
2015    7       15     6  43    4.3888   359.2    7.496      28.005
2015    7       15     6  49    4.3923   359.2    7.504      28.017
2015    7       15     6  54    4.3958   359.1    7.512      28.029
2015    7       15     7   0    4.3993   359.1    7.519      28.042
2015    7       15     7   6    4.4028   359.1    7.527      28.054
2015    7       15     7  12    4.4063   359.0    7.535      28.067
2015    7       15     7  18    4.4099   359.0    7.543      28.080
2015    7       15     7  23    4.4134   358.9    7.551      28.092
2015    7       15     7  29    4.4170   358.9    7.558      28.105
2015    7       15     7  35    4.4205   358.8    7.566      28.118
2015    7       15     7  41    4.4241   358.8    7.574      28.131
2015    7       15     7  46    4.4277   358.7    7.582      28.144
2015    7       15     7  52    4.4313   358.7    7.590      28.157
2015    7       15     7  58    4.4348   358.6    7.598      28.171
2015    7       15     8   4    4.4384   358.6    7.606      28.184
2015    7       15     8  10    4.4420   358.6    7.614      28.197
2015    7       15     8  15    4.4456   358.5    7.622      28.211
2015    7       15     8  21    4.4493   358.5    7.630      28.224
2015    7       15     8  27    4.4529   358.4    7.638      28.238
2015    7       15     8  33    4.4565   358.4    7.647      28.251
2015    7       15     8  38    4.4601   358.3    7.655      28.265
2015    7       15     8  44    4.4638   358.3    7.663      28.279
2015    7       15     8  50    4.4674   358.3    7.671      28.293
2015    7       15     8  56    4.4711   358.2    7.679      28.306
2015    7       15     9   2    4.4747   358.2    7.688      28.320
2015    7       15     9   7    4.4784   358.1    7.696      28.334
2015    7       15     9  13    4.4820   358.1    7.704      28.348
2015    7       15     9  19    4.4857   358.1    7.713      28.362
2015    7       15     9  25    4.4893   358.0    7.721      28.376
2015    7       15     9  30    4.4930   358.0    7.729      28.390
2015    7       15     9  36    4.4966   357.9    7.737      28.404
2015    7       15     9  42    4.5003   357.9    7.746      28.418
2015    7       15     9  48    4.5040   357.9    7.754      28.432
2015    7       15     9  54    4.5076   357.8    7.762      28.446
2015    7       15     9  59    4.5113   357.8    7.771      28.460
2015    7       15    10   5    4.5150   357.7    7.779      28.474
2015    7       15    10  11    4.5186   357.7    7.787      28.487
2015    7       15    10  17    4.5223   357.7    7.796      28.501
2015    7       15    10  23    4.5260   357.6    7.804      28.515
2015    7       15    10  28    4.5297   357.6    7.812      28.529
2015    7       15    10  34    4.5333   357.6    7.820      28.543
2015    7       15    10  40    4.5370   357.5    7.829      28.556
2015    7       15    10  46    4.5407   357.5    7.837      28.570
2015    7       15    10  51    4.5443   357.4    7.845      28.583
2015    7       15    10  57    4.5480   357.4    7.853      28.597
2015    7       15    11   3    4.5517   357.4    7.861      28.610
2015    7       15    11   9    4.5554   357.3    7.869      28.624
2015    7       15    11  15    4.5591   357.3    7.878      28.637
2015    7       15    11  20    4.5628   357.2    7.886      28.650
2015    7       15    11  26    4.5665   357.2    7.894      28.663
2015    7       15    11  32    4.5701   357.2    7.902      28.676
2015    7       15    11  38    4.5738   357.1    7.910      28.689
2015    7       15    11  43    4.5775   357.1    7.918      28.702
2015    7       15    11  49    4.5812   357.1    7.926      28.715
2015    7       15    11  55    4.5850   357.0    7.934      28.728
2015    7       15    12   1    4.5887   357.0    7.942      28.741
2015    7       15    12   7    4.5924   356.9    7.949      28.754
2015    7       15    12  12    4.5961   356.9    7.957      28.766
2015    7       15    12  18    4.5999   356.9    7.965      28.779
2015    7       15    12  24    4.6036   356.8    7.973      28.792
2015    7       15    12  30    4.6074   356.8    7.981      28.804
2015    7       15    12  36    4.6112   356.8    7.989      28.817
2015    7       15    12  41    4.6149   356.7    7.996      28.829
2015    7       15    12  47    4.6187   356.7    8.004      28.842
2015    7       15    12  53    4.6225   356.6    8.012      28.854
2015    7       15    12  59    4.6263   356.6    8.020      28.867
2015    7       15    13   4    4.6302   356.6    8.027      28.879
2015    7       15    13  10    4.6340   356.5    8.035      28.892
2015    7       15    13  16    4.6378   356.5    8.043      28.904
2015    7       15    13  22    4.6417   356.5    8.051      28.917
2015    7       15    13  28    4.6456   356.4    8.058      28.930
2015    7       15    13  33    4.6495   356.4    8.066      28.942
2015    7       15    13  39    4.6534   356.3    8.074      28.955
2015    7       15    13  45    4.6574   356.3    8.082      28.968
2015    7       15    13  51    4.6613   356.3    8.090      28.981
2015    7       15    13  57    4.6653   356.2    8.097      28.993
2015    7       15    14   2    4.6692   356.2    8.105      29.006
2015    7       15    14   8    4.6733   356.2    8.113      29.019
2015    7       15    14  14    4.6773   356.1    8.121      29.032
2015    7       15    14  20    4.6813   356.1    8.129      29.045
2015    7       15    14  25    4.6854   356.1    8.137      29.058
2015    7       15    14  31    4.6894   356.0    8.145      29.072
2015    7       15    14  37    4.6935   356.0    8.153      29.085
2015    7       15    14  43    4.6977   355.9    8.161      29.098
2015    7       15    14  49    4.7018   355.9    8.169      29.112
2015    7       15    14  54    4.7060   355.9    8.177      29.125
2015    7       15    15   0    4.7101   355.8    8.185      29.139
2015    7       15    15   6    4.7143   355.8    8.193      29.153
2015    7       15    15  12    4.7185   355.8    8.201      29.167
2015    7       15    15  17    4.7228   355.7    8.210      29.180
2015    7       15    15  23    4.7270   355.7    8.218      29.195
2015    7       15    15  29    4.7313   355.7    8.226      29.209
2015    7       15    15  35    4.7356   355.6    8.235      29.223
2015    7       15    15  41    4.7400   355.6    8.243      29.237
2015    7       15    15  46    4.7443   355.6    8.252      29.251
2015    7       15    15  52    4.7486   355.5    8.260      29.266
2015    7       15    15  58    4.7530   355.5    8.269      29.280
2015    7       15    16   4    4.7574   355.5    8.278      29.295
2015    7       15    16   9    4.7618   355.4    8.286      29.309
2015    7       15    16  15    4.7663   355.4    8.295      29.324
2015    7       15    16  21    4.7708   355.4    8.304      29.339
2015    7       15    16  27    4.7753   355.3    8.313      29.354
2015    7       15    16  33    4.7797   355.3    8.322      29.369
2015    7       15    16  38    4.7843   355.3    8.331      29.384
2015    7       15    16  44    4.7888   355.2    8.340      29.399
2015    7       15    16  50    4.7934   355.2    8.349      29.415
2015    7       15    16  56    4.7980   355.2    8.358      29.430
2015    7       15    17   1    4.8026   355.1    8.367      29.445
2015    7       15    17   7    4.8072   355.1    8.377      29.461
2015    7       15    17  13    4.8119   355.1    8.386      29.476
2015    7       15    17  19    4.8166   355.1    8.395      29.492
2015    7       15    17  25    4.8213   355.0    8.405      29.508
2015    7       15    17  30    4.8260   355.0    8.414      29.523
2015    7       15    17  36    4.8307   355.0    8.424      29.539
2015    7       15    17  42    4.8355   354.9    8.434      29.555
2015    7       15    17  48    4.8403   354.9    8.443      29.572
2015    7       15    17  53    4.8451   354.9    8.453      29.588
2015    7       15    17  59    4.8499   354.8    8.463      29.604
2015    7       15    18   5    4.8548   354.8    8.473      29.620
2015    7       15    18  11    4.8597   354.8    8.483      29.637
2015    7       15    18  17    4.8646   354.8    8.493      29.653
2015    7       15    18  22    4.8695   354.7    8.503      29.670
2015    7       15    18  28    4.8744   354.7    8.513      29.687
2015    7       15    18  34    4.8794   354.7    8.523      29.704
2015    7       15    18  40    4.8844   354.6    8.534      29.721
2015    7       15    18  46    4.8895   354.6    8.544      29.738
2015    7       15    18  51    4.8945   354.6    8.554      29.756
2015    7       15    18  57    4.8996   354.5    8.565      29.773
2015    7       15    19   3    4.9047   354.5    8.575      29.791
2015    7       15    19   9    4.9099   354.5    8.586      29.808
2015    7       15    19  14    4.9150   354.5    8.596      29.826
2015    7       15    19  20    4.9202   354.4    8.607      29.845
2015    7       15    19  26    4.9254   354.4    8.618      29.863
2015    7       15    19  32    4.9306   354.4    8.628      29.881
2015    7       15    19  38    4.9358   354.3    8.639      29.900
2015    7       15    19  43    4.9411   354.3    8.650      29.919
2015    7       15    19  49    4.9463   354.3    8.661      29.938
2015    7       15    19  55    4.9516   354.3    8.672      29.957
2015    7       15    20   1    4.9569   354.2    8.682      29.976
2015    7       15    20   7    4.9623   354.2    8.693      29.996
2015    7       15    20  12    4.9676   354.2    8.704      30.016
2015    7       15    20  18    4.9730   354.2    8.715      30.036
2015    7       15    20  24    4.9783   354.1    8.726      30.056
2015    7       15    20  30    4.9837   354.1    8.736      30.076
2015    7       15    20  35    4.9891   354.1    8.747      30.096
2015    7       15    20  41    4.9946   354.1    8.758      30.116
2015    7       15    20  47    5.0000   354.1    8.769      30.137
2015    7       15    20  53    5.0055   354.0    8.780      30.157
2015    7       15    20  59    5.0110   354.0    8.790      30.178
2015    7       15    21   4    5.0165   354.0    8.801      30.198
2015    7       15    21  10    5.0220   354.0    8.812      30.219
2015    7       15    21  16    5.0276   353.9    8.823      30.240
2015    7       15    21  22    5.0331   353.9    8.833      30.261
2015    7       15    21  27    5.0387   353.9    8.844      30.281
2015    7       15    21  33    5.0443   353.9    8.855      30.302
2015    7       15    21  39    5.0500   353.9    8.866      30.322
2015    7       15    21  45    5.0556   353.8    8.876      30.343
2015    7       15    21  51    5.0613   353.8    8.887      30.363
2015    7       15    21  56    5.0670   353.8    8.898      30.384
2015    7       15    22   2    5.0728   353.8    8.909      30.404
2015    7       15    22   8    5.0785   353.8    8.920      30.424
2015    7       15    22  14    5.0843   353.7    8.930      30.445
2015    7       15    22  20    5.0901   353.7    8.941      30.465
2015    7       15    22  25    5.0960   353.7    8.952      30.485
2015    7       15    22  31    5.1018   353.7    8.963      30.506
2015    7       15    22  37    5.1078   353.6    8.975      30.526
2015    7       15    22  43    5.1137   353.6    8.986      30.546
2015    7       15    22  48    5.1197   353.6    8.997      30.566
2015    7       15    22  54    5.1257   353.6    9.008      30.586
2015    7       15    23   0    5.1318   353.6    9.020      30.607
2015    7       15    23   6    5.1379   353.5    9.031      30.627
2015    7       15    23  12    5.1440   353.5    9.043      30.647
2015    7       15    23  17    5.1502   353.5    9.054      30.667
2015    7       15    23  23    5.1565   353.5    9.066      30.688
2015    7       15    23  29    5.1627   353.5    9.078      30.708
2015    7       15    23  35    5.1691   353.4    9.090      30.729
2015    7       15    23  40    5.1755   353.4    9.103      30.749
2015    7       15    23  46    5.1820   353.4    9.115      30.770
2015    7       15    23  52    5.1885   353.4    9.128      30.791
2015    7       15    23  58    5.1951   353.4    9.140      30.812
2015    7       16     0   4    5.2017   353.3    9.153      30.834
