year    month   day   hour  minute  B_enl V_enl   n_enl       T_enl
[year] [month] [day] [hour][minute] [nT]  [km/s]  [cm-3]      [kK]
2015    7        4     0   5    5.7359   505.2    5.662      51.635
2015    7        4     0  11    5.7307   505.4    5.654      51.611
2015    7        4     0  17    5.7255   505.5    5.646      51.588
2015    7        4     0  23    5.7203   505.7    5.637      51.566
2015    7        4     0  29    5.7151   505.9    5.629      51.544
2015    7        4     0  35    5.7099   506.0    5.621      51.523
2015    7        4     0  41    5.7048   506.2    5.613      51.502
2015    7        4     0  47    5.6996   506.4    5.605      51.481
2015    7        4     0  53    5.6944   506.5    5.596      51.461
2015    7        4     0  59    5.6893   506.7    5.588      51.441
2015    7        4     1   5    5.6841   506.8    5.580      51.419
2015    7        4     1  11    5.6789   507.0    5.572      51.398
2015    7        4     1  17    5.6737   507.1    5.564      51.375
2015    7        4     1  23    5.6685   507.3    5.556      51.352
2015    7        4     1  29    5.6633   507.4    5.547      51.328
2015    7        4     1  35    5.6582   507.6    5.539      51.305
2015    7        4     1  40    5.6530   507.7    5.531      51.281
2015    7        4     1  46    5.6479   507.9    5.523      51.257
2015    7        4     1  52    5.6429   508.0    5.515      51.233
2015    7        4     1  58    5.6379   508.1    5.507      51.210
2015    7        4     2   4    5.6329   508.3    5.499      51.186
2015    7        4     2  10    5.6280   508.4    5.491      51.162
2015    7        4     2  16    5.6231   508.5    5.483      51.139
2015    7        4     2  22    5.6183   508.7    5.476      51.116
2015    7        4     2  28    5.6135   508.8    5.468      51.093
2015    7        4     2  34    5.6088   508.9    5.461      51.071
2015    7        4     2  40    5.6041   509.0    5.453      51.049
2015    7        4     2  46    5.5994   509.2    5.446      51.028
2015    7        4     2  52    5.5948   509.3    5.439      51.007
2015    7        4     2  58    5.5902   509.4    5.432      50.987
2015    7        4     3   4    5.5857   509.5    5.425      50.968
2015    7        4     3  10    5.5811   509.7    5.418      50.948
2015    7        4     3  16    5.5766   509.8    5.411      50.929
2015    7        4     3  22    5.5722   509.9    5.404      50.911
2015    7        4     3  28    5.5678   510.0    5.398      50.894
2015    7        4     3  34    5.5634   510.1    5.391      50.876
2015    7        4     3  40    5.5590   510.2    5.385      50.859
2015    7        4     3  45    5.5546   510.4    5.379      50.843
2015    7        4     3  51    5.5503   510.5    5.373      50.827
2015    7        4     3  57    5.5461   510.6    5.367      50.811
2015    7        4     4   3    5.5418   510.7    5.361      50.796
2015    7        4     4   9    5.5376   510.8    5.355      50.781
2015    7        4     4  15    5.5334   510.9    5.349      50.766
2015    7        4     4  21    5.5293   511.0    5.343      50.751
2015    7        4     4  27    5.5252   511.1    5.338      50.736
2015    7        4     4  33    5.5211   511.2    5.332      50.721
2015    7        4     4  39    5.5171   511.3    5.326      50.706
2015    7        4     4  45    5.5131   511.4    5.321      50.692
2015    7        4     4  51    5.5092   511.5    5.315      50.678
2015    7        4     4  57    5.5052   511.7    5.310      50.663
2015    7        4     5   3    5.5013   511.8    5.304      50.649
2015    7        4     5   9    5.4975   511.9    5.299      50.634
2015    7        4     5  15    5.4936   512.0    5.293      50.620
2015    7        4     5  21    5.4898   512.1    5.288      50.605
2015    7        4     5  27    5.4860   512.2    5.283      50.591
2015    7        4     5  33    5.4822   512.3    5.277      50.577
2015    7        4     5  39    5.4784   512.4    5.272      50.562
2015    7        4     5  45    5.4747   512.5    5.267      50.548
2015    7        4     5  50    5.4710   512.6    5.262      50.534
2015    7        4     5  56    5.4672   512.7    5.256      50.520
2015    7        4     6   2    5.4635   512.8    5.251      50.505
2015    7        4     6   8    5.4598   512.9    5.246      50.491
2015    7        4     6  14    5.4562   513.0    5.241      50.477
2015    7        4     6  20    5.4525   513.1    5.236      50.463
2015    7        4     6  26    5.4488   513.2    5.230      50.449
2015    7        4     6  32    5.4452   513.3    5.225      50.434
2015    7        4     6  38    5.4415   513.4    5.220      50.420
2015    7        4     6  44    5.4379   513.5    5.215      50.407
2015    7        4     6  50    5.4343   513.6    5.210      50.393
2015    7        4     6  56    5.4307   513.7    5.205      50.379
2015    7        4     7   2    5.4271   513.8    5.200      50.365
2015    7        4     7   8    5.4236   513.9    5.195      50.352
2015    7        4     7  14    5.4200   514.0    5.190      50.339
2015    7        4     7  20    5.4165   514.1    5.186      50.325
2015    7        4     7  26    5.4130   514.2    5.181      50.312
2015    7        4     7  32    5.4095   514.3    5.176      50.299
2015    7        4     7  38    5.4061   514.4    5.171      50.286
2015    7        4     7  44    5.4026   514.5    5.166      50.274
2015    7        4     7  50    5.3992   514.6    5.162      50.261
2015    7        4     7  55    5.3958   514.7    5.157      50.249
2015    7        4     8   1    5.3924   514.8    5.152      50.237
2015    7        4     8   7    5.3890   514.9    5.148      50.225
2015    7        4     8  13    5.3857   515.0    5.143      50.213
2015    7        4     8  19    5.3824   515.1    5.139      50.202
2015    7        4     8  25    5.3791   515.2    5.134      50.191
2015    7        4     8  31    5.3758   515.3    5.130      50.179
2015    7        4     8  37    5.3725   515.4    5.125      50.169
2015    7        4     8  43    5.3692   515.5    5.121      50.158
2015    7        4     8  49    5.3660   515.6    5.116      50.147
2015    7        4     8  55    5.3628   515.7    5.112      50.137
2015    7        4     9   1    5.3596   515.8    5.107      50.127
2015    7        4     9   7    5.3564   515.9    5.103      50.117
2015    7        4     9  13    5.3532   516.0    5.099      50.107
2015    7        4     9  19    5.3501   516.0    5.094      50.097
2015    7        4     9  25    5.3469   516.1    5.090      50.088
2015    7        4     9  31    5.3438   516.2    5.086      50.079
2015    7        4     9  37    5.3407   516.3    5.081      50.069
2015    7        4     9  43    5.3376   516.4    5.077      50.060
2015    7        4     9  49    5.3345   516.5    5.073      50.051
2015    7        4     9  55    5.3315   516.6    5.068      50.042
2015    7        4    10   0    5.3284   516.7    5.064      50.033
2015    7        4    10   6    5.3254   516.8    5.060      50.024
2015    7        4    10  12    5.3224   516.9    5.056      50.016
2015    7        4    10  18    5.3194   516.9    5.051      50.007
2015    7        4    10  24    5.3164   517.0    5.047      49.998
2015    7        4    10  30    5.3135   517.1    5.043      49.989
2015    7        4    10  36    5.3105   517.2    5.039      49.981
2015    7        4    10  42    5.3076   517.3    5.035      49.972
2015    7        4    10  48    5.3047   517.4    5.030      49.963
2015    7        4    10  54    5.3018   517.5    5.026      49.955
2015    7        4    11   0    5.2989   517.6    5.022      49.946
2015    7        4    11   6    5.2961   517.7    5.018      49.938
2015    7        4    11  12    5.2933   517.7    5.014      49.930
2015    7        4    11  18    5.2904   517.8    5.010      49.922
2015    7        4    11  24    5.2877   517.9    5.006      49.913
2015    7        4    11  30    5.2849   518.0    5.002      49.906
2015    7        4    11  36    5.2822   518.1    4.998      49.898
2015    7        4    11  42    5.2795   518.2    4.995      49.891
2015    7        4    11  48    5.2768   518.3    4.991      49.883
2015    7        4    11  54    5.2741   518.4    4.987      49.876
2015    7        4    12   0    5.2715   518.4    4.984      49.870
2015    7        4    12   5    5.2689   518.5    4.980      49.863
2015    7        4    12  11    5.2664   518.6    4.976      49.857
2015    7        4    12  17    5.2638   518.7    4.973      49.851
2015    7        4    12  23    5.2613   518.8    4.969      49.845
2015    7        4    12  29    5.2588   518.9    4.966      49.840
2015    7        4    12  35    5.2563   519.0    4.962      49.834
2015    7        4    12  41    5.2538   519.1    4.959      49.829
2015    7        4    12  47    5.2514   519.2    4.956      49.824
2015    7        4    12  53    5.2490   519.3    4.952      49.819
2015    7        4    12  59    5.2466   519.4    4.949      49.814
2015    7        4    13   5    5.2442   519.4    4.946      49.809
2015    7        4    13  11    5.2418   519.5    4.942      49.804
2015    7        4    13  17    5.2394   519.6    4.939      49.799
2015    7        4    13  23    5.2371   519.7    4.936      49.794
2015    7        4    13  29    5.2347   519.8    4.933      49.790
2015    7        4    13  35    5.2323   519.9    4.929      49.785
2015    7        4    13  41    5.2299   520.0    4.926      49.781
2015    7        4    13  47    5.2276   520.1    4.923      49.776
2015    7        4    13  53    5.2252   520.2    4.920      49.772
2015    7        4    13  59    5.2229   520.3    4.917      49.767
2015    7        4    14   5    5.2205   520.3    4.914      49.763
2015    7        4    14  10    5.2181   520.4    4.911      49.759
2015    7        4    14  16    5.2157   520.5    4.908      49.755
2015    7        4    14  22    5.2134   520.6    4.905      49.750
2015    7        4    14  28    5.2110   520.7    4.902      49.746
2015    7        4    14  34    5.2086   520.8    4.899      49.742
2015    7        4    14  40    5.2062   520.9    4.896      49.739
2015    7        4    14  46    5.2039   521.0    4.893      49.735
2015    7        4    14  52    5.2015   521.1    4.890      49.731
2015    7        4    14  58    5.1991   521.2    4.887      49.727
2015    7        4    15   4    5.1968   521.2    4.884      49.724
2015    7        4    15  10    5.1944   521.3    4.881      49.721
2015    7        4    15  16    5.1920   521.4    4.878      49.718
2015    7        4    15  22    5.1897   521.5    4.875      49.714
2015    7        4    15  28    5.1873   521.6    4.872      49.712
2015    7        4    15  34    5.1850   521.7    4.869      49.709
2015    7        4    15  40    5.1826   521.8    4.867      49.706
2015    7        4    15  46    5.1803   521.9    4.864      49.704
2015    7        4    15  52    5.1779   522.0    4.861      49.702
2015    7        4    15  58    5.1756   522.1    4.858      49.700
2015    7        4    16   4    5.1733   522.1    4.855      49.699
2015    7        4    16  10    5.1710   522.2    4.852      49.698
2015    7        4    16  15    5.1687   522.3    4.850      49.698
2015    7        4    16  21    5.1664   522.4    4.847      49.697
2015    7        4    16  27    5.1641   522.5    4.844      49.698
2015    7        4    16  33    5.1618   522.6    4.841      49.699
2015    7        4    16  39    5.1595   522.7    4.838      49.700
2015    7        4    16  45    5.1573   522.8    4.836      49.702
2015    7        4    16  51    5.1550   522.9    4.833      49.704
2015    7        4    16  57    5.1528   522.9    4.830      49.707
2015    7        4    17   3    5.1505   523.0    4.827      49.710
2015    7        4    17   9    5.1483   523.1    4.825      49.713
2015    7        4    17  15    5.1461   523.2    4.822      49.717
2015    7        4    17  21    5.1439   523.3    4.819      49.721
2015    7        4    17  27    5.1417   523.4    4.816      49.724
2015    7        4    17  33    5.1395   523.5    4.813      49.728
2015    7        4    17  39    5.1373   523.6    4.810      49.732
2015    7        4    17  45    5.1352   523.7    4.807      49.735
2015    7        4    17  51    5.1330   523.8    4.804      49.738
2015    7        4    17  57    5.1308   523.9    4.801      49.741
2015    7        4    18   3    5.1287   523.9    4.798      49.744
2015    7        4    18   9    5.1265   524.0    4.795      49.746
2015    7        4    18  15    5.1244   524.1    4.792      49.748
2015    7        4    18  20    5.1223   524.2    4.789      49.749
2015    7        4    18  26    5.1202   524.3    4.786      49.751
2015    7        4    18  32    5.1181   524.4    4.783      49.751
2015    7        4    18  38    5.1160   524.5    4.780      49.752
2015    7        4    18  44    5.1139   524.6    4.777      49.752
2015    7        4    18  50    5.1119   524.7    4.773      49.753
2015    7        4    18  56    5.1099   524.8    4.770      49.753
2015    7        4    19   2    5.1079   524.9    4.767      49.753
2015    7        4    19   8    5.1059   525.0    4.764      49.752
2015    7        4    19  14    5.1040   525.1    4.761      49.752
2015    7        4    19  20    5.1021   525.1    4.758      49.752
2015    7        4    19  26    5.1002   525.2    4.755      49.752
2015    7        4    19  32    5.0983   525.3    4.752      49.752
2015    7        4    19  38    5.0964   525.4    4.749      49.752
2015    7        4    19  44    5.0945   525.5    4.746      49.752
2015    7        4    19  50    5.0927   525.6    4.744      49.752
2015    7        4    19  56    5.0909   525.7    4.741      49.752
2015    7        4    20   2    5.0890   525.8    4.738      49.752
2015    7        4    20   8    5.0872   525.9    4.735      49.752
2015    7        4    20  14    5.0854   526.0    4.732      49.752
2015    7        4    20  20    5.0835   526.1    4.730      49.752
2015    7        4    20  26    5.0816   526.2    4.727      49.752
2015    7        4    20  31    5.0798   526.3    4.724      49.752
2015    7        4    20  37    5.0779   526.4    4.722      49.751
2015    7        4    20  43    5.0759   526.5    4.719      49.751
2015    7        4    20  49    5.0740   526.6    4.716      49.751
2015    7        4    20  55    5.0720   526.7    4.714      49.750
2015    7        4    21   1    5.0700   526.8    4.711      49.750
2015    7        4    21   7    5.0680   526.9    4.709      49.749
2015    7        4    21  13    5.0660   527.0    4.706      49.749
2015    7        4    21  19    5.0640   527.1    4.703      49.748
2015    7        4    21  25    5.0619   527.2    4.701      49.747
2015    7        4    21  31    5.0598   527.3    4.698      49.746
2015    7        4    21  37    5.0577   527.4    4.696      49.745
2015    7        4    21  43    5.0556   527.5    4.693      49.743
2015    7        4    21  49    5.0534   527.6    4.690      49.742
2015    7        4    21  55    5.0513   527.7    4.687      49.740
2015    7        4    22   1    5.0491   527.8    4.685      49.738
2015    7        4    22   7    5.0470   527.9    4.682      49.736
2015    7        4    22  13    5.0448   528.0    4.679      49.734
2015    7        4    22  19    5.0426   528.1    4.676      49.732
2015    7        4    22  25    5.0404   528.2    4.674      49.730
2015    7        4    22  31    5.0382   528.3    4.671      49.728
2015    7        4    22  36    5.0361   528.4    4.668      49.726
2015    7        4    22  42    5.0339   528.5    4.666      49.724
2015    7        4    22  48    5.0317   528.6    4.663      49.722
2015    7        4    22  54    5.0294   528.7    4.660      49.721
2015    7        4    23   0    5.0273   528.8    4.657      49.719
2015    7        4    23   6    5.0250   528.9    4.655      49.718
2015    7        4    23  12    5.0228   529.0    4.652      49.718
2015    7        4    23  18    5.0206   529.1    4.650      49.718
2015    7        4    23  24    5.0184   529.2    4.647      49.719
2015    7        4    23  30    5.0162   529.3    4.644      49.720
2015    7        4    23  36    5.0140   529.4    4.642      49.722
2015    7        4    23  42    5.0118   529.4    4.639      49.724
2015    7        4    23  48    5.0096   529.5    4.636      49.728
2015    7        4    23  54    5.0073   529.6    4.634      49.731
2015    7        5     0   0    5.0052   529.7    4.631      49.736
2015    7        5     0   6    5.0030   529.8    4.628      49.740
2015    7        5     0  12    5.0008   529.9    4.625      49.746
2015    7        5     0  18    4.9986   530.0    4.623      49.751
2015    7        5     0  24    4.9964   530.1    4.620      49.758
2015    7        5     0  30    4.9943   530.2    4.617      49.764
2015    7        5     0  35    4.9921   530.3    4.614      49.770
2015    7        5     0  41    4.9899   530.4    4.611      49.777
2015    7        5     0  47    4.9878   530.5    4.608      49.783
2015    7        5     0  53    4.9856   530.6    4.605      49.789
2015    7        5     0  59    4.9835   530.7    4.602      49.795
2015    7        5     1   5    4.9813   530.8    4.599      49.801
2015    7        5     1  11    4.9792   530.9    4.596      49.806
2015    7        5     1  17    4.9770   531.0    4.593      49.811
2015    7        5     1  23    4.9749   531.1    4.590      49.815
2015    7        5     1  29    4.9728   531.2    4.587      49.819
2015    7        5     1  35    4.9707   531.3    4.583      49.822
2015    7        5     1  41    4.9686   531.4    4.580      49.824
2015    7        5     1  47    4.9665   531.5    4.576      49.826
2015    7        5     1  53    4.9644   531.6    4.573      49.827
2015    7        5     1  59    4.9623   531.7    4.570      49.828
2015    7        5     2   5    4.9602   531.8    4.566      49.828
2015    7        5     2  11    4.9582   531.9    4.563      49.828
2015    7        5     2  17    4.9561   532.0    4.559      49.827
2015    7        5     2  23    4.9541   532.1    4.556      49.825
2015    7        5     2  29    4.9520   532.2    4.552      49.823
2015    7        5     2  35    4.9500   532.3    4.549      49.821
2015    7        5     2  41    4.9479   532.4    4.545      49.818
2015    7        5     2  46    4.9459   532.4    4.542      49.814
2015    7        5     2  52    4.9438   532.5    4.538      49.810
2015    7        5     2  58    4.9417   532.6    4.535      49.806
2015    7        5     3   4    4.9396   532.7    4.531      49.802
2015    7        5     3  10    4.9375   532.8    4.528      49.797
2015    7        5     3  16    4.9353   532.9    4.525      49.792
2015    7        5     3  22    4.9332   533.0    4.521      49.786
2015    7        5     3  28    4.9310   533.1    4.518      49.781
2015    7        5     3  34    4.9288   533.2    4.515      49.775
2015    7        5     3  40    4.9265   533.3    4.511      49.769
2015    7        5     3  46    4.9243   533.4    4.508      49.762
2015    7        5     3  52    4.9220   533.5    4.505      49.756
2015    7        5     3  58    4.9197   533.6    4.502      49.749
2015    7        5     4   4    4.9173   533.7    4.499      49.743
2015    7        5     4  10    4.9150   533.8    4.496      49.736
2015    7        5     4  16    4.9126   533.9    4.493      49.729
2015    7        5     4  22    4.9101   534.0    4.490      49.722
2015    7        5     4  28    4.9077   534.1    4.487      49.715
2015    7        5     4  34    4.9053   534.2    4.484      49.708
2015    7        5     4  39    4.9028   534.3    4.481      49.700
2015    7        5     4  45    4.9003   534.4    4.478      49.692
2015    7        5     4  51    4.8978   534.5    4.475      49.685
2015    7        5     4  57    4.8953   534.6    4.472      49.677
2015    7        5     5   3    4.8927   534.7    4.469      49.669
2015    7        5     5   9    4.8902   534.8    4.466      49.660
2015    7        5     5  15    4.8876   534.9    4.463      49.652
2015    7        5     5  21    4.8850   535.0    4.460      49.644
2015    7        5     5  27    4.8824   535.1    4.457      49.635
2015    7        5     5  33    4.8798   535.2    4.454      49.627
2015    7        5     5  39    4.8772   535.3    4.451      49.619
2015    7        5     5  45    4.8746   535.4    4.448      49.611
2015    7        5     5  51    4.8720   535.5    4.445      49.604
2015    7        5     5  57    4.8693   535.5    4.442      49.597
2015    7        5     6   3    4.8667   535.6    4.439      49.590
2015    7        5     6   9    4.8640   535.7    4.436      49.584
2015    7        5     6  15    4.8614   535.8    4.433      49.578
2015    7        5     6  20    4.8587   535.9    4.430      49.573
2015    7        5     6  26    4.8561   536.0    4.427      49.568
2015    7        5     6  32    4.8534   536.1    4.424      49.564
2015    7        5     6  38    4.8507   536.1    4.421      49.560
2015    7        5     6  44    4.8481   536.2    4.418      49.558
2015    7        5     6  50    4.8454   536.3    4.415      49.555
2015    7        5     6  56    4.8427   536.4    4.412      49.553
2015    7        5     7   2    4.8401   536.5    4.409      49.552
2015    7        5     7   8    4.8374   536.6    4.406      49.551
2015    7        5     7  14    4.8347   536.6    4.402      49.550
2015    7        5     7  20    4.8321   536.7    4.399      49.550
2015    7        5     7  26    4.8294   536.8    4.396      49.549
2015    7        5     7  32    4.8268   536.9    4.392      49.548
2015    7        5     7  38    4.8242   537.0    4.389      49.548
2015    7        5     7  44    4.8216   537.0    4.386      49.547
2015    7        5     7  50    4.8189   537.1    4.382      49.546
2015    7        5     7  56    4.8163   537.2    4.379      49.544
2015    7        5     8   2    4.8137   537.3    4.375      49.543
2015    7        5     8   8    4.8111   537.4    4.371      49.540
2015    7        5     8  13    4.8086   537.4    4.368      49.538
2015    7        5     8  19    4.8060   537.5    4.364      49.535
2015    7        5     8  25    4.8034   537.6    4.360      49.532
2015    7        5     8  31    4.8009   537.7    4.357      49.528
2015    7        5     8  37    4.7983   537.8    4.353      49.523
2015    7        5     8  43    4.7958   537.8    4.349      49.519
2015    7        5     8  49    4.7932   537.9    4.345      49.513
2015    7        5     8  55    4.7907   538.0    4.342      49.507
2015    7        5     9   1    4.7882   538.1    4.338      49.501
2015    7        5     9   7    4.7857   538.1    4.334      49.494
2015    7        5     9  13    4.7832   538.2    4.330      49.487
2015    7        5     9  19    4.7807   538.3    4.327      49.479
2015    7        5     9  25    4.7782   538.4    4.323      49.470
2015    7        5     9  31    4.7757   538.4    4.319      49.461
2015    7        5     9  37    4.7732   538.5    4.315      49.452
2015    7        5     9  43    4.7706   538.6    4.311      49.442
2015    7        5     9  49    4.7681   538.7    4.308      49.431
2015    7        5     9  55    4.7656   538.7    4.304      49.420
2015    7        5    10   1    4.7630   538.8    4.300      49.408
2015    7        5    10   7    4.7604   538.9    4.297      49.396
2015    7        5    10  13    4.7578   538.9    4.293      49.384
2015    7        5    10  18    4.7552   539.0    4.289      49.371
2015    7        5    10  24    4.7525   539.1    4.286      49.357
2015    7        5    10  30    4.7499   539.2    4.282      49.344
2015    7        5    10  36    4.7472   539.2    4.279      49.330
2015    7        5    10  42    4.7445   539.3    4.275      49.315
2015    7        5    10  48    4.7418   539.4    4.272      49.300
2015    7        5    10  54    4.7390   539.4    4.269      49.285
2015    7        5    11   0    4.7363   539.5    4.265      49.270
2015    7        5    11   6    4.7335   539.6    4.262      49.255
2015    7        5    11  12    4.7307   539.6    4.259      49.239
2015    7        5    11  18    4.7280   539.7    4.256      49.223
2015    7        5    11  24    4.7252   539.8    4.253      49.208
2015    7        5    11  30    4.7223   539.8    4.250      49.192
2015    7        5    11  36    4.7195   539.9    4.247      49.176
2015    7        5    11  42    4.7167   540.0    4.244      49.160
2015    7        5    11  48    4.7138   540.0    4.241      49.144
2015    7        5    11  54    4.7109   540.1    4.238      49.128
2015    7        5    12   0    4.7080   540.2    4.235      49.112
2015    7        5    12   6    4.7051   540.2    4.233      49.096
2015    7        5    12  12    4.7022   540.3    4.230      49.081
2015    7        5    12  18    4.6993   540.4    4.227      49.066
2015    7        5    12  24    4.6963   540.4    4.225      49.050
2015    7        5    12  29    4.6933   540.5    4.222      49.036
2015    7        5    12  35    4.6903   540.5    4.219      49.021
2015    7        5    12  41    4.6873   540.6    4.217      49.007
2015    7        5    12  47    4.6843   540.7    4.214      48.993
2015    7        5    12  53    4.6813   540.7    4.212      48.979
2015    7        5    12  59    4.6783   540.8    4.209      48.966
2015    7        5    13   5    4.6752   540.8    4.207      48.954
2015    7        5    13  11    4.6722   540.9    4.204      48.941
2015    7        5    13  17    4.6691   540.9    4.202      48.930
2015    7        5    13  23    4.6661   541.0    4.199      48.919
2015    7        5    13  29    4.6630   541.0    4.197      48.909
2015    7        5    13  35    4.6600   541.1    4.194      48.900
2015    7        5    13  41    4.6569   541.1    4.192      48.892
2015    7        5    13  47    4.6539   541.2    4.189      48.884
2015    7        5    13  53    4.6508   541.2    4.186      48.877
2015    7        5    13  59    4.6478   541.3    4.184      48.870
2015    7        5    14   5    4.6448   541.3    4.181      48.864
2015    7        5    14  11    4.6418   541.4    4.178      48.858
2015    7        5    14  17    4.6388   541.4    4.175      48.853
2015    7        5    14  23    4.6358   541.5    4.172      48.848
2015    7        5    14  29    4.6328   541.5    4.169      48.843
2015    7        5    14  34    4.6298   541.5    4.166      48.837
2015    7        5    14  40    4.6269   541.6    4.163      48.832
2015    7        5    14  46    4.6239   541.6    4.160      48.827
2015    7        5    14  52    4.6210   541.7    4.157      48.820
2015    7        5    14  58    4.6181   541.7    4.154      48.814
2015    7        5    15   4    4.6152   541.7    4.151      48.807
2015    7        5    15  10    4.6123   541.8    4.148      48.800
2015    7        5    15  16    4.6095   541.8    4.145      48.791
2015    7        5    15  22    4.6066   541.9    4.141      48.783
2015    7        5    15  28    4.6038   541.9    4.138      48.774
2015    7        5    15  34    4.6010   541.9    4.135      48.764
2015    7        5    15  40    4.5982   542.0    4.132      48.754
2015    7        5    15  46    4.5954   542.0    4.128      48.743
2015    7        5    15  52    4.5926   542.1    4.125      48.732
2015    7        5    15  58    4.5898   542.1    4.122      48.721
2015    7        5    16   4    4.5870   542.1    4.118      48.708
2015    7        5    16  10    4.5842   542.2    4.115      48.696
2015    7        5    16  16    4.5815   542.2    4.111      48.683
2015    7        5    16  22    4.5787   542.2    4.108      48.669
2015    7        5    16  28    4.5759   542.3    4.105      48.655
2015    7        5    16  34    4.5732   542.3    4.101      48.640
2015    7        5    16  39    4.5704   542.4    4.098      48.625
2015    7        5    16  45    4.5676   542.4    4.095      48.610
2015    7        5    16  51    4.5648   542.4    4.091      48.594
2015    7        5    16  57    4.5621   542.5    4.088      48.577
2015    7        5    17   3    4.5593   542.5    4.085      48.560
2015    7        5    17   9    4.5564   542.5    4.081      48.543
2015    7        5    17  15    4.5536   542.6    4.078      48.525
2015    7        5    17  21    4.5508   542.6    4.075      48.507
2015    7        5    17  27    4.5480   542.6    4.071      48.489
2015    7        5    17  33    4.5451   542.6    4.068      48.470
2015    7        5    17  39    4.5423   542.7    4.065      48.451
2015    7        5    17  45    4.5395   542.7    4.062      48.432
2015    7        5    17  51    4.5366   542.7    4.059      48.412
2015    7        5    17  57    4.5337   542.8    4.056      48.392
2015    7        5    18   3    4.5309   542.8    4.053      48.373
2015    7        5    18   9    4.5280   542.8    4.050      48.352
2015    7        5    18  15    4.5251   542.9    4.047      48.332
2015    7        5    18  21    4.5222   542.9    4.044      48.312
2015    7        5    18  27    4.5193   542.9    4.041      48.291
2015    7        5    18  33    4.5164   542.9    4.038      48.271
2015    7        5    18  39    4.5135   543.0    4.035      48.251
2015    7        5    18  45    4.5106   543.0    4.033      48.230
2015    7        5    18  50    4.5076   543.0    4.030      48.210
2015    7        5    18  56    4.5047   543.0    4.027      48.190
2015    7        5    19   2    4.5018   543.1    4.025      48.170
2015    7        5    19   8    4.4988   543.1    4.022      48.150
2015    7        5    19  14    4.4958   543.1    4.020      48.130
2015    7        5    19  20    4.4928   543.1    4.018      48.111
2015    7        5    19  26    4.4899   543.1    4.015      48.091
2015    7        5    19  32    4.4869   543.2    4.013      48.072
2015    7        5    19  38    4.4839   543.2    4.011      48.054
2015    7        5    19  44    4.4808   543.2    4.008      48.035
2015    7        5    19  50    4.4778   543.2    4.006      48.017
2015    7        5    19  56    4.4748   543.2    4.004      47.999
2015    7        5    20   2    4.4718   543.3    4.002      47.982
2015    7        5    20   8    4.4687   543.3    3.999      47.965
2015    7        5    20  14    4.4657   543.3    3.997      47.949
2015    7        5    20  20    4.4626   543.3    3.995      47.932
2015    7        5    20  26    4.4596   543.3    3.993      47.916
2015    7        5    20  32    4.4565   543.3    3.991      47.901
2015    7        5    20  38    4.4535   543.3    3.989      47.886
2015    7        5    20  44    4.4504   543.3    3.987      47.871
2015    7        5    20  49    4.4474   543.4    3.984      47.857
2015    7        5    20  55    4.4443   543.4    3.982      47.843
2015    7        5    21   1    4.4413   543.4    3.980      47.830
2015    7        5    21   7    4.4383   543.4    3.978      47.817
2015    7        5    21  13    4.4352   543.4    3.976      47.804
2015    7        5    21  19    4.4322   543.4    3.973      47.792
2015    7        5    21  25    4.4292   543.4    3.971      47.779
2015    7        5    21  31    4.4262   543.4    3.969      47.767
2015    7        5    21  37    4.4233   543.4    3.966      47.755
2015    7        5    21  43    4.4203   543.4    3.964      47.743
2015    7        5    21  49    4.4174   543.4    3.962      47.731
2015    7        5    21  55    4.4144   543.4    3.959      47.719
2015    7        5    22   1    4.4115   543.4    3.957      47.706
2015    7        5    22   7    4.4086   543.4    3.954      47.693
2015    7        5    22  13    4.4057   543.4    3.951      47.680
2015    7        5    22  19    4.4028   543.4    3.949      47.666
2015    7        5    22  25    4.4000   543.4    3.946      47.652
2015    7        5    22  31    4.3971   543.4    3.944      47.637
2015    7        5    22  37    4.3943   543.4    3.941      47.622
2015    7        5    22  43    4.3914   543.4    3.938      47.606
2015    7        5    22  49    4.3886   543.4    3.936      47.590
2015    7        5    22  54    4.3858   543.4    3.933      47.573
2015    7        5    23   0    4.3830   543.4    3.930      47.556
2015    7        5    23   6    4.3802   543.4    3.927      47.539
2015    7        5    23  12    4.3774   543.4    3.925      47.521
2015    7        5    23  18    4.3746   543.4    3.922      47.503
2015    7        5    23  24    4.3719   543.4    3.919      47.484
2015    7        5    23  30    4.3691   543.4    3.916      47.465
2015    7        5    23  36    4.3663   543.4    3.914      47.445
2015    7        5    23  42    4.3635   543.4    3.911      47.425
2015    7        5    23  48    4.3607   543.3    3.908      47.404
2015    7        5    23  54    4.3579   543.3    3.905      47.383
2015    7        6     0   0    4.3551   543.3    3.902      47.362
2015    7        6     0   6    4.3523   543.3    3.899      47.340
2015    7        6     0  12    4.3495   543.3    3.897      47.318
2015    7        6     0  18    4.3467   543.3    3.894      47.296
2015    7        6     0  24    4.3438   543.3    3.891      47.273
2015    7        6     0  30    4.3410   543.3    3.888      47.250
2015    7        6     0  36    4.3382   543.3    3.885      47.227
2015    7        6     0  42    4.3354   543.3    3.883      47.203
2015    7        6     0  48    4.3325   543.3    3.880      47.180
2015    7        6     0  54    4.3297   543.3    3.877      47.156
2015    7        6     1   0    4.3268   543.3    3.875      47.132
2015    7        6     1   5    4.3240   543.2    3.872      47.108
2015    7        6     1  11    4.3211   543.2    3.869      47.084
2015    7        6     1  17    4.3183   543.2    3.867      47.060
2015    7        6     1  23    4.3154   543.2    3.864      47.036
2015    7        6     1  29    4.3126   543.2    3.862      47.011
2015    7        6     1  35    4.3097   543.2    3.859      46.987
2015    7        6     1  41    4.3068   543.2    3.857      46.963
2015    7        6     1  47    4.3040   543.2    3.854      46.939
2015    7        6     1  53    4.3011   543.1    3.852      46.915
2015    7        6     1  59    4.2982   543.1    3.850      46.891
2015    7        6     2   5    4.2953   543.1    3.847      46.867
2015    7        6     2  11    4.2924   543.1    3.845      46.844
2015    7        6     2  17    4.2896   543.1    3.843      46.821
2015    7        6     2  23    4.2867   543.1    3.841      46.798
2015    7        6     2  29    4.2838   543.0    3.839      46.775
2015    7        6     2  35    4.2809   543.0    3.836      46.752
2015    7        6     2  41    4.2780   543.0    3.834      46.730
2015    7        6     2  47    4.2751   543.0    3.832      46.708
2015    7        6     2  53    4.2722   543.0    3.830      46.686
2015    7        6     2  59    4.2693   542.9    3.828      46.664
2015    7        6     3   4    4.2664   542.9    3.826      46.643
2015    7        6     3  10    4.2635   542.9    3.824      46.622
2015    7        6     3  16    4.2606   542.9    3.822      46.601
2015    7        6     3  22    4.2577   542.8    3.820      46.581
2015    7        6     3  28    4.2549   542.8    3.818      46.561
2015    7        6     3  34    4.2520   542.8    3.816      46.541
2015    7        6     3  40    4.2491   542.7    3.814      46.521
2015    7        6     3  46    4.2462   542.7    3.812      46.501
2015    7        6     3  52    4.2433   542.7    3.810      46.482
2015    7        6     3  58    4.2405   542.6    3.808      46.463
2015    7        6     4   4    4.2376   542.6    3.807      46.444
2015    7        6     4  10    4.2347   542.6    3.805      46.425
2015    7        6     4  16    4.2319   542.6    3.803      46.406
2015    7        6     4  22    4.2290   542.5    3.801      46.387
2015    7        6     4  28    4.2262   542.5    3.799      46.367
2015    7        6     4  34    4.2233   542.5    3.797      46.348
2015    7        6     4  40    4.2205   542.4    3.795      46.329
2015    7        6     4  46    4.2177   542.4    3.793      46.309
2015    7        6     4  52    4.2148   542.3    3.791      46.289
2015    7        6     4  58    4.2120   542.3    3.789      46.269
2015    7        6     5   4    4.2092   542.3    3.787      46.248
2015    7        6     5   9    4.2064   542.2    3.785      46.227
2015    7        6     5  15    4.2036   542.2    3.783      46.205
2015    7        6     5  21    4.2008   542.2    3.781      46.184
2015    7        6     5  27    4.1979   542.1    3.779      46.162
2015    7        6     5  33    4.1951   542.1    3.777      46.139
2015    7        6     5  39    4.1924   542.0    3.775      46.117
2015    7        6     5  45    4.1896   542.0    3.773      46.094
2015    7        6     5  51    4.1868   541.9    3.771      46.070
2015    7        6     5  57    4.1840   541.9    3.769      46.047
2015    7        6     6   3    4.1812   541.9    3.766      46.023
2015    7        6     6   9    4.1784   541.8    3.764      45.998
2015    7        6     6  15    4.1756   541.8    3.762      45.974
2015    7        6     6  21    4.1729   541.7    3.760      45.949
2015    7        6     6  27    4.1701   541.7    3.758      45.923
2015    7        6     6  33    4.1673   541.6    3.755      45.898
2015    7        6     6  39    4.1646   541.6    3.753      45.872
2015    7        6     6  45    4.1618   541.5    3.751      45.846
2015    7        6     6  51    4.1590   541.5    3.749      45.819
2015    7        6     6  57    4.1563   541.4    3.746      45.792
2015    7        6     7   3    4.1535   541.4    3.744      45.765
2015    7        6     7   9    4.1508   541.3    3.742      45.738
2015    7        6     7  14    4.1480   541.3    3.740      45.710
2015    7        6     7  20    4.1453   541.2    3.738      45.682
2015    7        6     7  26    4.1425   541.2    3.735      45.654
2015    7        6     7  32    4.1398   541.1    3.733      45.626
2015    7        6     7  38    4.1370   541.1    3.731      45.597
2015    7        6     7  44    4.1343   541.0    3.729      45.568
2015    7        6     7  50    4.1315   541.0    3.727      45.539
2015    7        6     7  56    4.1288   540.9    3.725      45.510
2015    7        6     8   2    4.1260   540.9    3.723      45.481
2015    7        6     8   8    4.1233   540.8    3.721      45.452
2015    7        6     8  14    4.1205   540.8    3.719      45.423
2015    7        6     8  20    4.1178   540.7    3.717      45.394
2015    7        6     8  26    4.1151   540.7    3.715      45.365
2015    7        6     8  32    4.1124   540.6    3.713      45.336
2015    7        6     8  38    4.1096   540.5    3.711      45.307
2015    7        6     8  44    4.1069   540.5    3.709      45.278
2015    7        6     8  50    4.1042   540.4    3.708      45.249
2015    7        6     8  56    4.1015   540.4    3.706      45.221
2015    7        6     9   2    4.0988   540.3    3.704      45.192
2015    7        6     9   8    4.0961   540.3    3.702      45.164
2015    7        6     9  14    4.0934   540.2    3.701      45.135
2015    7        6     9  19    4.0907   540.1    3.699      45.107
2015    7        6     9  25    4.0880   540.1    3.698      45.079
2015    7        6     9  31    4.0853   540.0    3.696      45.052
2015    7        6     9  37    4.0826   539.9    3.695      45.024
2015    7        6     9  43    4.0800   539.9    3.693      44.997
2015    7        6     9  49    4.0773   539.8    3.692      44.970
2015    7        6     9  55    4.0747   539.8    3.690      44.943
2015    7        6    10   1    4.0720   539.7    3.689      44.916
2015    7        6    10   7    4.0694   539.6    3.687      44.890
2015    7        6    10  13    4.0667   539.6    3.686      44.864
2015    7        6    10  19    4.0641   539.5    3.685      44.838
2015    7        6    10  25    4.0615   539.4    3.683      44.812
2015    7        6    10  31    4.0588   539.3    3.682      44.786
2015    7        6    10  37    4.0562   539.3    3.681      44.761
2015    7        6    10  43    4.0536   539.2    3.679      44.736
2015    7        6    10  49    4.0510   539.1    3.678      44.712
2015    7        6    10  55    4.0484   539.0    3.677      44.687
2015    7        6    11   1    4.0458   539.0    3.675      44.663
2015    7        6    11   7    4.0432   538.9    3.674      44.639
2015    7        6    11  13    4.0407   538.8    3.673      44.615
2015    7        6    11  18    4.0381   538.7    3.671      44.592
2015    7        6    11  24    4.0355   538.7    3.670      44.569
2015    7        6    11  30    4.0330   538.6    3.669      44.546
2015    7        6    11  36    4.0305   538.5    3.667      44.523
2015    7        6    11  42    4.0279   538.4    3.666      44.500
2015    7        6    11  48    4.0254   538.3    3.665      44.477
2015    7        6    11  54    4.0229   538.3    3.664      44.454
2015    7        6    12   0    4.0203   538.2    3.662      44.430
2015    7        6    12   6    4.0178   538.1    3.661      44.406
2015    7        6    12  12    4.0153   538.0    3.660      44.382
2015    7        6    12  18    4.0128   537.9    3.658      44.358
2015    7        6    12  24    4.0102   537.9    3.657      44.333
2015    7        6    12  30    4.0077   537.8    3.656      44.308
2015    7        6    12  36    4.0052   537.7    3.654      44.282
2015    7        6    12  42    4.0027   537.6    3.653      44.256
2015    7        6    12  48    4.0001   537.5    3.651      44.230
2015    7        6    12  54    3.9976   537.5    3.650      44.203
2015    7        6    13   0    3.9950   537.4    3.649      44.175
2015    7        6    13   6    3.9925   537.3    3.647      44.148
2015    7        6    13  12    3.9900   537.2    3.646      44.119
2015    7        6    13  18    3.9874   537.1    3.644      44.091
2015    7        6    13  23    3.9849   537.0    3.643      44.062
2015    7        6    13  29    3.9823   536.9    3.641      44.032
2015    7        6    13  35    3.9798   536.8    3.639      44.003
2015    7        6    13  41    3.9772   536.8    3.638      43.972
2015    7        6    13  47    3.9747   536.7    3.636      43.942
2015    7        6    13  53    3.9721   536.6    3.635      43.911
2015    7        6    13  59    3.9695   536.5    3.633      43.880
2015    7        6    14   5    3.9670   536.4    3.631      43.849
2015    7        6    14  11    3.9644   536.3    3.630      43.817
2015    7        6    14  17    3.9619   536.2    3.628      43.785
2015    7        6    14  23    3.9594   536.1    3.626      43.753
2015    7        6    14  29    3.9568   536.0    3.624      43.721
2015    7        6    14  35    3.9543   535.9    3.623      43.688
2015    7        6    14  41    3.9517   535.9    3.621      43.655
2015    7        6    14  47    3.9492   535.8    3.619      43.622
2015    7        6    14  53    3.9467   535.7    3.618      43.589
2015    7        6    14  59    3.9442   535.6    3.616      43.556
2015    7        6    15   5    3.9416   535.5    3.614      43.522
2015    7        6    15  11    3.9391   535.4    3.613      43.489
2015    7        6    15  17    3.9366   535.3    3.611      43.455
2015    7        6    15  23    3.9341   535.2    3.609      43.421
2015    7        6    15  29    3.9316   535.1    3.608      43.387
2015    7        6    15  34    3.9291   535.0    3.606      43.353
2015    7        6    15  40    3.9266   534.9    3.605      43.319
2015    7        6    15  46    3.9242   534.8    3.603      43.285
2015    7        6    15  52    3.9217   534.7    3.602      43.251
2015    7        6    15  58    3.9193   534.6    3.600      43.217
2015    7        6    16   4    3.9168   534.5    3.599      43.183
2015    7        6    16  10    3.9144   534.4    3.598      43.150
2015    7        6    16  16    3.9120   534.3    3.597      43.117
2015    7        6    16  22    3.9096   534.2    3.596      43.083
2015    7        6    16  28    3.9073   534.1    3.595      43.051
2015    7        6    16  34    3.9049   534.0    3.594      43.018
2015    7        6    16  40    3.9026   533.9    3.593      42.986
2015    7        6    16  46    3.9003   533.8    3.592      42.954
2015    7        6    16  52    3.8980   533.7    3.591      42.923
2015    7        6    16  58    3.8957   533.6    3.591      42.892
2015    7        6    17   4    3.8934   533.5    3.590      42.862
2015    7        6    17  10    3.8912   533.4    3.590      42.832
2015    7        6    17  16    3.8889   533.3    3.589      42.803
2015    7        6    17  22    3.8866   533.2    3.589      42.774
2015    7        6    17  28    3.8844   533.1    3.589      42.746
2015    7        6    17  33    3.8821   532.9    3.588      42.718
2015    7        6    17  39    3.8799   532.8    3.588      42.691
2015    7        6    17  45    3.8776   532.7    3.588      42.665
2015    7        6    17  51    3.8754   532.6    3.588      42.638
2015    7        6    17  57    3.8731   532.5    3.588      42.612
2015    7        6    18   3    3.8708   532.4    3.587      42.586
2015    7        6    18   9    3.8686   532.3    3.587      42.561
2015    7        6    18  15    3.8664   532.2    3.587      42.536
2015    7        6    18  21    3.8641   532.1    3.587      42.511
2015    7        6    18  27    3.8619   532.0    3.586      42.486
2015    7        6    18  33    3.8596   531.8    3.586      42.461
2015    7        6    18  39    3.8574   531.7    3.586      42.436
2015    7        6    18  45    3.8552   531.6    3.586      42.412
2015    7        6    18  51    3.8530   531.5    3.585      42.387
2015    7        6    18  57    3.8508   531.4    3.585      42.362
2015    7        6    19   3    3.8485   531.3    3.584      42.337
2015    7        6    19   9    3.8463   531.2    3.584      42.312
2015    7        6    19  15    3.8441   531.0    3.584      42.286
2015    7        6    19  21    3.8418   530.9    3.583      42.261
2015    7        6    19  27    3.8396   530.8    3.583      42.234
2015    7        6    19  32    3.8373   530.7    3.582      42.208
2015    7        6    19  38    3.8351   530.6    3.582      42.181
2015    7        6    19  44    3.8329   530.4    3.581      42.154
2015    7        6    19  50    3.8306   530.3    3.580      42.126
2015    7        6    19  56    3.8283   530.2    3.580      42.098
2015    7        6    20   2    3.8261   530.1    3.579      42.069
2015    7        6    20   8    3.8238   530.0    3.578      42.040
2015    7        6    20  14    3.8216   529.8    3.578      42.011
2015    7        6    20  20    3.8193   529.7    3.577      41.981
2015    7        6    20  26    3.8171   529.6    3.576      41.951
2015    7        6    20  32    3.8148   529.5    3.575      41.920
2015    7        6    20  38    3.8125   529.3    3.574      41.889
2015    7        6    20  44    3.8103   529.2    3.573      41.857
2015    7        6    20  50    3.8081   529.1    3.572      41.826
2015    7        6    20  56    3.8058   529.0    3.571      41.793
2015    7        6    21   2    3.8036   528.8    3.570      41.761
2015    7        6    21   8    3.8014   528.7    3.569      41.728
2015    7        6    21  14    3.7992   528.6    3.568      41.695
2015    7        6    21  20    3.7969   528.5    3.567      41.662
2015    7        6    21  26    3.7948   528.3    3.566      41.628
2015    7        6    21  32    3.7926   528.2    3.565      41.594
2015    7        6    21  37    3.7904   528.1    3.564      41.560
2015    7        6    21  43    3.7882   528.0    3.563      41.526
2015    7        6    21  49    3.7861   527.8    3.561      41.492
2015    7        6    21  55    3.7839   527.7    3.560      41.457
2015    7        6    22   1    3.7818   527.6    3.559      41.422
2015    7        6    22   7    3.7797   527.4    3.557      41.386
2015    7        6    22  13    3.7776   527.3    3.556      41.351
2015    7        6    22  19    3.7755   527.2    3.555      41.315
2015    7        6    22  25    3.7733   527.0    3.553      41.279
2015    7        6    22  31    3.7713   526.9    3.552      41.243
2015    7        6    22  37    3.7692   526.8    3.551      41.206
2015    7        6    22  43    3.7671   526.6    3.549      41.169
2015    7        6    22  49    3.7650   526.5    3.548      41.133
2015    7        6    22  55    3.7630   526.4    3.547      41.095
2015    7        6    23   1    3.7609   526.2    3.545      41.058
2015    7        6    23   7    3.7589   526.1    3.544      41.021
2015    7        6    23  13    3.7568   525.9    3.543      40.984
2015    7        6    23  19    3.7548   525.8    3.541      40.947
2015    7        6    23  25    3.7528   525.7    3.540      40.909
2015    7        6    23  31    3.7508   525.5    3.539      40.872
2015    7        6    23  37    3.7488   525.4    3.538      40.835
2015    7        6    23  42    3.7469   525.2    3.537      40.799
2015    7        6    23  48    3.7449   525.1    3.536      40.763
2015    7        6    23  54    3.7430   525.0    3.535      40.727
2015    7        7     0   0    3.7410   524.8    3.534      40.691
2015    7        7     0   6    3.7391   524.7    3.534      40.656
2015    7        7     0  12    3.7372   524.6    3.533      40.622
2015    7        7     0  18    3.7353   524.4    3.532      40.587
2015    7        7     0  24    3.7334   524.3    3.532      40.554
2015    7        7     0  30    3.7315   524.1    3.532      40.521
2015    7        7     0  36    3.7295   524.0    3.531      40.489
2015    7        7     0  42    3.7276   523.9    3.531      40.457
2015    7        7     0  48    3.7257   523.7    3.531      40.426
2015    7        7     0  54    3.7237   523.6    3.530      40.395
2015    7        7     1   0    3.7218   523.5    3.530      40.365
2015    7        7     1   6    3.7198   523.3    3.530      40.335
2015    7        7     1  12    3.7178   523.2    3.530      40.306
2015    7        7     1  18    3.7158   523.1    3.530      40.276
2015    7        7     1  24    3.7138   522.9    3.530      40.246
2015    7        7     1  30    3.7118   522.8    3.530      40.217
2015    7        7     1  35    3.7098   522.6    3.529      40.187
2015    7        7     1  41    3.7078   522.5    3.529      40.157
2015    7        7     1  47    3.7058   522.4    3.529      40.128
2015    7        7     1  53    3.7037   522.2    3.529      40.097
2015    7        7     1  59    3.7017   522.1    3.529      40.067
2015    7        7     2   5    3.6997   521.9    3.528      40.036
2015    7        7     2  11    3.6976   521.8    3.528      40.005
2015    7        7     2  17    3.6955   521.7    3.528      39.973
2015    7        7     2  23    3.6935   521.5    3.527      39.941
2015    7        7     2  29    3.6914   521.4    3.527      39.910
2015    7        7     2  35    3.6893   521.2    3.527      39.878
2015    7        7     2  41    3.6872   521.1    3.526      39.845
2015    7        7     2  47    3.6852   520.9    3.526      39.813
2015    7        7     2  53    3.6830   520.8    3.526      39.780
2015    7        7     2  59    3.6809   520.6    3.525      39.747
2015    7        7     3   5    3.6788   520.5    3.525      39.714
2015    7        7     3  11    3.6767   520.3    3.524      39.680
2015    7        7     3  17    3.6746   520.2    3.524      39.647
2015    7        7     3  23    3.6726   520.0    3.524      39.613
2015    7        7     3  29    3.6705   519.9    3.523      39.580
2015    7        7     3  34    3.6684   519.7    3.523      39.546
2015    7        7     3  40    3.6663   519.5    3.523      39.513
2015    7        7     3  46    3.6643   519.4    3.523      39.479
2015    7        7     3  52    3.6622   519.2    3.523      39.446
2015    7        7     3  58    3.6602   519.1    3.522      39.413
2015    7        7     4   4    3.6582   518.9    3.522      39.380
2015    7        7     4  10    3.6563   518.7    3.522      39.348
2015    7        7     4  16    3.6543   518.6    3.522      39.316
2015    7        7     4  22    3.6524   518.4    3.523      39.285
2015    7        7     4  28    3.6506   518.3    3.523      39.253
2015    7        7     4  34    3.6487   518.1    3.523      39.223
2015    7        7     4  40    3.6469   517.9    3.524      39.193
2015    7        7     4  46    3.6451   517.8    3.524      39.163
2015    7        7     4  52    3.6434   517.6    3.524      39.135
2015    7        7     4  58    3.6417   517.4    3.525      39.106
2015    7        7     5   4    3.6400   517.3    3.525      39.078
2015    7        7     5  10    3.6383   517.1    3.526      39.051
2015    7        7     5  16    3.6366   517.0    3.527      39.024
2015    7        7     5  22    3.6350   516.8    3.527      38.996
2015    7        7     5  28    3.6334   516.6    3.528      38.969
2015    7        7     5  34    3.6318   516.5    3.528      38.942
2015    7        7     5  40    3.6302   516.3    3.529      38.916
2015    7        7     5  45    3.6286   516.1    3.529      38.889
2015    7        7     5  51    3.6271   516.0    3.530      38.861
2015    7        7     5  57    3.6255   515.8    3.530      38.834
2015    7        7     6   3    3.6239   515.7    3.530      38.806
2015    7        7     6   9    3.6223   515.5    3.530      38.777
2015    7        7     6  15    3.6207   515.3    3.531      38.749
2015    7        7     6  21    3.6191   515.2    3.531      38.720
2015    7        7     6  27    3.6175   515.0    3.531      38.690
2015    7        7     6  33    3.6159   514.9    3.531      38.660
2015    7        7     6  39    3.6143   514.7    3.531      38.630
2015    7        7     6  45    3.6126   514.5    3.530      38.599
2015    7        7     6  51    3.6110   514.4    3.530      38.568
2015    7        7     6  57    3.6093   514.2    3.530      38.536
2015    7        7     7   3    3.6076   514.0    3.529      38.504
2015    7        7     7   9    3.6059   513.9    3.529      38.471
2015    7        7     7  15    3.6042   513.7    3.528      38.438
2015    7        7     7  21    3.6025   513.6    3.528      38.406
2015    7        7     7  27    3.6008   513.4    3.527      38.372
2015    7        7     7  33    3.5991   513.2    3.527      38.339
2015    7        7     7  39    3.5973   513.1    3.526      38.305
2015    7        7     7  44    3.5956   512.9    3.526      38.271
2015    7        7     7  50    3.5938   512.7    3.525      38.237
2015    7        7     7  56    3.5920   512.6    3.524      38.203
2015    7        7     8   2    3.5902   512.4    3.524      38.169
2015    7        7     8   8    3.5884   512.2    3.523      38.135
2015    7        7     8  14    3.5866   512.1    3.522      38.101
2015    7        7     8  20    3.5848   511.9    3.522      38.067
2015    7        7     8  26    3.5829   511.8    3.521      38.032
2015    7        7     8  32    3.5811   511.6    3.520      37.998
2015    7        7     8  38    3.5792   511.4    3.519      37.963
2015    7        7     8  44    3.5773   511.3    3.518      37.928
2015    7        7     8  50    3.5755   511.1    3.518      37.892
2015    7        7     8  56    3.5736   510.9    3.517      37.857
2015    7        7     9   2    3.5717   510.8    3.516      37.821
2015    7        7     9   8    3.5698   510.6    3.515      37.785
2015    7        7     9  14    3.5678   510.4    3.514      37.748
2015    7        7     9  20    3.5659   510.3    3.513      37.712
2015    7        7     9  26    3.5640   510.1    3.512      37.675
2015    7        7     9  32    3.5621   509.9    3.511      37.637
2015    7        7     9  37    3.5602   509.7    3.510      37.600
2015    7        7     9  43    3.5583   509.6    3.509      37.563
2015    7        7     9  49    3.5563   509.4    3.508      37.525
2015    7        7     9  55    3.5544   509.2    3.507      37.487
2015    7        7    10   1    3.5525   509.0    3.507      37.449
2015    7        7    10   7    3.5506   508.9    3.506      37.411
2015    7        7    10  13    3.5487   508.7    3.505      37.373
2015    7        7    10  19    3.5468   508.5    3.504      37.334
2015    7        7    10  25    3.5449   508.3    3.503      37.296
2015    7        7    10  31    3.5430   508.1    3.502      37.258
2015    7        7    10  37    3.5411   508.0    3.501      37.220
2015    7        7    10  43    3.5392   507.8    3.500      37.182
2015    7        7    10  49    3.5374   507.6    3.499      37.144
2015    7        7    10  55    3.5355   507.4    3.499      37.106
2015    7        7    11   1    3.5337   507.2    3.498      37.069
2015    7        7    11   7    3.5319   507.0    3.498      37.032
2015    7        7    11  13    3.5301   506.9    3.497      36.995
2015    7        7    11  19    3.5283   506.7    3.497      36.959
2015    7        7    11  25    3.5266   506.5    3.496      36.923
2015    7        7    11  31    3.5249   506.3    3.496      36.889
2015    7        7    11  37    3.5232   506.1    3.496      36.855
2015    7        7    11  42    3.5216   505.9    3.496      36.821
2015    7        7    11  48    3.5199   505.7    3.497      36.788
2015    7        7    11  54    3.5184   505.5    3.497      36.757
2015    7        7    12   0    3.5168   505.4    3.498      36.727
2015    7        7    12   6    3.5153   505.2    3.498      36.697
2015    7        7    12  12    3.5138   505.0    3.499      36.668
2015    7        7    12  18    3.5124   504.8    3.500      36.641
2015    7        7    12  24    3.5109   504.6    3.501      36.614
2015    7        7    12  30    3.5095   504.4    3.502      36.587
2015    7        7    12  36    3.5081   504.2    3.503      36.561
2015    7        7    12  42    3.5068   504.1    3.504      36.536
2015    7        7    12  48    3.5054   503.9    3.505      36.511
2015    7        7    12  54    3.5041   503.7    3.507      36.487
2015    7        7    13   0    3.5028   503.5    3.508      36.464
2015    7        7    13   6    3.5015   503.3    3.509      36.440
2015    7        7    13  12    3.5002   503.2    3.511      36.417
2015    7        7    13  18    3.4989   503.0    3.512      36.394
2015    7        7    13  24    3.4976   502.8    3.514      36.370
2015    7        7    13  30    3.4962   502.6    3.515      36.347
2015    7        7    13  36    3.4949   502.4    3.517      36.324
2015    7        7    13  42    3.4936   502.2    3.518      36.301
2015    7        7    13  47    3.4922   502.1    3.519      36.277
2015    7        7    13  53    3.4909   501.9    3.521      36.254
2015    7        7    13  59    3.4895   501.7    3.522      36.230
2015    7        7    14   5    3.4881   501.5    3.523      36.206
2015    7        7    14  11    3.4867   501.3    3.525      36.182
2015    7        7    14  17    3.4852   501.2    3.526      36.157
2015    7        7    14  23    3.4837   501.0    3.527      36.132
2015    7        7    14  29    3.4823   500.8    3.528      36.106
2015    7        7    14  35    3.4808   500.6    3.529      36.081
2015    7        7    14  41    3.4792   500.4    3.530      36.054
2015    7        7    14  47    3.4777   500.2    3.531      36.028
2015    7        7    14  53    3.4762   500.1    3.532      36.001
2015    7        7    14  59    3.4746   499.9    3.533      35.974
2015    7        7    15   5    3.4730   499.7    3.534      35.947
2015    7        7    15  11    3.4715   499.5    3.535      35.920
2015    7        7    15  17    3.4699   499.3    3.535      35.892
2015    7        7    15  23    3.4683   499.1    3.536      35.864
2015    7        7    15  29    3.4667   498.9    3.537      35.836
2015    7        7    15  35    3.4651   498.7    3.537      35.808
2015    7        7    15  40    3.4635   498.5    3.538      35.780
2015    7        7    15  46    3.4619   498.3    3.539      35.752
2015    7        7    15  52    3.4602   498.1    3.539      35.723
2015    7        7    15  58    3.4586   497.9    3.540      35.694
2015    7        7    16   4    3.4570   497.7    3.540      35.666
2015    7        7    16  10    3.4554   497.5    3.541      35.637
2015    7        7    16  16    3.4538   497.3    3.541      35.608
2015    7        7    16  22    3.4522   497.2    3.542      35.580
2015    7        7    16  28    3.4507   497.0    3.542      35.551
2015    7        7    16  34    3.4491   496.8    3.543      35.522
2015    7        7    16  40    3.4475   496.6    3.543      35.493
2015    7        7    16  46    3.4460   496.4    3.543      35.465
2015    7        7    16  52    3.4444   496.2    3.544      35.436
2015    7        7    16  58    3.4429   496.0    3.544      35.407
2015    7        7    17   4    3.4413   495.8    3.544      35.379
2015    7        7    17  10    3.4398   495.6    3.545      35.350
2015    7        7    17  16    3.4383   495.4    3.545      35.321
2015    7        7    17  22    3.4367   495.2    3.545      35.293
2015    7        7    17  28    3.4352   495.0    3.545      35.264
2015    7        7    17  33    3.4337   494.8    3.545      35.235
2015    7        7    17  39    3.4322   494.6    3.546      35.207
2015    7        7    17  45    3.4307   494.4    3.546      35.178
2015    7        7    17  51    3.4292   494.2    3.546      35.149
2015    7        7    17  57    3.4277   494.0    3.546      35.120
2015    7        7    18   3    3.4262   493.8    3.546      35.090
2015    7        7    18   9    3.4247   493.6    3.546      35.060
2015    7        7    18  15    3.4232   493.3    3.545      35.031
2015    7        7    18  21    3.4218   493.1    3.545      35.000
2015    7        7    18  27    3.4203   492.9    3.545      34.970
2015    7        7    18  33    3.4188   492.7    3.545      34.939
2015    7        7    18  39    3.4174   492.5    3.545      34.908
2015    7        7    18  45    3.4159   492.3    3.545      34.877
2015    7        7    18  51    3.4145   492.1    3.545      34.845
2015    7        7    18  57    3.4131   491.9    3.545      34.814
2015    7        7    19   3    3.4116   491.7    3.544      34.782
2015    7        7    19   9    3.4102   491.5    3.544      34.750
2015    7        7    19  15    3.4088   491.3    3.544      34.718
2015    7        7    19  21    3.4074   491.1    3.544      34.686
2015    7        7    19  27    3.4060   490.9    3.544      34.654
2015    7        7    19  33    3.4046   490.7    3.544      34.622
2015    7        7    19  38    3.4032   490.4    3.544      34.590
2015    7        7    19  44    3.4019   490.2    3.544      34.557
2015    7        7    19  50    3.4005   490.0    3.545      34.525
2015    7        7    19  56    3.3992   489.8    3.545      34.493
2015    7        7    20   2    3.3979   489.6    3.545      34.462
2015    7        7    20   8    3.3965   489.4    3.545      34.430
2015    7        7    20  14    3.3952   489.2    3.546      34.399
2015    7        7    20  20    3.3939   489.0    3.546      34.367
2015    7        7    20  26    3.3926   488.8    3.547      34.336
2015    7        7    20  32    3.3913   488.6    3.547      34.305
2015    7        7    20  38    3.3900   488.3    3.548      34.274
2015    7        7    20  44    3.3887   488.1    3.549      34.244
2015    7        7    20  50    3.3874   487.9    3.549      34.213
2015    7        7    20  56    3.3861   487.7    3.550      34.183
2015    7        7    21   2    3.3848   487.5    3.551      34.153
2015    7        7    21   8    3.3835   487.3    3.552      34.123
2015    7        7    21  14    3.3822   487.1    3.552      34.093
2015    7        7    21  20    3.3808   486.9    3.553      34.063
2015    7        7    21  26    3.3795   486.6    3.554      34.033
2015    7        7    21  32    3.3782   486.4    3.555      34.003
2015    7        7    21  38    3.3768   486.2    3.556      33.974
2015    7        7    21  43    3.3755   486.0    3.557      33.944
2015    7        7    21  49    3.3742   485.8    3.558      33.914
2015    7        7    21  55    3.3728   485.6    3.559      33.884
2015    7        7    22   1    3.3715   485.3    3.560      33.855
2015    7        7    22   7    3.3701   485.1    3.562      33.825
2015    7        7    22  13    3.3688   484.9    3.563      33.795
2015    7        7    22  19    3.3674   484.7    3.564      33.766
2015    7        7    22  25    3.3661   484.4    3.565      33.736
2015    7        7    22  31    3.3648   484.2    3.566      33.707
2015    7        7    22  37    3.3635   484.0    3.568      33.678
2015    7        7    22  43    3.3622   483.8    3.569      33.648
2015    7        7    22  49    3.3609   483.5    3.570      33.619
2015    7        7    22  55    3.3596   483.3    3.572      33.590
2015    7        7    23   1    3.3584   483.1    3.573      33.562
2015    7        7    23   7    3.3571   482.8    3.575      33.534
2015    7        7    23  13    3.3559   482.6    3.576      33.506
2015    7        7    23  19    3.3547   482.4    3.578      33.478
2015    7        7    23  25    3.3535   482.1    3.580      33.451
2015    7        7    23  30    3.3523   481.9    3.582      33.424
2015    7        7    23  36    3.3512   481.7    3.584      33.397
2015    7        7    23  42    3.3500   481.4    3.586      33.371
2015    7        7    23  48    3.3489   481.2    3.588      33.346
2015    7        7    23  54    3.3479   481.0    3.590      33.321
2015    7        8     0   0    3.3468   480.7    3.592      33.296
2015    7        8     0   6    3.3458   480.5    3.594      33.272
2015    7        8     0  12    3.3448   480.3    3.597      33.249
2015    7        8     0  18    3.3438   480.0    3.599      33.227
2015    7        8     0  24    3.3428   479.8    3.602      33.205
2015    7        8     0  30    3.3419   479.6    3.604      33.184
2015    7        8     0  36    3.3410   479.3    3.607      33.163
2015    7        8     0  42    3.3401   479.1    3.610      33.143
2015    7        8     0  48    3.3392   478.9    3.612      33.123
2015    7        8     0  54    3.3384   478.6    3.615      33.104
2015    7        8     1   0    3.3375   478.4    3.618      33.085
2015    7        8     1   6    3.3367   478.2    3.621      33.067
2015    7        8     1  12    3.3359   477.9    3.624      33.048
2015    7        8     1  18    3.3350   477.7    3.626      33.030
2015    7        8     1  24    3.3342   477.5    3.629      33.012
2015    7        8     1  29    3.3334   477.3    3.632      32.994
2015    7        8     1  35    3.3326   477.0    3.635      32.976
2015    7        8     1  41    3.3318   476.8    3.638      32.957
2015    7        8     1  47    3.3310   476.6    3.641      32.939
2015    7        8     1  53    3.3302   476.3    3.643      32.920
2015    7        8     1  59    3.3294   476.1    3.646      32.902
2015    7        8     2   5    3.3286   475.9    3.649      32.883
2015    7        8     2  11    3.3278   475.6    3.651      32.864
2015    7        8     2  17    3.3270   475.4    3.654      32.845
2015    7        8     2  23    3.3262   475.2    3.657      32.825
2015    7        8     2  29    3.3254   474.9    3.659      32.806
2015    7        8     2  35    3.3245   474.7    3.662      32.786
2015    7        8     2  41    3.3237   474.5    3.664      32.766
2015    7        8     2  47    3.3229   474.2    3.667      32.745
2015    7        8     2  53    3.3221   474.0    3.669      32.725
2015    7        8     2  59    3.3213   473.8    3.671      32.704
2015    7        8     3   5    3.3205   473.5    3.673      32.683
2015    7        8     3  11    3.3197   473.3    3.676      32.661
2015    7        8     3  17    3.3190   473.1    3.678      32.639
2015    7        8     3  23    3.3182   472.8    3.680      32.617
2015    7        8     3  29    3.3174   472.6    3.682      32.595
2015    7        8     3  34    3.3166   472.3    3.684      32.572
2015    7        8     3  40    3.3159   472.1    3.686      32.549
2015    7        8     3  46    3.3151   471.9    3.688      32.525
2015    7        8     3  52    3.3144   471.6    3.690      32.501
2015    7        8     3  58    3.3136   471.4    3.692      32.477
2015    7        8     4   4    3.3129   471.2    3.694      32.452
2015    7        8     4  10    3.3121   470.9    3.695      32.427
2015    7        8     4  16    3.3114   470.7    3.697      32.402
2015    7        8     4  22    3.3107   470.5    3.699      32.376
2015    7        8     4  28    3.3100   470.2    3.701      32.350
2015    7        8     4  34    3.3093   470.0    3.702      32.323
2015    7        8     4  40    3.3086   469.7    3.704      32.297
2015    7        8     4  46    3.3079   469.5    3.705      32.269
2015    7        8     4  52    3.3072   469.3    3.707      32.242
2015    7        8     4  58    3.3066   469.0    3.709      32.214
2015    7        8     5   4    3.3059   468.8    3.710      32.186
2015    7        8     5  10    3.3052   468.6    3.712      32.158
2015    7        8     5  16    3.3046   468.3    3.713      32.130
2015    7        8     5  22    3.3040   468.1    3.715      32.101
2015    7        8     5  28    3.3034   467.8    3.717      32.072
2015    7        8     5  33    3.3027   467.6    3.718      32.043
2015    7        8     5  39    3.3021   467.4    3.720      32.014
2015    7        8     5  45    3.3016   467.1    3.721      31.985
2015    7        8     5  51    3.3010   466.9    3.723      31.956
2015    7        8     5  57    3.3004   466.6    3.725      31.926
2015    7        8     6   3    3.2999   466.4    3.726      31.897
2015    7        8     6   9    3.2994   466.2    3.728      31.867
2015    7        8     6  15    3.2989   465.9    3.730      31.838
2015    7        8     6  21    3.2984   465.7    3.732      31.809
2015    7        8     6  27    3.2979   465.4    3.733      31.780
2015    7        8     6  33    3.2975   465.2    3.735      31.751
2015    7        8     6  39    3.2971   465.0    3.737      31.722
2015    7        8     6  45    3.2967   464.7    3.740      31.694
2015    7        8     6  51    3.2963   464.5    3.742      31.666
2015    7        8     6  57    3.2959   464.2    3.744      31.638
2015    7        8     7   3    3.2956   464.0    3.746      31.610
2015    7        8     7   9    3.2953   463.7    3.749      31.584
2015    7        8     7  15    3.2950   463.5    3.751      31.557
2015    7        8     7  20    3.2947   463.3    3.754      31.531
2015    7        8     7  26    3.2945   463.0    3.757      31.506
2015    7        8     7  32    3.2943   462.8    3.760      31.481
2015    7        8     7  38    3.2941   462.5    3.763      31.457
2015    7        8     7  44    3.2939   462.3    3.766      31.433
2015    7        8     7  50    3.2938   462.1    3.769      31.411
2015    7        8     7  56    3.2937   461.8    3.773      31.389
2015    7        8     8   2    3.2936   461.6    3.776      31.367
2015    7        8     8   8    3.2936   461.4    3.780      31.347
2015    7        8     8  14    3.2936   461.1    3.784      31.327
2015    7        8     8  20    3.2936   460.9    3.788      31.308
2015    7        8     8  26    3.2936   460.6    3.792      31.290
2015    7        8     8  32    3.2937   460.4    3.796      31.272
2015    7        8     8  38    3.2938   460.2    3.801      31.256
2015    7        8     8  44    3.2939   460.0    3.805      31.239
2015    7        8     8  50    3.2940   459.7    3.810      31.224
2015    7        8     8  56    3.2942   459.5    3.814      31.209
2015    7        8     9   2    3.2944   459.3    3.819      31.195
2015    7        8     9   8    3.2946   459.0    3.824      31.182
2015    7        8     9  14    3.2948   458.8    3.829      31.169
2015    7        8     9  19    3.2951   458.6    3.834      31.157
2015    7        8     9  25    3.2953   458.3    3.839      31.145
2015    7        8     9  31    3.2956   458.1    3.844      31.134
2015    7        8     9  37    3.2959   457.9    3.850      31.123
2015    7        8     9  43    3.2962   457.7    3.855      31.113
2015    7        8     9  49    3.2966   457.4    3.860      31.104
2015    7        8     9  55    3.2969   457.2    3.866      31.095
2015    7        8    10   1    3.2973   457.0    3.871      31.086
2015    7        8    10   7    3.2977   456.8    3.877      31.077
2015    7        8    10  13    3.2982   456.5    3.882      31.069
2015    7        8    10  19    3.2986   456.3    3.888      31.061
2015    7        8    10  25    3.2991   456.1    3.893      31.053
2015    7        8    10  31    3.2995   455.9    3.899      31.045
2015    7        8    10  37    3.3000   455.7    3.904      31.037
2015    7        8    10  43    3.3005   455.4    3.910      31.029
2015    7        8    10  49    3.3010   455.2    3.915      31.022
2015    7        8    10  55    3.3015   455.0    3.921      31.014
2015    7        8    11   1    3.3020   454.8    3.926      31.007
2015    7        8    11   7    3.3025   454.6    3.932      30.999
2015    7        8    11  13    3.3030   454.4    3.937      30.991
2015    7        8    11  19    3.3035   454.2    3.943      30.983
2015    7        8    11  24    3.3040   453.9    3.948      30.975
2015    7        8    11  30    3.3044   453.7    3.953      30.966
2015    7        8    11  36    3.3049   453.5    3.958      30.957
2015    7        8    11  42    3.3054   453.3    3.963      30.948
2015    7        8    11  48    3.3058   453.1    3.968      30.939
2015    7        8    11  54    3.3063   452.9    3.973      30.930
2015    7        8    12   0    3.3067   452.7    3.978      30.919
2015    7        8    12   6    3.3071   452.5    3.983      30.909
2015    7        8    12  12    3.3076   452.3    3.988      30.898
2015    7        8    12  18    3.3080   452.1    3.992      30.887
2015    7        8    12  24    3.3084   451.9    3.997      30.875
2015    7        8    12  30    3.3088   451.7    4.001      30.863
2015    7        8    12  36    3.3092   451.5    4.006      30.851
2015    7        8    12  42    3.3096   451.3    4.010      30.838
2015    7        8    12  48    3.3100   451.1    4.014      30.825
2015    7        8    12  54    3.3103   450.9    4.019      30.812
2015    7        8    13   0    3.3107   450.7    4.023      30.798
2015    7        8    13   6    3.3110   450.5    4.027      30.784
2015    7        8    13  11    3.3114   450.3    4.031      30.770
2015    7        8    13  17    3.3117   450.1    4.035      30.756
2015    7        8    13  23    3.3120   449.9    4.039      30.741
2015    7        8    13  29    3.3124   449.7    4.043      30.726
2015    7        8    13  35    3.3127   449.5    4.047      30.710
2015    7        8    13  41    3.3130   449.3    4.051      30.695
2015    7        8    13  47    3.3133   449.1    4.055      30.679
2015    7        8    13  53    3.3136   448.9    4.058      30.663
2015    7        8    13  59    3.3139   448.7    4.062      30.646
2015    7        8    14   5    3.3142   448.5    4.066      30.630
2015    7        8    14  11    3.3145   448.3    4.069      30.613
2015    7        8    14  17    3.3148   448.1    4.073      30.596
2015    7        8    14  23    3.3151   447.9    4.077      30.578
2015    7        8    14  29    3.3154   447.7    4.080      30.561
2015    7        8    14  35    3.3156   447.5    4.084      30.543
2015    7        8    14  41    3.3159   447.3    4.087      30.525
2015    7        8    14  47    3.3162   447.1    4.091      30.507
2015    7        8    14  53    3.3165   446.9    4.094      30.489
2015    7        8    14  59    3.3167   446.7    4.098      30.471
2015    7        8    15   4    3.3170   446.5    4.101      30.452
2015    7        8    15  10    3.3173   446.3    4.105      30.434
2015    7        8    15  16    3.3176   446.1    4.108      30.415
2015    7        8    15  22    3.3179   445.9    4.112      30.397
2015    7        8    15  28    3.3182   445.7    4.115      30.378
2015    7        8    15  34    3.3185   445.5    4.119      30.360
2015    7        8    15  40    3.3188   445.3    4.122      30.341
2015    7        8    15  46    3.3191   445.1    4.126      30.323
2015    7        8    15  52    3.3194   444.9    4.130      30.305
2015    7        8    15  58    3.3198   444.7    4.134      30.287
2015    7        8    16   4    3.3202   444.5    4.137      30.269
2015    7        8    16  10    3.3205   444.3    4.141      30.252
2015    7        8    16  16    3.3209   444.1    4.145      30.235
2015    7        8    16  22    3.3214   443.9    4.149      30.218
2015    7        8    16  28    3.3218   443.7    4.153      30.202
2015    7        8    16  34    3.3223   443.4    4.158      30.186
2015    7        8    16  40    3.3228   443.2    4.162      30.170
2015    7        8    16  46    3.3233   443.0    4.166      30.155
2015    7        8    16  52    3.3239   442.8    4.171      30.140
2015    7        8    16  58    3.3244   442.6    4.175      30.126
2015    7        8    17   3    3.3250   442.4    4.180      30.112
2015    7        8    17   9    3.3257   442.2    4.185      30.098
2015    7        8    17  15    3.3263   442.0    4.190      30.086
2015    7        8    17  21    3.3270   441.9    4.194      30.073
2015    7        8    17  27    3.3277   441.7    4.199      30.061
2015    7        8    17  33    3.3285   441.5    4.205      30.050
2015    7        8    17  39    3.3292   441.3    4.210      30.039
2015    7        8    17  45    3.3300   441.1    4.215      30.028
2015    7        8    17  51    3.3308   440.9    4.220      30.018
2015    7        8    17  57    3.3317   440.7    4.226      30.009
2015    7        8    18   3    3.3325   440.5    4.231      29.999
2015    7        8    18   9    3.3334   440.3    4.236      29.991
2015    7        8    18  15    3.3342   440.1    4.242      29.982
2015    7        8    18  21    3.3351   439.9    4.247      29.974
2015    7        8    18  27    3.3360   439.7    4.253      29.967
2015    7        8    18  33    3.3370   439.5    4.259      29.959
2015    7        8    18  39    3.3379   439.3    4.264      29.952
2015    7        8    18  45    3.3388   439.1    4.270      29.945
2015    7        8    18  51    3.3398   439.0    4.275      29.939
2015    7        8    18  57    3.3407   438.8    4.281      29.933
2015    7        8    19   3    3.3417   438.6    4.287      29.927
2015    7        8    19   8    3.3427   438.4    4.292      29.921
2015    7        8    19  14    3.3437   438.2    4.298      29.915
2015    7        8    19  20    3.3447   438.0    4.303      29.909
2015    7        8    19  26    3.3457   437.8    4.309      29.903
2015    7        8    19  32    3.3467   437.6    4.314      29.898
2015    7        8    19  38    3.3476   437.5    4.320      29.892
2015    7        8    19  44    3.3487   437.3    4.325      29.887
2015    7        8    19  50    3.3497   437.1    4.331      29.881
2015    7        8    19  56    3.3506   436.9    4.336      29.876
2015    7        8    20   2    3.3516   436.7    4.342      29.870
2015    7        8    20   8    3.3526   436.5    4.347      29.864
2015    7        8    20  14    3.3536   436.4    4.352      29.858
2015    7        8    20  20    3.3546   436.2    4.358      29.852
2015    7        8    20  26    3.3556   436.0    4.363      29.846
2015    7        8    20  32    3.3565   435.8    4.368      29.840
2015    7        8    20  38    3.3575   435.6    4.373      29.834
2015    7        8    20  44    3.3584   435.5    4.379      29.827
2015    7        8    20  50    3.3593   435.3    4.384      29.820
2015    7        8    20  55    3.3603   435.1    4.389      29.813
2015    7        8    21   1    3.3612   434.9    4.394      29.805
2015    7        8    21   7    3.3621   434.7    4.399      29.797
2015    7        8    21  13    3.3630   434.6    4.403      29.790
2015    7        8    21  19    3.3638   434.4    4.408      29.782
2015    7        8    21  25    3.3647   434.2    4.413      29.773
2015    7        8    21  31    3.3656   434.0    4.418      29.765
2015    7        8    21  37    3.3664   433.9    4.423      29.756
2015    7        8    21  43    3.3673   433.7    4.427      29.747
2015    7        8    21  49    3.3681   433.5    4.432      29.738
2015    7        8    21  55    3.3689   433.4    4.436      29.728
2015    7        8    22   1    3.3697   433.2    4.441      29.718
2015    7        8    22   7    3.3705   433.0    4.445      29.709
2015    7        8    22  13    3.3713   432.8    4.450      29.699
2015    7        8    22  19    3.3721   432.7    4.454      29.688
2015    7        8    22  25    3.3729   432.5    4.459      29.678
2015    7        8    22  31    3.3736   432.3    4.463      29.668
2015    7        8    22  37    3.3744   432.2    4.467      29.657
2015    7        8    22  43    3.3751   432.0    4.472      29.646
2015    7        8    22  48    3.3759   431.8    4.476      29.635
2015    7        8    22  54    3.3766   431.7    4.480      29.624
2015    7        8    23   0    3.3773   431.5    4.484      29.613
2015    7        8    23   6    3.3780   431.3    4.488      29.602
2015    7        8    23  12    3.3787   431.2    4.492      29.591
2015    7        8    23  18    3.3794   431.0    4.497      29.579
2015    7        8    23  24    3.3801   430.8    4.501      29.568
2015    7        8    23  30    3.3808   430.7    4.505      29.557
2015    7        8    23  36    3.3815   430.5    4.509      29.545
2015    7        8    23  42    3.3821   430.3    4.513      29.534
2015    7        8    23  48    3.3828   430.2    4.517      29.523
2015    7        8    23  54    3.3835   430.0    4.521      29.511
2015    7        9     0   0    3.3841   429.8    4.525      29.500
2015    7        9     0   6    3.3848   429.6    4.530      29.489
2015    7        9     0  12    3.3854   429.5    4.534      29.478
2015    7        9     0  18    3.3861   429.3    4.538      29.467
2015    7        9     0  24    3.3867   429.1    4.542      29.457
2015    7        9     0  30    3.3874   429.0    4.546      29.446
2015    7        9     0  36    3.3880   428.8    4.551      29.436
2015    7        9     0  42    3.3887   428.6    4.555      29.426
2015    7        9     0  47    3.3893   428.5    4.559      29.416
2015    7        9     0  53    3.3900   428.3    4.564      29.406
2015    7        9     0  59    3.3906   428.1    4.568      29.397
2015    7        9     1   5    3.3913   428.0    4.573      29.388
2015    7        9     1  11    3.3919   427.8    4.577      29.379
2015    7        9     1  17    3.3926   427.6    4.581      29.370
2015    7        9     1  23    3.3933   427.4    4.586      29.362
2015    7        9     1  29    3.3939   427.3    4.591      29.354
2015    7        9     1  35    3.3946   427.1    4.595      29.346
2015    7        9     1  41    3.3953   426.9    4.600      29.339
2015    7        9     1  47    3.3960   426.8    4.604      29.331
2015    7        9     1  53    3.3967   426.6    4.609      29.324
2015    7        9     1  59    3.3974   426.4    4.614      29.318
2015    7        9     2   5    3.3981   426.3    4.618      29.311
2015    7        9     2  11    3.3988   426.1    4.623      29.305
2015    7        9     2  17    3.3994   425.9    4.627      29.298
2015    7        9     2  23    3.4001   425.8    4.632      29.292
2015    7        9     2  29    3.4008   425.6    4.637      29.286
2015    7        9     2  35    3.4015   425.4    4.641      29.281
2015    7        9     2  41    3.4022   425.3    4.646      29.275
2015    7        9     2  46    3.4029   425.1    4.650      29.270
2015    7        9     2  52    3.4036   424.9    4.655      29.264
2015    7        9     2  58    3.4043   424.7    4.660      29.259
2015    7        9     3   4    3.4049   424.6    4.664      29.253
2015    7        9     3  10    3.4056   424.4    4.668      29.248
2015    7        9     3  16    3.4063   424.2    4.673      29.243
2015    7        9     3  22    3.4070   424.1    4.677      29.238
2015    7        9     3  28    3.4076   423.9    4.682      29.233
2015    7        9     3  34    3.4083   423.7    4.686      29.227
2015    7        9     3  40    3.4089   423.6    4.690      29.222
2015    7        9     3  46    3.4095   423.4    4.694      29.217
2015    7        9     3  52    3.4102   423.2    4.699      29.212
2015    7        9     3  58    3.4108   423.1    4.703      29.206
2015    7        9     4   4    3.4114   422.9    4.707      29.201
2015    7        9     4  10    3.4120   422.7    4.711      29.195
2015    7        9     4  16    3.4126   422.6    4.715      29.190
2015    7        9     4  22    3.4132   422.4    4.719      29.184
2015    7        9     4  28    3.4137   422.2    4.723      29.178
2015    7        9     4  33    3.4143   422.1    4.727      29.172
2015    7        9     4  39    3.4148   421.9    4.731      29.166
2015    7        9     4  45    3.4154   421.7    4.734      29.160
2015    7        9     4  51    3.4159   421.6    4.738      29.153
2015    7        9     4  57    3.4164   421.4    4.742      29.146
2015    7        9     5   3    3.4169   421.2    4.746      29.140
2015    7        9     5   9    3.4174   421.1    4.749      29.132
2015    7        9     5  15    3.4179   420.9    4.753      29.125
2015    7        9     5  21    3.4184   420.8    4.756      29.118
2015    7        9     5  27    3.4188   420.6    4.760      29.110
2015    7        9     5  33    3.4193   420.4    4.763      29.102
2015    7        9     5  39    3.4197   420.3    4.767      29.094
2015    7        9     5  45    3.4202   420.1    4.770      29.086
2015    7        9     5  51    3.4206   419.9    4.774      29.077
2015    7        9     5  57    3.4210   419.8    4.777      29.069
2015    7        9     6   3    3.4214   419.6    4.780      29.060
2015    7        9     6   9    3.4218   419.5    4.784      29.051
2015    7        9     6  15    3.4221   419.3    4.787      29.042
2015    7        9     6  21    3.4225   419.2    4.790      29.032
2015    7        9     6  26    3.4229   419.0    4.793      29.023
2015    7        9     6  32    3.4232   418.8    4.797      29.013
2015    7        9     6  38    3.4236   418.7    4.800      29.004
2015    7        9     6  44    3.4239   418.5    4.803      28.994
2015    7        9     6  50    3.4242   418.4    4.806      28.984
2015    7        9     6  56    3.4245   418.2    4.809      28.974
2015    7        9     7   2    3.4248   418.1    4.812      28.963
2015    7        9     7   8    3.4251   417.9    4.815      28.953
2015    7        9     7  14    3.4254   417.7    4.818      28.943
2015    7        9     7  20    3.4257   417.6    4.821      28.932
2015    7        9     7  26    3.4260   417.4    4.824      28.921
2015    7        9     7  32    3.4263   417.3    4.827      28.911
2015    7        9     7  38    3.4266   417.1    4.830      28.900
2015    7        9     7  44    3.4268   417.0    4.833      28.889
2015    7        9     7  50    3.4271   416.8    4.836      28.878
2015    7        9     7  56    3.4273   416.7    4.839      28.867
2015    7        9     8   2    3.4276   416.5    4.842      28.856
2015    7        9     8   8    3.4278   416.3    4.845      28.845
2015    7        9     8  14    3.4280   416.2    4.848      28.834
2015    7        9     8  20    3.4283   416.0    4.851      28.823
2015    7        9     8  26    3.4285   415.9    4.854      28.812
2015    7        9     8  31    3.4287   415.7    4.857      28.801
2015    7        9     8  37    3.4290   415.6    4.860      28.790
2015    7        9     8  43    3.4292   415.4    4.863      28.778
2015    7        9     8  49    3.4294   415.2    4.866      28.767
2015    7        9     8  55    3.4297   415.1    4.869      28.756
2015    7        9     9   1    3.4299   414.9    4.872      28.745
2015    7        9     9   7    3.4301   414.8    4.875      28.734
2015    7        9     9  13    3.4303   414.6    4.878      28.724
2015    7        9     9  19    3.4306   414.5    4.881      28.713
2015    7        9     9  25    3.4308   414.3    4.884      28.702
2015    7        9     9  31    3.4310   414.1    4.887      28.691
2015    7        9     9  37    3.4313   414.0    4.891      28.681
2015    7        9     9  43    3.4315   413.8    4.894      28.671
2015    7        9     9  49    3.4317   413.7    4.897      28.660
2015    7        9     9  55    3.4320   413.5    4.901      28.650
2015    7        9    10   1    3.4322   413.3    4.904      28.640
2015    7        9    10   7    3.4325   413.2    4.907      28.630
2015    7        9    10  13    3.4328   413.0    4.911      28.620
2015    7        9    10  18    3.4331   412.9    4.914      28.610
2015    7        9    10  24    3.4333   412.7    4.918      28.601
2015    7        9    10  30    3.4336   412.6    4.921      28.591
2015    7        9    10  36    3.4339   412.4    4.925      28.582
2015    7        9    10  42    3.4342   412.2    4.928      28.573
2015    7        9    10  48    3.4345   412.1    4.932      28.564
2015    7        9    10  54    3.4348   411.9    4.936      28.555
2015    7        9    11   0    3.4352   411.8    4.940      28.546
2015    7        9    11   6    3.4355   411.6    4.943      28.538
2015    7        9    11  12    3.4358   411.5    4.947      28.529
2015    7        9    11  18    3.4362   411.3    4.951      28.521
2015    7        9    11  24    3.4365   411.1    4.955      28.512
2015    7        9    11  30    3.4369   411.0    4.959      28.504
2015    7        9    11  36    3.4372   410.8    4.963      28.496
2015    7        9    11  42    3.4376   410.7    4.967      28.488
2015    7        9    11  48    3.4379   410.5    4.971      28.480
2015    7        9    11  54    3.4383   410.4    4.975      28.472
2015    7        9    12   0    3.4386   410.2    4.979      28.464
2015    7        9    12   5    3.4390   410.0    4.983      28.456
2015    7        9    12  11    3.4393   409.9    4.987      28.448
2015    7        9    12  17    3.4397   409.7    4.991      28.441
2015    7        9    12  23    3.4400   409.6    4.995      28.433
2015    7        9    12  29    3.4404   409.4    4.999      28.425
2015    7        9    12  35    3.4407   409.3    5.003      28.418
2015    7        9    12  41    3.4410   409.1    5.007      28.410
2015    7        9    12  47    3.4414   409.0    5.011      28.402
2015    7        9    12  53    3.4417   408.8    5.015      28.395
2015    7        9    12  59    3.4420   408.7    5.020      28.387
2015    7        9    13   5    3.4423   408.5    5.024      28.379
2015    7        9    13  11    3.4426   408.4    5.028      28.371
2015    7        9    13  17    3.4429   408.2    5.032      28.364
2015    7        9    13  23    3.4432   408.0    5.036      28.356
2015    7        9    13  29    3.4435   407.9    5.040      28.348
2015    7        9    13  35    3.4438   407.7    5.044      28.340
2015    7        9    13  41    3.4440   407.6    5.048      28.332
2015    7        9    13  47    3.4443   407.4    5.052      28.324
2015    7        9    13  53    3.4446   407.3    5.056      28.317
2015    7        9    13  58    3.4448   407.1    5.060      28.308
2015    7        9    14   4    3.4451   407.0    5.064      28.300
2015    7        9    14  10    3.4454   406.8    5.068      28.292
2015    7        9    14  16    3.4456   406.7    5.072      28.284
2015    7        9    14  22    3.4459   406.5    5.076      28.276
2015    7        9    14  28    3.4461   406.4    5.080      28.268
2015    7        9    14  34    3.4464   406.2    5.084      28.260
2015    7        9    14  40    3.4466   406.1    5.087      28.251
2015    7        9    14  46    3.4468   405.9    5.091      28.243
2015    7        9    14  52    3.4471   405.8    5.095      28.235
2015    7        9    14  58    3.4473   405.6    5.099      28.226
2015    7        9    15   4    3.4475   405.5    5.103      28.218
2015    7        9    15  10    3.4478   405.3    5.106      28.209
2015    7        9    15  16    3.4480   405.1    5.110      28.201
2015    7        9    15  22    3.4482   405.0    5.114      28.192
2015    7        9    15  28    3.4484   404.8    5.118      28.183
2015    7        9    15  34    3.4487   404.7    5.121      28.174
2015    7        9    15  40    3.4489   404.5    5.125      28.166
2015    7        9    15  46    3.4491   404.4    5.128      28.157
2015    7        9    15  52    3.4493   404.2    5.132      28.148
2015    7        9    15  58    3.4495   404.1    5.136      28.139
2015    7        9    16   3    3.4497   403.9    5.139      28.130
2015    7        9    16   9    3.4500   403.8    5.143      28.121
2015    7        9    16  15    3.4502   403.6    5.146      28.112
2015    7        9    16  21    3.4504   403.5    5.150      28.103
2015    7        9    16  27    3.4506   403.3    5.153      28.094
2015    7        9    16  33    3.4508   403.2    5.156      28.085
2015    7        9    16  39    3.4510   403.0    5.160      28.075
2015    7        9    16  45    3.4512   402.9    5.163      28.066
2015    7        9    16  51    3.4514   402.7    5.167      28.057
2015    7        9    16  57    3.4516   402.6    5.170      28.047
2015    7        9    17   3    3.4518   402.4    5.173      28.038
2015    7        9    17   9    3.4521   402.3    5.177      28.029
2015    7        9    17  15    3.4523   402.1    5.180      28.019
2015    7        9    17  21    3.4525   402.0    5.183      28.010
2015    7        9    17  27    3.4527   401.8    5.187      28.000
2015    7        9    17  33    3.4529   401.7    5.190      27.991
2015    7        9    17  39    3.4531   401.5    5.193      27.982
2015    7        9    17  45    3.4533   401.4    5.197      27.972
2015    7        9    17  50    3.4536   401.2    5.200      27.963
2015    7        9    17  56    3.4538   401.0    5.203      27.953
2015    7        9    18   2    3.4540   400.9    5.207      27.944
2015    7        9    18   8    3.4543   400.7    5.210      27.934
2015    7        9    18  14    3.4545   400.6    5.214      27.925
2015    7        9    18  20    3.4547   400.4    5.217      27.916
2015    7        9    18  26    3.4550   400.3    5.220      27.907
2015    7        9    18  32    3.4552   400.1    5.224      27.897
2015    7        9    18  38    3.4555   400.0    5.227      27.888
2015    7        9    18  44    3.4558   399.8    5.231      27.879
2015    7        9    18  50    3.4560   399.7    5.234      27.870
2015    7        9    18  56    3.4563   399.5    5.238      27.861
2015    7        9    19   2    3.4566   399.4    5.241      27.852
2015    7        9    19   8    3.4569   399.2    5.245      27.843
2015    7        9    19  14    3.4571   399.1    5.249      27.834
2015    7        9    19  20    3.4574   398.9    5.252      27.825
2015    7        9    19  26    3.4577   398.8    5.256      27.816
2015    7        9    19  32    3.4580   398.6    5.260      27.807
2015    7        9    19  37    3.4583   398.5    5.264      27.799
2015    7        9    19  43    3.4587   398.3    5.267      27.790
2015    7        9    19  49    3.4590   398.2    5.271      27.781
2015    7        9    19  55    3.4593   398.0    5.275      27.773
2015    7        9    20   1    3.4596   397.9    5.279      27.764
2015    7        9    20   7    3.4599   397.7    5.283      27.756
2015    7        9    20  13    3.4603   397.6    5.287      27.747
2015    7        9    20  19    3.4606   397.4    5.291      27.739
2015    7        9    20  25    3.4609   397.3    5.295      27.730
2015    7        9    20  31    3.4613   397.1    5.299      27.722
2015    7        9    20  37    3.4616   397.0    5.303      27.714
2015    7        9    20  43    3.4620   396.8    5.307      27.705
2015    7        9    20  49    3.4623   396.7    5.311      27.697
2015    7        9    20  55    3.4627   396.5    5.315      27.689
2015    7        9    21   1    3.4631   396.4    5.319      27.680
2015    7        9    21   7    3.4634   396.2    5.323      27.672
2015    7        9    21  13    3.4638   396.1    5.327      27.664
2015    7        9    21  19    3.4642   395.9    5.332      27.656
2015    7        9    21  25    3.4645   395.8    5.336      27.648
2015    7        9    21  30    3.4649   395.6    5.340      27.640
2015    7        9    21  36    3.4653   395.5    5.344      27.632
2015    7        9    21  42    3.4657   395.3    5.348      27.623
2015    7        9    21  48    3.4661   395.2    5.353      27.616
2015    7        9    21  54    3.4664   395.0    5.357      27.607
2015    7        9    22   0    3.4668   394.9    5.361      27.599
2015    7        9    22   6    3.4672   394.7    5.365      27.591
2015    7        9    22  12    3.4676   394.6    5.370      27.583
2015    7        9    22  18    3.4680   394.4    5.374      27.575
2015    7        9    22  24    3.4684   394.3    5.378      27.567
2015    7        9    22  30    3.4689   394.1    5.382      27.559
2015    7        9    22  36    3.4693   394.0    5.387      27.551
2015    7        9    22  42    3.4697   393.8    5.391      27.543
2015    7        9    22  48    3.4701   393.7    5.395      27.535
2015    7        9    22  54    3.4705   393.5    5.399      27.527
2015    7        9    23   0    3.4710   393.4    5.404      27.519
2015    7        9    23   6    3.4714   393.2    5.408      27.511
2015    7        9    23  12    3.4718   393.1    5.412      27.503
2015    7        9    23  18    3.4723   392.9    5.416      27.495
2015    7        9    23  24    3.4727   392.8    5.421      27.487
2015    7        9    23  30    3.4732   392.6    5.425      27.480
2015    7        9    23  35    3.4736   392.5    5.429      27.471
2015    7        9    23  41    3.4741   392.3    5.433      27.463
2015    7        9    23  47    3.4746   392.2    5.437      27.456
2015    7        9    23  53    3.4750   392.0    5.441      27.448
2015    7        9    23  59    3.4755   391.9    5.446      27.440
2015    7       10     0   5    3.4760   391.7    5.450      27.432
2015    7       10     0  11    3.4765   391.6    5.454      27.424
2015    7       10     0  17    3.4770   391.4    5.458      27.416
2015    7       10     0  23    3.4775   391.3    5.462      27.408
2015    7       10     0  29    3.4780   391.1    5.466      27.400
2015    7       10     0  35    3.4785   391.0    5.470      27.392
2015    7       10     0  41    3.4790   390.8    5.474      27.384
2015    7       10     0  47    3.4795   390.7    5.478      27.376
2015    7       10     0  53    3.4800   390.5    5.482      27.368
2015    7       10     0  59    3.4806   390.4    5.486      27.360
2015    7       10     1   5    3.4811   390.2    5.491      27.352
2015    7       10     1  11    3.4816   390.1    5.495      27.344
2015    7       10     1  17    3.4822   389.9    5.499      27.335
2015    7       10     1  22    3.4827   389.8    5.503      27.327
2015    7       10     1  28    3.4833   389.6    5.507      27.319
2015    7       10     1  34    3.4838   389.5    5.511      27.311
2015    7       10     1  40    3.4844   389.3    5.514      27.303
2015    7       10     1  46    3.4850   389.2    5.518      27.295
2015    7       10     1  52    3.4855   389.0    5.522      27.287
2015    7       10     1  58    3.4861   388.9    5.526      27.278
2015    7       10     2   4    3.4867   388.7    5.530      27.270
2015    7       10     2  10    3.4873   388.6    5.534      27.262
2015    7       10     2  16    3.4879   388.5    5.538      27.253
2015    7       10     2  22    3.4885   388.3    5.542      27.245
2015    7       10     2  28    3.4891   388.2    5.546      27.236
2015    7       10     2  34    3.4897   388.0    5.550      27.228
2015    7       10     2  40    3.4903   387.9    5.554      27.220
2015    7       10     2  46    3.4910   387.7    5.558      27.211
2015    7       10     2  52    3.4916   387.6    5.562      27.203
2015    7       10     2  58    3.4922   387.4    5.566      27.194
2015    7       10     3   4    3.4929   387.3    5.570      27.186
2015    7       10     3   9    3.4935   387.1    5.574      27.177
2015    7       10     3  15    3.4942   387.0    5.578      27.168
2015    7       10     3  21    3.4949   386.8    5.582      27.160
2015    7       10     3  27    3.4956   386.7    5.586      27.151
2015    7       10     3  33    3.4963   386.5    5.590      27.143
2015    7       10     3  39    3.4970   386.4    5.594      27.134
2015    7       10     3  45    3.4977   386.2    5.598      27.125
2015    7       10     3  51    3.4985   386.1    5.602      27.117
2015    7       10     3  57    3.4992   385.9    5.606      27.108
2015    7       10     4   3    3.5000   385.8    5.611      27.099
2015    7       10     4   9    3.5008   385.6    5.615      27.091
2015    7       10     4  15    3.5015   385.5    5.619      27.082
2015    7       10     4  21    3.5023   385.3    5.623      27.074
2015    7       10     4  27    3.5031   385.2    5.627      27.065
2015    7       10     4  33    3.5040   385.0    5.632      27.056
2015    7       10     4  39    3.5048   384.9    5.636      27.048
2015    7       10     4  45    3.5057   384.7    5.640      27.039
2015    7       10     4  51    3.5065   384.6    5.645      27.031
2015    7       10     4  57    3.5074   384.5    5.649      27.022
2015    7       10     5   2    3.5083   384.3    5.654      27.014
2015    7       10     5   8    3.5092   384.2    5.658      27.005
2015    7       10     5  14    3.5101   384.0    5.663      26.997
2015    7       10     5  20    3.5110   383.9    5.667      26.988
2015    7       10     5  26    3.5120   383.7    5.672      26.980
2015    7       10     5  32    3.5129   383.6    5.676      26.971
2015    7       10     5  38    3.5139   383.4    5.681      26.963
2015    7       10     5  44    3.5149   383.3    5.686      26.954
2015    7       10     5  50    3.5158   383.1    5.690      26.946
2015    7       10     5  56    3.5168   383.0    5.695      26.937
2015    7       10     6   2    3.5179   382.8    5.700      26.929
2015    7       10     6   8    3.5189   382.7    5.704      26.921
2015    7       10     6  14    3.5199   382.5    5.709      26.912
2015    7       10     6  20    3.5210   382.4    5.714      26.904
2015    7       10     6  26    3.5220   382.2    5.719      26.895
2015    7       10     6  32    3.5231   382.1    5.724      26.887
2015    7       10     6  38    3.5241   382.0    5.728      26.878
2015    7       10     6  44    3.5252   381.8    5.733      26.870
2015    7       10     6  50    3.5263   381.7    5.738      26.861
2015    7       10     6  56    3.5274   381.5    5.743      26.853
2015    7       10     7   2    3.5285   381.4    5.748      26.844
2015    7       10     7   7    3.5296   381.2    5.753      26.836
2015    7       10     7  13    3.5307   381.1    5.758      26.827
2015    7       10     7  19    3.5318   380.9    5.762      26.818
2015    7       10     7  25    3.5330   380.8    5.767      26.810
2015    7       10     7  31    3.5341   380.6    5.772      26.801
2015    7       10     7  37    3.5353   380.5    5.777      26.792
2015    7       10     7  43    3.5364   380.3    5.782      26.784
2015    7       10     7  49    3.5376   380.2    5.787      26.775
2015    7       10     7  55    3.5388   380.0    5.792      26.766
2015    7       10     8   1    3.5400   379.9    5.797      26.758
2015    7       10     8   7    3.5411   379.7    5.801      26.749
2015    7       10     8  13    3.5423   379.6    5.806      26.740
2015    7       10     8  19    3.5435   379.4    5.811      26.731
2015    7       10     8  25    3.5448   379.3    5.816      26.723
2015    7       10     8  31    3.5460   379.1    5.821      26.714
2015    7       10     8  37    3.5472   379.0    5.826      26.705
2015    7       10     8  43    3.5485   378.9    5.831      26.696
2015    7       10     8  49    3.5497   378.7    5.836      26.688
2015    7       10     8  54    3.5510   378.6    5.841      26.679
2015    7       10     9   0    3.5523   378.4    5.845      26.670
2015    7       10     9   6    3.5535   378.3    5.850      26.661
2015    7       10     9  12    3.5549   378.1    5.855      26.653
2015    7       10     9  18    3.5562   378.0    5.860      26.644
2015    7       10     9  24    3.5575   377.8    5.865      26.636
2015    7       10     9  30    3.5589   377.7    5.870      26.627
2015    7       10     9  36    3.5602   377.5    5.875      26.618
2015    7       10     9  42    3.5616   377.4    5.880      26.610
2015    7       10     9  48    3.5630   377.2    5.885      26.602
2015    7       10     9  54    3.5644   377.1    5.890      26.593
2015    7       10    10   0    3.5658   376.9    5.895      26.585
2015    7       10    10   6    3.5673   376.8    5.900      26.577
2015    7       10    10  12    3.5688   376.6    5.905      26.568
2015    7       10    10  18    3.5702   376.5    5.910      26.560
2015    7       10    10  24    3.5718   376.3    5.915      26.552
2015    7       10    10  30    3.5733   376.2    5.921      26.544
2015    7       10    10  36    3.5748   376.0    5.926      26.537
2015    7       10    10  41    3.5764   375.9    5.931      26.529
2015    7       10    10  47    3.5780   375.7    5.936      26.521
2015    7       10    10  53    3.5796   375.6    5.942      26.514
2015    7       10    10  59    3.5813   375.4    5.947      26.507
2015    7       10    11   5    3.5830   375.3    5.953      26.499
2015    7       10    11  11    3.5847   375.1    5.958      26.492
2015    7       10    11  17    3.5864   375.0    5.964      26.485
2015    7       10    11  23    3.5881   374.8    5.969      26.478
2015    7       10    11  29    3.5899   374.7    5.975      26.472
2015    7       10    11  35    3.5917   374.5    5.981      26.465
2015    7       10    11  41    3.5935   374.4    5.987      26.459
2015    7       10    11  47    3.5954   374.3    5.992      26.452
2015    7       10    11  53    3.5973   374.1    5.998      26.446
2015    7       10    11  59    3.5992   374.0    6.004      26.440
2015    7       10    12   5    3.6011   373.8    6.010      26.434
2015    7       10    12  11    3.6031   373.7    6.017      26.428
2015    7       10    12  17    3.6051   373.5    6.023      26.423
2015    7       10    12  23    3.6071   373.4    6.029      26.417
2015    7       10    12  29    3.6092   373.2    6.035      26.412
2015    7       10    12  35    3.6113   373.1    6.042      26.407
2015    7       10    12  40    3.6134   372.9    6.048      26.402
2015    7       10    12  46    3.6155   372.8    6.055      26.397
2015    7       10    12  52    3.6176   372.7    6.061      26.392
2015    7       10    12  58    3.6198   372.5    6.068      26.387
2015    7       10    13   4    3.6220   372.4    6.075      26.383
2015    7       10    13  10    3.6243   372.2    6.082      26.378
2015    7       10    13  16    3.6265   372.1    6.089      26.374
2015    7       10    13  22    3.6288   371.9    6.096      26.370
2015    7       10    13  28    3.6311   371.8    6.103      26.366
2015    7       10    13  34    3.6335   371.6    6.110      26.362
2015    7       10    13  40    3.6358   371.5    6.117      26.358
2015    7       10    13  46    3.6382   371.4    6.124      26.355
2015    7       10    13  52    3.6406   371.2    6.132      26.351
2015    7       10    13  58    3.6431   371.1    6.139      26.348
2015    7       10    14   4    3.6455   370.9    6.147      26.344
2015    7       10    14  10    3.6480   370.8    6.154      26.341
2015    7       10    14  16    3.6505   370.6    6.162      26.338
2015    7       10    14  22    3.6530   370.5    6.169      26.335
2015    7       10    14  28    3.6556   370.4    6.177      26.332
2015    7       10    14  34    3.6581   370.2    6.185      26.329
2015    7       10    14  39    3.6607   370.1    6.193      26.326
2015    7       10    14  45    3.6633   369.9    6.201      26.324
2015    7       10    14  51    3.6660   369.8    6.209      26.321
2015    7       10    14  57    3.6686   369.7    6.217      26.318
2015    7       10    15   3    3.6713   369.5    6.225      26.316
2015    7       10    15   9    3.6740   369.4    6.233      26.314
2015    7       10    15  15    3.6767   369.2    6.241      26.311
2015    7       10    15  21    3.6794   369.1    6.250      26.309
2015    7       10    15  27    3.6822   368.9    6.258      26.307
2015    7       10    15  33    3.6849   368.8    6.266      26.305
2015    7       10    15  39    3.6877   368.7    6.275      26.302
2015    7       10    15  45    3.6905   368.5    6.283      26.300
2015    7       10    15  51    3.6934   368.4    6.292      26.298
2015    7       10    15  57    3.6962   368.2    6.300      26.297
2015    7       10    16   3    3.6991   368.1    6.309      26.295
2015    7       10    16   9    3.7020   368.0    6.318      26.293
2015    7       10    16  15    3.7049   367.8    6.326      26.291
2015    7       10    16  21    3.7079   367.7    6.335      26.289
2015    7       10    16  26    3.7109   367.5    6.344      26.288
2015    7       10    16  32    3.7139   367.4    6.353      26.286
2015    7       10    16  38    3.7169   367.2    6.362      26.285
2015    7       10    16  44    3.7199   367.1    6.371      26.283
2015    7       10    16  50    3.7230   367.0    6.380      26.282
2015    7       10    16  56    3.7261   366.8    6.389      26.280
2015    7       10    17   2    3.7292   366.7    6.398      26.279
2015    7       10    17   8    3.7324   366.5    6.407      26.278
2015    7       10    17  14    3.7355   366.4    6.416      26.276
2015    7       10    17  20    3.7388   366.3    6.425      26.275
2015    7       10    17  26    3.7420   366.1    6.435      26.274
2015    7       10    17  32    3.7453   366.0    6.444      26.273
2015    7       10    17  38    3.7486   365.8    6.453      26.273
2015    7       10    17  44    3.7519   365.7    6.463      26.272
2015    7       10    17  50    3.7553   365.5    6.472      26.271
2015    7       10    17  56    3.7588   365.4    6.481      26.271
2015    7       10    18   2    3.7622   365.3    6.491      26.270
2015    7       10    18   8    3.7657   365.1    6.501      26.270
2015    7       10    18  13    3.7692   365.0    6.510      26.270
2015    7       10    18  19    3.7728   364.8    6.520      26.270
2015    7       10    18  25    3.7764   364.7    6.530      26.270
2015    7       10    18  31    3.7801   364.5    6.539      26.270
2015    7       10    18  37    3.7837   364.4    6.549      26.270
2015    7       10    18  43    3.7875   364.3    6.559      26.271
2015    7       10    18  49    3.7913   364.1    6.569      26.271
2015    7       10    18  55    3.7951   364.0    6.579      26.272
2015    7       10    19   1    3.7990   363.8    6.589      26.273
2015    7       10    19   7    3.8029   363.7    6.599      26.274
2015    7       10    19  13    3.8069   363.6    6.609      26.275
2015    7       10    19  19    3.8109   363.4    6.620      26.277
2015    7       10    19  25    3.8150   363.3    6.630      26.278
2015    7       10    19  31    3.8191   363.1    6.641      26.280
2015    7       10    19  37    3.8233   363.0    6.651      26.282
2015    7       10    19  43    3.8276   362.9    6.662      26.285
2015    7       10    19  49    3.8318   362.7    6.673      26.287
2015    7       10    19  55    3.8362   362.6    6.683      26.290
2015    7       10    20   1    3.8406   362.4    6.694      26.292
2015    7       10    20   7    3.8451   362.3    6.705      26.296
2015    7       10    20  12    3.8496   362.2    6.716      26.299
2015    7       10    20  18    3.8542   362.0    6.728      26.302
2015    7       10    20  24    3.8588   361.9    6.739      26.306
2015    7       10    20  30    3.8636   361.7    6.750      26.310
2015    7       10    20  36    3.8683   361.6    6.762      26.314
2015    7       10    20  42    3.8732   361.5    6.773      26.319
2015    7       10    20  48    3.8780   361.3    6.785      26.323
2015    7       10    20  54    3.8830   361.2    6.797      26.328
2015    7       10    21   0    3.8880   361.1    6.809      26.333
2015    7       10    21   6    3.8931   360.9    6.821      26.338
2015    7       10    21  12    3.8982   360.8    6.833      26.344
2015    7       10    21  18    3.9034   360.6    6.846      26.350
2015    7       10    21  24    3.9087   360.5    6.858      26.355
2015    7       10    21  30    3.9140   360.4    6.871      26.362
2015    7       10    21  36    3.9194   360.2    6.884      26.368
2015    7       10    21  42    3.9249   360.1    6.897      26.375
2015    7       10    21  48    3.9303   360.0    6.910      26.382
2015    7       10    21  54    3.9359   359.8    6.923      26.389
2015    7       10    22   0    3.9415   359.7    6.936      26.396
2015    7       10    22   6    3.9472   359.6    6.949      26.404
2015    7       10    22  11    3.9529   359.4    6.963      26.412
2015    7       10    22  17    3.9587   359.3    6.977      26.420
2015    7       10    22  23    3.9646   359.2    6.991      26.428
2015    7       10    22  29    3.9705   359.0    7.005      26.437
2015    7       10    22  35    3.9764   358.9    7.019      26.446
2015    7       10    22  41    3.9825   358.8    7.034      26.456
2015    7       10    22  47    3.9885   358.7    7.048      26.466
2015    7       10    22  53    3.9946   358.5    7.063      26.476
2015    7       10    22  59    4.0008   358.4    7.078      26.486
2015    7       10    23   5    4.0070   358.3    7.093      26.497
2015    7       10    23  11    4.0133   358.1    7.108      26.508
2015    7       10    23  17    4.0197   358.0    7.124      26.520
2015    7       10    23  23    4.0260   357.9    7.139      26.532
2015    7       10    23  29    4.0325   357.7    7.155      26.544
2015    7       10    23  35    4.0390   357.6    7.171      26.557
2015    7       10    23  41    4.0455   357.5    7.188      26.570
2015    7       10    23  47    4.0521   357.4    7.204      26.583
2015    7       10    23  53    4.0588   357.2    7.221      26.597
2015    7       10    23  58    4.0654   357.1    7.238      26.611
2015    7       11     0   4    4.0722   357.0    7.255      26.626
2015    7       11     0  10    4.0790   356.9    7.272      26.641
2015    7       11     0  16    4.0859   356.7    7.290      26.657
2015    7       11     0  22    4.0928   356.6    7.307      26.673
2015    7       11     0  28    4.0998   356.5    7.325      26.689
2015    7       11     0  34    4.1068   356.4    7.343      26.706
2015    7       11     0  40    4.1139   356.2    7.362      26.724
2015    7       11     0  46    4.1210   356.1    7.380      26.742
2015    7       11     0  52    4.1282   356.0    7.399      26.760
2015    7       11     0  58    4.1355   355.9    7.418      26.779
2015    7       11     1   4    4.1428   355.8    7.437      26.799
2015    7       11     1  10    4.1502   355.6    7.457      26.819
2015    7       11     1  16    4.1577   355.5    7.476      26.840
2015    7       11     1  22    4.1652   355.4    7.496      26.861
2015    7       11     1  28    4.1728   355.3    7.517      26.883
2015    7       11     1  34    4.1805   355.2    7.537      26.905
2015    7       11     1  40    4.1883   355.1    7.558      26.928
2015    7       11     1  45    4.1961   354.9    7.579      26.952
2015    7       11     1  51    4.2040   354.8    7.600      26.977
2015    7       11     1  57    4.2120   354.7    7.621      27.002
2015    7       11     2   3    4.2202   354.6    7.643      27.028
2015    7       11     2   9    4.2284   354.5    7.665      27.054
2015    7       11     2  15    4.2367   354.4    7.687      27.082
2015    7       11     2  21    4.2451   354.3    7.710      27.110
2015    7       11     2  27    4.2536   354.2    7.732      27.139
2015    7       11     2  33    4.2622   354.1    7.755      27.168
2015    7       11     2  39    4.2710   354.0    7.779      27.198
2015    7       11     2  45    4.2798   353.9    7.802      27.230
2015    7       11     2  51    4.2888   353.8    7.826      27.261
2015    7       11     2  57    4.2979   353.7    7.851      27.294
2015    7       11     3   3    4.3071   353.6    7.875      27.327
2015    7       11     3   9    4.3164   353.5    7.900      27.361
2015    7       11     3  15    4.3259   353.5    7.925      27.396
2015    7       11     3  21    4.3355   353.4    7.950      27.432
2015    7       11     3  27    4.3452   353.3    7.976      27.468
2015    7       11     3  33    4.3550   353.2    8.002      27.505
2015    7       11     3  39    4.3651   353.1    8.028      27.543
2015    7       11     3  44    4.3752   353.1    8.055      27.581
2015    7       11     3  50    4.3855   353.0    8.082      27.620
2015    7       11     3  56    4.3959   352.9    8.109      27.660
2015    7       11     4   2    4.4065   352.9    8.137      27.700
2015    7       11     4   8    4.4172   352.8    8.165      27.741
2015    7       11     4  14    4.4281   352.7    8.194      27.783
2015    7       11     4  20    4.4391   352.7    8.223      27.825
2015    7       11     4  26    4.4503   352.6    8.253      27.868
2015    7       11     4  32    4.4616   352.6    8.282      27.911
2015    7       11     4  38    4.4730   352.5    8.313      27.956
2015    7       11     4  44    4.4845   352.5    8.343      28.002
2015    7       11     4  50    4.4962   352.5    8.374      28.050
2015    7       11     4  56    4.5079   352.4    8.405      28.100
2015    7       11     5   2    4.5198   352.4    8.437      28.151
2015    7       11     5   8    4.5317   352.4    8.468      28.204
2015    7       11     5  14    4.5438   352.3    8.500      28.258
2015    7       11     5  20    4.5559   352.3    8.532      28.313
2015    7       11     5  26    4.5681   352.3    8.563      28.369
2015    7       11     5  32    4.5803   352.3    8.595      28.427
2015    7       11     5  38    4.5926   352.2    8.627      28.485
2015    7       11     5  43    4.6049   352.2    8.659      28.544
2015    7       11     5  49    4.6174   352.2    8.691      28.604
2015    7       11     5  55    4.6297   352.2    8.723      28.664
2015    7       11     6   1    4.6423   352.2    8.755      28.726
2015    7       11     6   7    4.6548   352.2    8.786      28.788
2015    7       11     6  13    4.6674   352.2    8.818      28.851
2015    7       11     6  19    4.6800   352.2    8.850      28.913
2015    7       11     6  25    4.6927   352.2    8.882      28.975
2015    7       11     6  31    4.7054   352.1    8.914      29.037
2015    7       11     6  37    4.7182   352.1    8.946      29.099
2015    7       11     6  43    4.7310   352.1    8.978      29.161
2015    7       11     6  49    4.7438   352.1    9.010      29.224
2015    7       11     6  55    4.7566   352.1    9.042      29.288
2015    7       11     7   1    4.7696   352.1    9.074      29.352
2015    7       11     7   7    4.7824   352.1    9.106      29.418
2015    7       11     7  13    4.7954   352.1    9.138      29.484
2015    7       11     7  19    4.8083   352.2    9.169      29.551
2015    7       11     7  24    4.8212   352.2    9.201      29.619
2015    7       11     7  30    4.8341   352.2    9.232      29.687
2015    7       11     7  36    4.8471   352.2    9.264      29.756
2015    7       11     7  42    4.8600   352.2    9.295      29.825
2015    7       11     7  48    4.8729   352.2    9.326      29.895
2015    7       11     7  54    4.8857   352.2    9.356      29.965
2015    7       11     8   0    4.8986   352.3    9.387      30.036
2015    7       11     8   6    4.9114   352.3    9.417      30.107
2015    7       11     8  12    4.9242   352.3    9.447      30.179
2015    7       11     8  18    4.9370   352.3    9.476      30.251
2015    7       11     8  24    4.9498   352.3    9.506      30.323
2015    7       11     8  30    4.9626   352.4    9.535      30.395
2015    7       11     8  36    4.9754   352.4    9.564      30.466
2015    7       11     8  42    4.9881   352.4    9.593      30.537
2015    7       11     8  48    5.0009   352.4    9.621      30.607
2015    7       11     8  54    5.0137   352.5    9.650      30.677
2015    7       11     9   0    5.0265   352.5    9.678      30.747
2015    7       11     9   6    5.0393   352.5    9.706      30.817
2015    7       11     9  12    5.0522   352.6    9.735      30.887
2015    7       11     9  17    5.0650   352.6    9.763      30.956
2015    7       11     9  23    5.0780   352.6    9.791      31.025
2015    7       11     9  29    5.0909   352.7    9.820      31.095
2015    7       11     9  35    5.1039   352.7    9.848      31.164
2015    7       11     9  41    5.1169   352.8    9.876      31.233
2015    7       11     9  47    5.1300   352.8    9.905      31.302
2015    7       11     9  53    5.1432   352.8    9.934      31.372
2015    7       11     9  59    5.1564   352.9    9.962      31.441
2015    7       11    10   5    5.1697   352.9    9.991      31.511
2015    7       11    10  11    5.1830   353.0   10.021      31.581
2015    7       11    10  17    5.1965   353.0   10.050      31.651
2015    7       11    10  23    5.2100   353.1   10.079      31.722
2015    7       11    10  29    5.2236   353.2   10.109      31.793
2015    7       11    10  35    5.2374   353.2   10.139      31.865
2015    7       11    10  41    5.2512   353.3   10.170      31.937
2015    7       11    10  47    5.2651   353.3   10.201      32.009
2015    7       11    10  53    5.2791   353.4   10.232      32.082
2015    7       11    10  59    5.2933   353.5   10.264      32.156
2015    7       11    11   5    5.3076   353.6   10.296      32.230
2015    7       11    11  11    5.3220   353.6   10.329      32.306
2015    7       11    11  17    5.3365   353.7   10.362      32.382
2015    7       11    11  22    5.3513   353.8   10.396      32.459
2015    7       11    11  28    5.3661   353.9   10.431      32.536
2015    7       11    11  34    5.3811   354.0   10.466      32.615
2015    7       11    11  40    5.3963   354.0   10.503      32.694
2015    7       11    11  46    5.4116   354.1   10.540      32.775
2015    7       11    11  52    5.4271   354.2   10.578      32.858
2015    7       11    11  58    5.4428   354.3   10.616      32.943
2015    7       11    12   4    5.4586   354.5   10.656      33.030
2015    7       11    12  10    5.4746   354.6   10.697      33.119
2015    7       11    12  16    5.4907   354.7   10.738      33.211
2015    7       11    12  22    5.5071   354.8   10.781      33.305
2015    7       11    12  28    5.5236   354.9   10.824      33.402
2015    7       11    12  34    5.5404   355.1   10.868      33.503
2015    7       11    12  40    5.5572   355.2   10.913      33.609
2015    7       11    12  46    5.5743   355.4   10.958      33.719
2015    7       11    12  52    5.5915   355.5   11.004      33.833
2015    7       11    12  58    5.6088   355.7   11.050      33.951
2015    7       11    13   4    5.6261   355.9   11.097      34.072
2015    7       11    13  10    5.6436   356.1   11.143      34.198
2015    7       11    13  15    5.6612   356.2   11.190      34.326
2015    7       11    13  21    5.6788   356.4   11.237      34.457
2015    7       11    13  27    5.6965   356.6   11.283      34.590
2015    7       11    13  33    5.7143   356.8   11.330      34.725
2015    7       11    13  39    5.7320   357.0   11.376      34.861
2015    7       11    13  45    5.7498   357.2   11.422      34.998
2015    7       11    13  51    5.7675   357.4   11.468      35.136
2015    7       11    13  57    5.7852   357.6   11.514      35.275
2015    7       11    14   3    5.8028   357.8   11.559      35.414
2015    7       11    14   9    5.8204   358.1   11.603      35.553
2015    7       11    14  15    5.8379   358.3   11.647      35.692
2015    7       11    14  21    5.8553   358.5   11.691      35.833
2015    7       11    14  27    5.8726   358.7   11.733      35.974
2015    7       11    14  33    5.8898   358.9   11.775      36.115
2015    7       11    14  39    5.9068   359.2   11.815      36.258
2015    7       11    14  45    5.9237   359.4   11.855      36.401
2015    7       11    14  51    5.9404   359.6   11.894      36.543
2015    7       11    14  56    5.9569   359.8   11.931      36.686
2015    7       11    15   2    5.9731   360.1   11.967      36.829
2015    7       11    15   8    5.9891   360.3   12.001      36.971
2015    7       11    15  14    6.0049   360.6   12.034      37.112
2015    7       11    15  20    6.0205   360.8   12.066      37.254
2015    7       11    15  26    6.0357   361.0   12.095      37.394
2015    7       11    15  32    6.0508   361.3   12.124      37.534
2015    7       11    15  38    6.0655   361.5   12.150      37.672
2015    7       11    15  44    6.0800   361.8   12.175      37.810
2015    7       11    15  50    6.0942   362.0   12.198      37.945
2015    7       11    15  56    6.1082   362.2   12.220      38.077
2015    7       11    16   2    6.1218   362.5   12.240      38.205
2015    7       11    16   8    6.1353   362.7   12.259      38.331
2015    7       11    16  14    6.1486   362.9   12.277      38.455
2015    7       11    16  20    6.1617   363.1   12.294      38.575
2015    7       11    16  26    6.1745   363.3   12.309      38.693
2015    7       11    16  32    6.1872   363.6   12.323      38.809
2015    7       11    16  38    6.1997   363.8   12.337      38.922
2015    7       11    16  44    6.2121   364.0   12.349      39.033
2015    7       11    16  49    6.2243   364.2   12.361      39.142
2015    7       11    16  55    6.2364   364.4   12.372      39.249
2015    7       11    17   1    6.2483   364.6   12.382      39.354
2015    7       11    17   7    6.2602   364.8   12.391      39.458
2015    7       11    17  13    6.2719   365.0   12.400      39.560
2015    7       11    17  19    6.2836   365.2   12.408      39.660
2015    7       11    17  25    6.2951   365.4   12.416      39.759
2015    7       11    17  31    6.3066   365.6   12.423      39.857
2015    7       11    17  37    6.3181   365.8   12.429      39.953
2015    7       11    17  43    6.3294   366.1   12.436      40.049
2015    7       11    17  49    6.3407   366.3   12.442      40.143
2015    7       11    17  55    6.3520   366.5   12.448      40.236
2015    7       11    18   1    6.3633   366.7   12.454      40.329
2015    7       11    18   7    6.3745   366.9   12.459      40.421
2015    7       11    18  13    6.3857   367.1   12.465      40.513
2015    7       11    18  19    6.3970   367.3   12.470      40.604
2015    7       11    18  25    6.4082   367.5   12.476      40.694
2015    7       11    18  31    6.4195   367.7   12.482      40.785
2015    7       11    18  37    6.4307   367.9   12.488      40.876
2015    7       11    18  43    6.4421   368.1   12.495      40.966
2015    7       11    18  49    6.4535   368.3   12.501      41.057
2015    7       11    18  54    6.4649   368.5   12.509      41.148
2015    7       11    19   0    6.4765   368.8   12.517      41.239
2015    7       11    19   6    6.4881   369.0   12.525      41.332
2015    7       11    19  12    6.4999   369.2   12.534      41.424
2015    7       11    19  18    6.5117   369.4   12.544      41.518
2015    7       11    19  24    6.5237   369.7   12.555      41.613
2015    7       11    19  30    6.5358   369.9   12.567      41.708
2015    7       11    19  36    6.5482   370.1   12.581      41.803
2015    7       11    19  42    6.5606   370.3   12.595      41.901
2015    7       11    19  48    6.5733   370.6   12.611      41.999
2015    7       11    19  54    6.5862   370.8   12.627      42.102
2015    7       11    20   0    6.5992   371.1   12.645      42.207
2015    7       11    20   6    6.6124   371.3   12.664      42.316
2015    7       11    20  12    6.6258   371.6   12.685      42.428
2015    7       11    20  18    6.6394   371.9   12.706      42.543
2015    7       11    20  24    6.6531   372.1   12.728      42.662
2015    7       11    20  30    6.6670   372.4   12.752      42.785
2015    7       11    20  36    6.6812   372.7   12.777      42.909
2015    7       11    20  41    6.6955   373.0   12.803      43.035
2015    7       11    20  47    6.7100   373.2   12.830      43.166
2015    7       11    20  53    6.7245   373.5   12.858      43.301
2015    7       11    20  59    6.7392   373.9   12.887      43.441
2015    7       11    21   5    6.7539   374.2   12.916      43.585
2015    7       11    21  11    6.7687   374.5   12.945      43.733
2015    7       11    21  17    6.7834   374.8   12.975      43.884
2015    7       11    21  23    6.7981   375.2   13.005      44.037
2015    7       11    21  29    6.8128   375.5   13.035      44.192
2015    7       11    21  35    6.8274   375.9   13.064      44.349
2015    7       11    21  41    6.8419   376.2   13.094      44.508
2015    7       11    21  47    6.8563   376.6   13.123      44.669
2015    7       11    21  53    6.8705   376.9   13.151      44.831
2015    7       11    21  59    6.8844   377.3   13.178      44.995
2015    7       11    22   5    6.8981   377.7   13.205      45.161
2015    7       11    22  11    6.9116   378.1   13.230      45.329
2015    7       11    22  17    6.9249   378.4   13.254      45.496
2015    7       11    22  23    6.9379   378.8   13.277      45.661
2015    7       11    22  28    6.9508   379.2   13.300      45.826
2015    7       11    22  34    6.9634   379.6   13.321      45.992
2015    7       11    22  40    6.9758   380.0   13.340      46.160
2015    7       11    22  46    6.9879   380.4   13.359      46.329
2015    7       11    22  52    6.9997   380.8   13.375      46.500
2015    7       11    22  58    7.0112   381.2   13.390      46.671
2015    7       11    23   4    7.0224   381.6   13.404      46.843
2015    7       11    23  10    7.0332   382.0   13.416      47.015
2015    7       11    23  16    7.0439   382.4   13.426      47.186
2015    7       11    23  22    7.0542   382.8   13.435      47.356
2015    7       11    23  28    7.0642   383.2   13.442      47.526
2015    7       11    23  34    7.0739   383.6   13.448      47.694
2015    7       11    23  40    7.0833   384.0   13.452      47.861
2015    7       11    23  46    7.0924   384.4   13.454      48.028
2015    7       11    23  52    7.1011   384.8   13.454      48.194
2015    7       11    23  58    7.1095   385.3   13.453      48.361
2015    7       12     0   4    7.1177   385.7   13.450      48.525
2015    7       12     0  10    7.1255   386.1   13.445      48.686
2015    7       12     0  16    7.1332   386.5   13.439      48.846
2015    7       12     0  21    7.1406   386.9   13.431      49.004
2015    7       12     0  27    7.1478   387.3   13.422      49.160
2015    7       12     0  33    7.1548   387.7   13.412      49.314
2015    7       12     0  39    7.1616   388.0   13.401      49.468
2015    7       12     0  45    7.1682   388.4   13.388      49.619
2015    7       12     0  51    7.1747   388.8   13.375      49.769
2015    7       12     0  57    7.1811   389.2   13.361      49.918
2015    7       12     1   3    7.1874   389.6   13.346      50.065
2015    7       12     1   9    7.1935   390.0   13.330      50.212
2015    7       12     1  15    7.1996   390.4   13.314      50.357
2015    7       12     1  21    7.2056   390.8   13.297      50.501
2015    7       12     1  27    7.2116   391.2   13.279      50.645
2015    7       12     1  33    7.2174   391.6   13.262      50.787
2015    7       12     1  39    7.2233   392.0   13.243      50.929
2015    7       12     1  45    7.2290   392.3   13.225      51.069
2015    7       12     1  51    7.2348   392.7   13.206      51.209
2015    7       12     1  57    7.2406   393.1   13.187      51.347
2015    7       12     2   3    7.2464   393.5   13.168      51.485
2015    7       12     2   9    7.2522   393.9   13.149      51.622
2015    7       12     2  15    7.2579   394.3   13.129      51.758
2015    7       12     2  21    7.2637   394.7   13.110      51.892
2015    7       12     2  26    7.2695   395.1   13.090      52.026
2015    7       12     2  32    7.2754   395.5   13.071      52.159
2015    7       12     2  38    7.2812   395.9   13.051      52.290
2015    7       12     2  44    7.2871   396.4   13.032      52.421
2015    7       12     2  50    7.2930   396.8   13.012      52.550
2015    7       12     2  56    7.2989   397.2   12.993      52.677
2015    7       12     3   2    7.3049   397.6   12.974      52.803
2015    7       12     3   8    7.3108   398.0   12.956      52.926
2015    7       12     3  14    7.3167   398.5   12.937      53.049
2015    7       12     3  20    7.3227   398.9   12.919      53.170
2015    7       12     3  26    7.3286   399.3   12.901      53.289
2015    7       12     3  32    7.3346   399.7   12.884      53.407
2015    7       12     3  38    7.3404   400.2   12.867      53.524
2015    7       12     3  44    7.3463   400.6   12.850      53.640
2015    7       12     3  50    7.3522   401.1   12.835      53.754
2015    7       12     3  56    7.3582   401.5   12.820      53.867
2015    7       12     4   2    7.3640   401.9   12.805      53.978
2015    7       12     4   8    7.3698   402.4   12.791      54.090
2015    7       12     4  13    7.3755   402.9   12.777      54.202
2015    7       12     4  19    7.3810   403.3   12.764      54.313
2015    7       12     4  25    7.3865   403.8   12.751      54.425
2015    7       12     4  31    7.3918   404.2   12.738      54.538
2015    7       12     4  37    7.3971   404.7   12.726      54.650
2015    7       12     4  43    7.4022   405.2   12.714      54.763
2015    7       12     4  49    7.4072   405.6   12.702      54.876
2015    7       12     4  55    7.4121   406.1   12.691      54.988
2015    7       12     5   1    7.4169   406.6   12.679      55.101
2015    7       12     5   7    7.4215   407.1   12.667      55.213
2015    7       12     5  13    7.4259   407.6   12.656      55.325
2015    7       12     5  19    7.4302   408.1   12.644      55.439
2015    7       12     5  25    7.4343   408.6   12.631      55.554
2015    7       12     5  31    7.4383   409.1   12.619      55.668
2015    7       12     5  37    7.4422   409.5   12.607      55.779
2015    7       12     5  43    7.4461   410.0   12.595      55.891
2015    7       12     5  49    7.4498   410.5   12.583      56.004
2015    7       12     5  55    7.4535   411.0   12.571      56.119
2015    7       12     6   0    7.4569   411.6   12.558      56.236
2015    7       12     6   6    7.4602   412.1   12.545      56.354
2015    7       12     6  12    7.4633   412.6   12.532      56.474
2015    7       12     6  18    7.4663   413.1   12.519      56.595
2015    7       12     6  24    7.4691   413.6   12.505      56.718
2015    7       12     6  30    7.4718   414.1   12.490      56.843
2015    7       12     6  36    7.4743   414.7   12.475      56.970
2015    7       12     6  42    7.4766   415.2   12.460      57.098
2015    7       12     6  48    7.4787   415.7   12.444      57.228
2015    7       12     6  54    7.4806   416.2   12.427      57.359
2015    7       12     7   0    7.4822   416.8   12.409      57.491
2015    7       12     7   6    7.4836   417.3   12.390      57.627
2015    7       12     7  12    7.4848   417.8   12.371      57.764
2015    7       12     7  18    7.4857   418.4   12.350      57.902
2015    7       12     7  24    7.4863   418.9   12.328      58.041
2015    7       12     7  30    7.4868   419.4   12.305      58.178
2015    7       12     7  36    7.4871   420.0   12.281      58.315
2015    7       12     7  42    7.4873   420.5   12.256      58.452
2015    7       12     7  48    7.4872   421.0   12.231      58.589
2015    7       12     7  53    7.4871   421.6   12.204      58.726
2015    7       12     7  59    7.4867   422.1   12.177      58.864
2015    7       12     8   5    7.4862   422.6   12.149      59.001
2015    7       12     8  11    7.4854   423.2   12.120      59.138
2015    7       12     8  17    7.4846   423.7   12.090      59.275
2015    7       12     8  23    7.4835   424.2   12.060      59.410
2015    7       12     8  29    7.4823   424.8   12.028      59.545
2015    7       12     8  35    7.4809   425.3   11.996      59.679
2015    7       12     8  41    7.4794   425.8   11.963      59.811
2015    7       12     8  47    7.4776   426.3   11.930      59.943
2015    7       12     8  53    7.4757   426.9   11.895      60.072
2015    7       12     8  59    7.4736   427.4   11.859      60.199
2015    7       12     9   5    7.4712   427.9   11.823      60.325
2015    7       12     9  11    7.4686   428.4   11.785      60.447
2015    7       12     9  17    7.4658   429.0   11.747      60.566
2015    7       12     9  23    7.4627   429.5   11.707      60.682
2015    7       12     9  29    7.4594   430.0   11.667      60.794
2015    7       12     9  35    7.4558   430.5   11.624      60.903
2015    7       12     9  41    7.4520   431.1   11.581      61.008
2015    7       12     9  47    7.4477   431.6   11.537      61.107
2015    7       12     9  53    7.4433   432.1   11.491      61.199
2015    7       12     9  58    7.4385   432.6   11.444      61.284
2015    7       12    10   4    7.4334   433.1   11.397      61.364
2015    7       12    10  10    7.4279   433.7   11.348      61.436
2015    7       12    10  16    7.4223   434.2   11.299      61.502
2015    7       12    10  22    7.4161   434.7   11.248      61.562
2015    7       12    10  28    7.4098   435.2   11.197      61.615
2015    7       12    10  34    7.4031   435.8   11.145      61.664
2015    7       12    10  40    7.3962   436.3   11.092      61.707
2015    7       12    10  46    7.3888   436.8   11.039      61.745
2015    7       12    10  52    7.3813   437.3   10.985      61.777
2015    7       12    10  58    7.3733   437.9   10.931      61.801
2015    7       12    11   4    7.3652   438.4   10.876      61.819
2015    7       12    11  10    7.3566   438.9   10.821      61.832
2015    7       12    11  16    7.3478   439.5   10.766      61.842
2015    7       12    11  22    7.3385   440.0   10.711      61.848
2015    7       12    11  28    7.3289   440.6   10.655      61.849
2015    7       12    11  34    7.3190   441.1   10.600      61.846
2015    7       12    11  39    7.3090   441.7   10.544      61.840
2015    7       12    11  45    7.2985   442.2   10.489      61.831
2015    7       12    11  51    7.2880   442.8   10.434      61.819
2015    7       12    11  57    7.2772   443.3   10.380      61.803
2015    7       12    12   3    7.2663   443.8   10.326      61.785
2015    7       12    12   9    7.2552   444.4   10.273      61.764
2015    7       12    12  15    7.2441   444.9   10.220      61.741
2015    7       12    12  21    7.2327   445.4   10.168      61.718
2015    7       12    12  27    7.2214   445.9   10.117      61.696
2015    7       12    12  33    7.2099   446.5   10.066      61.673
2015    7       12    12  39    7.1984   447.0   10.016      61.651
2015    7       12    12  45    7.1868   447.5    9.967      61.628
2015    7       12    12  51    7.1753   448.1    9.919      61.605
2015    7       12    12  57    7.1637   448.6    9.872      61.586
2015    7       12    13   3    7.1522   449.1    9.825      61.568
2015    7       12    13   9    7.1405   449.6    9.779      61.550
2015    7       12    13  15    7.1288   450.2    9.733      61.534
2015    7       12    13  21    7.1170   450.7    9.688      61.517
2015    7       12    13  26    7.1053   451.2    9.644      61.501
2015    7       12    13  32    7.0934   451.7    9.601      61.486
2015    7       12    13  38    7.0816   452.2    9.558      61.472
2015    7       12    13  44    7.0697   452.7    9.515      61.459
2015    7       12    13  50    7.0578   453.2    9.474      61.448
2015    7       12    13  56    7.0458   453.7    9.432      61.437
2015    7       12    14   2    7.0338   454.2    9.391      61.428
2015    7       12    14   8    7.0218   454.7    9.351      61.419
2015    7       12    14  14    7.0098   455.2    9.312      61.410
2015    7       12    14  20    6.9977   455.7    9.272      61.402
2015    7       12    14  26    6.9857   456.2    9.234      61.395
2015    7       12    14  32    6.9735   456.7    9.195      61.388
2015    7       12    14  38    6.9614   457.1    9.158      61.381
2015    7       12    14  44    6.9493   457.6    9.120      61.374
2015    7       12    14  50    6.9372   458.1    9.083      61.368
2015    7       12    14  56    6.9251   458.5    9.047      61.363
2015    7       12    15   2    6.9130   459.0    9.011      61.359
2015    7       12    15   8    6.9009   459.4    8.975      61.356
2015    7       12    15  14    6.8887   459.9    8.939      61.353
2015    7       12    15  20    6.8765   460.4    8.904      61.352
2015    7       12    15  25    6.8643   460.8    8.869      61.350
2015    7       12    15  31    6.8520   461.3    8.834      61.349
2015    7       12    15  37    6.8396   461.7    8.798      61.347
2015    7       12    15  43    6.8271   462.2    8.763      61.345
2015    7       12    15  49    6.8147   462.6    8.728      61.343
2015    7       12    15  55    6.8020   463.1    8.692      61.340
2015    7       12    16   1    6.7893   463.5    8.656      61.335
2015    7       12    16   7    6.7764   464.0    8.620      61.328
2015    7       12    16  13    6.7635   464.4    8.584      61.319
2015    7       12    16  19    6.7503   464.8    8.547      61.309
2015    7       12    16  25    6.7371   465.3    8.510      61.295
2015    7       12    16  31    6.7236   465.7    8.472      61.278
2015    7       12    16  37    6.7101   466.2    8.433      61.257
2015    7       12    16  43    6.6963   466.6    8.394      61.231
2015    7       12    16  49    6.6823   467.0    8.354      61.200
2015    7       12    16  55    6.6681   467.5    8.313      61.166
2015    7       12    17   1    6.6537   467.9    8.271      61.126
2015    7       12    17   7    6.6390   468.3    8.229      61.077
2015    7       12    17  13    6.6242   468.7    8.185      61.019
2015    7       12    17  19    6.6090   469.2    8.141      60.953
2015    7       12    17  24    6.5937   469.6    8.097      60.878
2015    7       12    17  30    6.5781   470.0    8.052      60.795
2015    7       12    17  36    6.5624   470.4    8.006      60.703
2015    7       12    17  42    6.5464   470.8    7.961      60.603
2015    7       12    17  48    6.5302   471.2    7.914      60.496
2015    7       12    17  54    6.5139   471.6    7.868      60.382
2015    7       12    18   0    6.4974   472.0    7.821      60.262
2015    7       12    18   6    6.4808   472.4    7.774      60.133
2015    7       12    18  12    6.4641   472.8    7.727      59.996
2015    7       12    18  18    6.4472   473.2    7.680      59.850
2015    7       12    18  24    6.4304   473.6    7.634      59.696
2015    7       12    18  30    6.4134   473.9    7.588      59.534
2015    7       12    18  36    6.3963   474.3    7.543      59.370
2015    7       12    18  42    6.3792   474.7    7.498      59.202
2015    7       12    18  48    6.3621   475.0    7.454      59.032
2015    7       12    18  54    6.3450   475.4    7.411      58.861
2015    7       12    19   0    6.3279   475.7    7.368      58.687
2015    7       12    19   6    6.3108   476.1    7.325      58.513
2015    7       12    19  11    6.2938   476.4    7.284      58.337
2015    7       12    19  17    6.2767   476.8    7.243      58.160
2015    7       12    19  23    6.2597   477.1    7.203      57.982
2015    7       12    19  29    6.2427   477.4    7.163      57.803
2015    7       12    19  35    6.2258   477.7    7.125      57.625
2015    7       12    19  41    6.2088   478.0    7.087      57.450
2015    7       12    19  47    6.1920   478.3    7.050      57.278
2015    7       12    19  53    6.1751   478.6    7.014      57.108
2015    7       12    19  59    6.1583   478.9    6.978      56.940
2015    7       12    20   5    6.1415   479.2    6.942      56.774
2015    7       12    20  11    6.1248   479.5    6.908      56.610
2015    7       12    20  17    6.1082   479.8    6.874      56.448
2015    7       12    20  23    6.0915   480.1    6.840      56.287
2015    7       12    20  29    6.0749   480.3    6.808      56.128
2015    7       12    20  35    6.0584   480.6    6.775      55.970
2015    7       12    20  41    6.0419   480.9    6.743      55.814
2015    7       12    20  47    6.0254   481.1    6.712      55.660
2015    7       12    20  53    6.0089   481.4    6.681      55.507
2015    7       12    20  58    5.9925   481.6    6.651      55.355
2015    7       12    21   4    5.9761   481.8    6.621      55.205
2015    7       12    21  10    5.9598   482.0    6.592      55.057
2015    7       12    21  16    5.9435   482.3    6.563      54.909
2015    7       12    21  22    5.9273   482.5    6.535      54.764
2015    7       12    21  28    5.9111   482.7    6.507      54.619
2015    7       12    21  34    5.8950   482.9    6.479      54.475
2015    7       12    21  40    5.8789   483.0    6.453      54.333
2015    7       12    21  46    5.8630   483.2    6.426      54.191
2015    7       12    21  52    5.8471   483.4    6.400      54.051
2015    7       12    21  58    5.8312   483.6    6.375      53.912
2015    7       12    22   4    5.8155   483.7    6.350      53.773
2015    7       12    22  10    5.7998   483.9    6.325      53.636
2015    7       12    22  16    5.7843   484.0    6.301      53.498
2015    7       12    22  22    5.7688   484.1    6.278      53.362
2015    7       12    22  28    5.7534   484.3    6.255      53.226
2015    7       12    22  34    5.7380   484.4    6.232      53.091
2015    7       12    22  40    5.7228   484.5    6.210      52.956
2015    7       12    22  46    5.7077   484.6    6.188      52.821
2015    7       12    22  52    5.6926   484.7    6.166      52.687
2015    7       12    22  57    5.6776   484.9    6.145      52.554
2015    7       12    23   3    5.6628   484.9    6.124      52.420
2015    7       12    23   9    5.6480   485.0    6.104      52.288
2015    7       12    23  15    5.6333   485.1    6.084      52.155
2015    7       12    23  21    5.6187   485.2    6.064      52.023
2015    7       12    23  27    5.6043   485.3    6.045      51.891
2015    7       12    23  33    5.5899   485.3    6.026      51.760
2015    7       12    23  39    5.5756   485.4    6.007      51.629
2015    7       12    23  45    5.5615   485.5    5.989      51.498
2015    7       12    23  51    5.5474   485.5    5.971      51.368
2015    7       12    23  57    5.5335   485.5    5.954      51.238
2015    7       13     0   3    5.5197   485.6    5.936      51.109
2015    7       13     0   9    5.5060   485.6    5.920      50.980
2015    7       13     0  15    5.4925   485.6    5.903      50.852
2015    7       13     0  21    5.4790   485.6    5.887      50.725
2015    7       13     0  27    5.4658   485.7    5.871      50.598
2015    7       13     0  33    5.4526   485.7    5.856      50.473
2015    7       13     0  39    5.4396   485.7    5.841      50.348
2015    7       13     0  45    5.4267   485.7    5.826      50.224
2015    7       13     0  51    5.4140   485.7    5.812      50.100
2015    7       13     0  56    5.4014   485.6    5.798      49.978
2015    7       13     1   2    5.3890   485.6    5.784      49.856
2015    7       13     1   8    5.3766   485.6    5.771      49.736
2015    7       13     1  14    5.3645   485.6    5.758      49.617
2015    7       13     1  20    5.3524   485.5    5.745      49.499
2015    7       13     1  26    5.3406   485.5    5.732      49.382
2015    7       13     1  32    5.3288   485.5    5.720      49.267
2015    7       13     1  38    5.3172   485.5    5.708      49.153
2015    7       13     1  44    5.3056   485.4    5.696      49.040
2015    7       13     1  50    5.2943   485.4    5.685      48.928
2015    7       13     1  56    5.2830   485.4    5.674      48.818
2015    7       13     2   2    5.2719   485.3    5.663      48.710
2015    7       13     2   8    5.2608   485.3    5.652      48.603
2015    7       13     2  14    5.2499   485.3    5.641      48.499
2015    7       13     2  20    5.2391   485.2    5.631      48.395
2015    7       13     2  26    5.2284   485.2    5.621      48.293
2015    7       13     2  32    5.2177   485.2    5.610      48.192
2015    7       13     2  38    5.2072   485.1    5.600      48.093
2015    7       13     2  43    5.1967   485.1    5.590      47.995
2015    7       13     2  49    5.1864   485.1    5.580      47.898
2015    7       13     2  55    5.1761   485.0    5.571      47.801
2015    7       13     3   1    5.1658   485.0    5.561      47.706
2015    7       13     3   7    5.1557   485.0    5.551      47.611
2015    7       13     3  13    5.1456   485.0    5.542      47.518
2015    7       13     3  19    5.1355   485.0    5.532      47.425
2015    7       13     3  25    5.1255   484.9    5.523      47.333
2015    7       13     3  31    5.1155   484.9    5.514      47.241
2015    7       13     3  37    5.1056   484.9    5.504      47.149
2015    7       13     3  43    5.0957   484.9    5.495      47.058
2015    7       13     3  49    5.0859   484.9    5.486      46.967
2015    7       13     3  55    5.0761   484.9    5.476      46.877
2015    7       13     4   1    5.0664   484.9    5.467      46.787
2015    7       13     4   7    5.0566   484.9    5.458      46.697
2015    7       13     4  13    5.0469   484.8    5.449      46.607
2015    7       13     4  19    5.0372   484.8    5.440      46.518
2015    7       13     4  25    5.0276   484.8    5.431      46.430
2015    7       13     4  30    5.0179   484.8    5.421      46.342
2015    7       13     4  36    5.0084   484.8    5.412      46.254
2015    7       13     4  42    4.9988   484.8    5.403      46.167
2015    7       13     4  48    4.9893   484.8    5.394      46.081
2015    7       13     4  54    4.9799   484.7    5.386      45.995
2015    7       13     5   0    4.9705   484.7    5.377      45.910
2015    7       13     5   6    4.9611   484.7    5.368      45.826
2015    7       13     5  12    4.9519   484.7    5.360      45.742
2015    7       13     5  18    4.9426   484.6    5.351      45.660
2015    7       13     5  24    4.9334   484.6    5.343      45.578
2015    7       13     5  30    4.9243   484.6    5.334      45.497
2015    7       13     5  36    4.9153   484.5    5.326      45.416
2015    7       13     5  42    4.9063   484.5    5.318      45.337
2015    7       13     5  48    4.8975   484.5    5.310      45.257
2015    7       13     5  54    4.8886   484.4    5.302      45.179
2015    7       13     6   0    4.8799   484.4    5.294      45.101
2015    7       13     6   6    4.8712   484.4    5.287      45.024
2015    7       13     6  12    4.8626   484.3    5.279      44.947
2015    7       13     6  18    4.8541   484.3    5.271      44.871
2015    7       13     6  24    4.8456   484.2    5.264      44.795
2015    7       13     6  29    4.8372   484.2    5.256      44.720
2015    7       13     6  35    4.8289   484.1    5.249      44.645
2015    7       13     6  41    4.8206   484.1    5.242      44.571
2015    7       13     6  47    4.8125   484.1    5.234      44.497
2015    7       13     6  53    4.8043   484.0    5.227      44.424
2015    7       13     6  59    4.7963   483.9    5.220      44.350
2015    7       13     7   5    4.7884   483.9    5.213      44.278
2015    7       13     7  11    4.7805   483.8    5.206      44.205
2015    7       13     7  17    4.7727   483.8    5.199      44.133
2015    7       13     7  23    4.7650   483.7    5.192      44.062
2015    7       13     7  29    4.7573   483.6    5.185      43.990
2015    7       13     7  35    4.7497   483.6    5.179      43.919
2015    7       13     7  41    4.7423   483.5    5.172      43.848
2015    7       13     7  47    4.7348   483.4    5.165      43.778
2015    7       13     7  53    4.7275   483.4    5.159      43.708
2015    7       13     7  59    4.7203   483.3    5.152      43.638
2015    7       13     8   5    4.7131   483.2    5.146      43.569
2015    7       13     8  11    4.7060   483.1    5.139      43.500
2015    7       13     8  17    4.6990   483.1    5.133      43.431
2015    7       13     8  23    4.6920   483.0    5.127      43.362
2015    7       13     8  28    4.6851   482.9    5.121      43.294
2015    7       13     8  34    4.6783   482.8    5.115      43.227
2015    7       13     8  40    4.6716   482.7    5.109      43.159
2015    7       13     8  46    4.6649   482.7    5.103      43.092
2015    7       13     8  52    4.6583   482.6    5.097      43.026
2015    7       13     8  58    4.6518   482.5    5.091      42.960
2015    7       13     9   4    4.6453   482.4    5.085      42.894
2015    7       13     9  10    4.6389   482.3    5.079      42.829
2015    7       13     9  16    4.6325   482.2    5.073      42.765
2015    7       13     9  22    4.6262   482.1    5.068      42.701
2015    7       13     9  28    4.6199   482.0    5.062      42.638
2015    7       13     9  34    4.6137   481.9    5.056      42.575
2015    7       13     9  40    4.6075   481.8    5.051      42.513
2015    7       13     9  46    4.6014   481.8    5.045      42.451
2015    7       13     9  52    4.5953   481.7    5.040      42.390
2015    7       13     9  58    4.5892   481.6    5.034      42.330
2015    7       13    10   4    4.5832   481.5    5.029      42.270
2015    7       13    10  10    4.5772   481.4    5.023      42.210
2015    7       13    10  15    4.5713   481.3    5.018      42.150
2015    7       13    10  21    4.5653   481.2    5.013      42.091
2015    7       13    10  27    4.5595   481.1    5.007      42.032
2015    7       13    10  33    4.5536   481.0    5.002      41.972
2015    7       13    10  39    4.5478   480.9    4.997      41.913
2015    7       13    10  45    4.5420   480.8    4.992      41.854
2015    7       13    10  51    4.5363   480.7    4.987      41.795
2015    7       13    10  57    4.5306   480.6    4.982      41.735
2015    7       13    11   3    4.5249   480.5    4.977      41.675
2015    7       13    11   9    4.5192   480.4    4.972      41.615
2015    7       13    11  15    4.5136   480.3    4.967      41.555
2015    7       13    11  21    4.5080   480.2    4.963      41.495
2015    7       13    11  27    4.5024   480.1    4.958      41.434
2015    7       13    11  33    4.4968   480.0    4.954      41.373
2015    7       13    11  39    4.4913   479.9    4.949      41.313
2015    7       13    11  45    4.4858   479.8    4.945      41.252
2015    7       13    11  51    4.4803   479.7    4.941      41.191
2015    7       13    11  57    4.4748   479.6    4.936      41.130
2015    7       13    12   3    4.4694   479.5    4.932      41.070
2015    7       13    12   8    4.4639   479.4    4.928      41.010
2015    7       13    12  14    4.4585   479.3    4.924      40.949
2015    7       13    12  20    4.4532   479.2    4.920      40.889
2015    7       13    12  26    4.4478   479.1    4.916      40.830
2015    7       13    12  32    4.4425   479.0    4.913      40.771
2015    7       13    12  38    4.4372   478.9    4.909      40.713
2015    7       13    12  44    4.4319   478.8    4.905      40.654
2015    7       13    12  50    4.4267   478.7    4.902      40.597
2015    7       13    12  56    4.4215   478.6    4.898      40.540
2015    7       13    13   2    4.4163   478.5    4.895      40.484
2015    7       13    13   8    4.4112   478.3    4.891      40.428
2015    7       13    13  14    4.4060   478.2    4.888      40.373
2015    7       13    13  20    4.4010   478.1    4.885      40.318
2015    7       13    13  26    4.3959   478.0    4.882      40.264
2015    7       13    13  32    4.3909   477.9    4.878      40.211
2015    7       13    13  38    4.3859   477.8    4.875      40.158
2015    7       13    13  44    4.3810   477.7    4.873      40.106
2015    7       13    13  50    4.3761   477.6    4.870      40.054
2015    7       13    13  56    4.3712   477.4    4.867      40.003
2015    7       13    14   2    4.3664   477.3    4.865      39.953
2015    7       13    14   8    4.3616   477.2    4.862      39.903
2015    7       13    14  14    4.3569   477.1    4.860      39.853
2015    7       13    14  19    4.3522   477.0    4.857      39.805
2015    7       13    14  25    4.3476   476.8    4.855      39.757
2015    7       13    14  31    4.3430   476.7    4.853      39.709
2015    7       13    14  37    4.3385   476.6    4.852      39.663
2015    7       13    14  43    4.3341   476.5    4.850      39.617
2015    7       13    14  49    4.3296   476.3    4.848      39.571
2015    7       13    14  55    4.3253   476.2    4.847      39.526
2015    7       13    15   1    4.3210   476.1    4.846      39.482
2015    7       13    15   7    4.3167   475.9    4.844      39.438
2015    7       13    15  13    4.3125   475.8    4.843      39.395
2015    7       13    15  19    4.3084   475.7    4.843      39.353
2015    7       13    15  25    4.3043   475.6    4.842      39.311
2015    7       13    15  31    4.3003   475.4    4.841      39.270
2015    7       13    15  37    4.2963   475.3    4.841      39.230
2015    7       13    15  43    4.2924   475.2    4.840      39.191
2015    7       13    15  49    4.2886   475.0    4.840      39.152
2015    7       13    15  55    4.2848   474.9    4.840      39.114
2015    7       13    16   1    4.2810   474.8    4.840      39.077
2015    7       13    16   7    4.2773   474.6    4.840      39.040
2015    7       13    16  12    4.2736   474.5    4.840      39.005
2015    7       13    16  18    4.2700   474.4    4.840      38.970
2015    7       13    16  24    4.2664   474.2    4.840      38.935
2015    7       13    16  30    4.2629   474.1    4.840      38.902
2015    7       13    16  36    4.2593   473.9    4.840      38.868
2015    7       13    16  42    4.2559   473.8    4.839      38.836
2015    7       13    16  48    4.2524   473.7    4.839      38.803
2015    7       13    16  54    4.2490   473.5    4.839      38.771
2015    7       13    17   0    4.2456   473.4    4.839      38.739
2015    7       13    17   6    4.2422   473.3    4.838      38.706
2015    7       13    17  12    4.2388   473.1    4.838      38.674
2015    7       13    17  18    4.2355   473.0    4.837      38.641
2015    7       13    17  24    4.2322   472.8    4.836      38.609
2015    7       13    17  30    4.2289   472.7    4.836      38.575
2015    7       13    17  36    4.2256   472.6    4.835      38.542
2015    7       13    17  42    4.2224   472.4    4.834      38.508
2015    7       13    17  48    4.2192   472.3    4.833      38.474
2015    7       13    17  54    4.2160   472.2    4.831      38.439
2015    7       13    17  59    4.2128   472.0    4.830      38.404
2015    7       13    18   5    4.2096   471.9    4.829      38.368
2015    7       13    18  11    4.2064   471.8    4.828      38.332
2015    7       13    18  17    4.2033   471.6    4.826      38.296
2015    7       13    18  23    4.2002   471.5    4.825      38.259
2015    7       13    18  29    4.1971   471.3    4.823      38.222
2015    7       13    18  35    4.1940   471.2    4.822      38.184
2015    7       13    18  41    4.1909   471.1    4.820      38.147
2015    7       13    18  47    4.1879   470.9    4.818      38.108
2015    7       13    18  53    4.1848   470.8    4.816      38.070
2015    7       13    18  59    4.1818   470.7    4.815      38.031
2015    7       13    19   5    4.1788   470.5    4.813      37.992
2015    7       13    19  11    4.1758   470.4    4.811      37.952
2015    7       13    19  17    4.1728   470.3    4.809      37.913
2015    7       13    19  23    4.1698   470.1    4.807      37.873
2015    7       13    19  29    4.1669   470.0    4.805      37.832
2015    7       13    19  35    4.1639   469.9    4.803      37.792
2015    7       13    19  41    4.1610   469.7    4.801      37.751
2015    7       13    19  47    4.1581   469.6    4.799      37.710
2015    7       13    19  52    4.1552   469.4    4.797      37.669
2015    7       13    19  58    4.1523   469.3    4.795      37.628
2015    7       13    20   4    4.1495   469.2    4.793      37.587
2015    7       13    20  10    4.1466   469.0    4.791      37.545
2015    7       13    20  16    4.1438   468.9    4.789      37.503
2015    7       13    20  22    4.1410   468.8    4.787      37.462
2015    7       13    20  28    4.1382   468.6    4.784      37.420
2015    7       13    20  34    4.1354   468.5    4.783      37.378
2015    7       13    20  40    4.1327   468.3    4.781      37.336
2015    7       13    20  46    4.1300   468.2    4.779      37.294
2015    7       13    20  52    4.1273   468.1    4.777      37.252
2015    7       13    20  58    4.1246   467.9    4.775      37.211
2015    7       13    21   4    4.1219   467.8    4.773      37.169
2015    7       13    21  10    4.1193   467.6    4.772      37.128
2015    7       13    21  16    4.1167   467.5    4.770      37.087
2015    7       13    21  22    4.1141   467.3    4.768      37.046
2015    7       13    21  28    4.1116   467.2    4.767      37.005
2015    7       13    21  34    4.1091   467.1    4.766      36.965
2015    7       13    21  40    4.1066   466.9    4.764      36.925
2015    7       13    21  46    4.1041   466.8    4.763      36.885
2015    7       13    21  52    4.1017   466.6    4.762      36.846
2015    7       13    21  57    4.0994   466.5    4.761      36.808
2015    7       13    22   3    4.0970   466.3    4.760      36.770
2015    7       13    22   9    4.0947   466.2    4.759      36.732
2015    7       13    22  15    4.0924   466.0    4.759      36.695
2015    7       13    22  21    4.0902   465.9    4.758      36.659
2015    7       13    22  27    4.0880   465.7    4.758      36.623
2015    7       13    22  33    4.0858   465.6    4.758      36.588
2015    7       13    22  39    4.0837   465.5    4.758      36.553
2015    7       13    22  45    4.0816   465.3    4.758      36.519
2015    7       13    22  51    4.0796   465.2    4.758      36.486
2015    7       13    22  57    4.0775   465.0    4.758      36.454
2015    7       13    23   3    4.0755   464.9    4.759      36.422
2015    7       13    23   9    4.0736   464.7    4.759      36.392
2015    7       13    23  15    4.0716   464.6    4.760      36.362
2015    7       13    23  21    4.0697   464.4    4.761      36.333
2015    7       13    23  27    4.0679   464.3    4.762      36.304
2015    7       13    23  33    4.0660   464.1    4.763      36.277
2015    7       13    23  39    4.0642   464.0    4.764      36.251
2015    7       13    23  44    4.0624   463.9    4.765      36.225
2015    7       13    23  50    4.0606   463.7    4.766      36.200
2015    7       13    23  56    4.0589   463.6    4.767      36.176
2015    7       14     0   2    4.0572   463.4    4.768      36.152
