year    month   day   hour  minute  B_enl V_enl   n_enl       T_enl
[year] [month] [day] [hour][minute] [nT]  [km/s]  [cm-3]      [kK]
2015    7       17     0   4    4.6575   348.2    9.443      29.390
2015    7       17     0  10    4.6603   348.2    9.449      29.405
2015    7       17     0  16    4.6630   348.2    9.455      29.420
2015    7       17     0  22    4.6657   348.2    9.461      29.435
2015    7       17     0  29    4.6683   348.2    9.467      29.450
2015    7       17     0  35    4.6710   348.2    9.472      29.465
2015    7       17     0  41    4.6736   348.2    9.478      29.481
2015    7       17     0  47    4.6763   348.2    9.484      29.496
2015    7       17     0  53    4.6789   348.2    9.489      29.511
2015    7       17     1   0    4.6815   348.2    9.495      29.526
2015    7       17     1   6    4.6841   348.2    9.500      29.541
2015    7       17     1  12    4.6867   348.2    9.505      29.557
2015    7       17     1  18    4.6892   348.2    9.511      29.572
2015    7       17     1  25    4.6918   348.2    9.516      29.587
2015    7       17     1  31    4.6944   348.2    9.521      29.602
2015    7       17     1  37    4.6969   348.2    9.526      29.616
2015    7       17     1  43    4.6994   348.2    9.531      29.631
2015    7       17     1  49    4.7020   348.2    9.537      29.646
2015    7       17     1  56    4.7045   348.2    9.542      29.661
2015    7       17     2   2    4.7071   348.2    9.547      29.675
2015    7       17     2   8    4.7096   348.3    9.552      29.690
2015    7       17     2  14    4.7121   348.3    9.557      29.705
2015    7       17     2  20    4.7147   348.3    9.562      29.719
2015    7       17     2  27    4.7172   348.3    9.566      29.734
2015    7       17     2  33    4.7197   348.3    9.571      29.748
2015    7       17     2  39    4.7223   348.3    9.576      29.763
2015    7       17     2  45    4.7248   348.3    9.581      29.777
2015    7       17     2  52    4.7274   348.3    9.586      29.792
2015    7       17     2  58    4.7299   348.3    9.591      29.806
2015    7       17     3   4    4.7324   348.3    9.596      29.820
2015    7       17     3  10    4.7350   348.3    9.601      29.835
2015    7       17     3  16    4.7375   348.3    9.606      29.849
2015    7       17     3  23    4.7401   348.3    9.610      29.863
2015    7       17     3  29    4.7426   348.3    9.615      29.878
2015    7       17     3  35    4.7452   348.3    9.620      29.892
2015    7       17     3  41    4.7477   348.3    9.625      29.906
2015    7       17     3  48    4.7502   348.4    9.630      29.920
2015    7       17     3  54    4.7528   348.4    9.635      29.934
2015    7       17     4   0    4.7553   348.4    9.639      29.949
2015    7       17     4   6    4.7578   348.4    9.644      29.963
2015    7       17     4  12    4.7603   348.4    9.649      29.977
2015    7       17     4  19    4.7628   348.4    9.654      29.991
2015    7       17     4  25    4.7653   348.4    9.659      30.005
2015    7       17     4  31    4.7678   348.4    9.664      30.020
2015    7       17     4  37    4.7702   348.4    9.668      30.034
2015    7       17     4  44    4.7727   348.5    9.673      30.048
2015    7       17     4  50    4.7751   348.5    9.678      30.063
2015    7       17     4  56    4.7775   348.5    9.683      30.077
2015    7       17     5   2    4.7799   348.5    9.688      30.091
2015    7       17     5   8    4.7823   348.5    9.692      30.106
2015    7       17     5  15    4.7847   348.5    9.697      30.121
2015    7       17     5  21    4.7870   348.6    9.702      30.135
2015    7       17     5  27    4.7894   348.6    9.706      30.150
2015    7       17     5  33    4.7917   348.6    9.711      30.165
2015    7       17     5  39    4.7940   348.6    9.716      30.180
2015    7       17     5  46    4.7963   348.6    9.720      30.194
2015    7       17     5  52    4.7985   348.6    9.725      30.209
2015    7       17     5  58    4.8008   348.7    9.729      30.224
2015    7       17     6   4    4.8030   348.7    9.734      30.239
2015    7       17     6  11    4.8052   348.7    9.738      30.253
2015    7       17     6  17    4.8073   348.7    9.743      30.268
2015    7       17     6  23    4.8095   348.7    9.747      30.282
2015    7       17     6  29    4.8116   348.8    9.752      30.297
2015    7       17     6  35    4.8137   348.8    9.756      30.312
2015    7       17     6  42    4.8158   348.8    9.760      30.326
2015    7       17     6  48    4.8179   348.8    9.765      30.341
2015    7       17     6  54    4.8200   348.8    9.769      30.355
2015    7       17     7   0    4.8220   348.9    9.773      30.370
2015    7       17     7   6    4.8240   348.9    9.777      30.384
2015    7       17     7  13    4.8260   348.9    9.781      30.399
2015    7       17     7  19    4.8280   348.9    9.786      30.414
2015    7       17     7  25    4.8300   348.9    9.790      30.429
2015    7       17     7  31    4.8319   349.0    9.794      30.443
2015    7       17     7  38    4.8339   349.0    9.798      30.458
2015    7       17     7  44    4.8358   349.0    9.802      30.473
2015    7       17     7  50    4.8377   349.0    9.806      30.488
2015    7       17     7  56    4.8396   349.1    9.809      30.503
2015    7       17     8   2    4.8415   349.1    9.813      30.518
2015    7       17     8   9    4.8434   349.1    9.817      30.532
2015    7       17     8  15    4.8452   349.1    9.821      30.547
2015    7       17     8  21    4.8470   349.2    9.824      30.562
2015    7       17     8  27    4.8489   349.2    9.828      30.577
2015    7       17     8  33    4.8507   349.2    9.832      30.592
2015    7       17     8  40    4.8525   349.2    9.836      30.606
2015    7       17     8  46    4.8542   349.3    9.839      30.621
2015    7       17     8  52    4.8560   349.3    9.843      30.636
2015    7       17     8  58    4.8578   349.3    9.846      30.651
2015    7       17     9   5    4.8595   349.3    9.850      30.666
2015    7       17     9  11    4.8612   349.4    9.854      30.680
2015    7       17     9  17    4.8629   349.4    9.857      30.695
2015    7       17     9  23    4.8647   349.4    9.861      30.710
2015    7       17     9  29    4.8663   349.4    9.864      30.726
2015    7       17     9  36    4.8680   349.5    9.868      30.741
2015    7       17     9  42    4.8697   349.5    9.871      30.756
2015    7       17     9  48    4.8714   349.5    9.875      30.771
2015    7       17     9  54    4.8730   349.5    9.878      30.786
2015    7       17    10   0    4.8747   349.6    9.881      30.801
2015    7       17    10   7    4.8763   349.6    9.885      30.817
2015    7       17    10  13    4.8779   349.6    9.888      30.832
2015    7       17    10  19    4.8796   349.7    9.891      30.847
2015    7       17    10  25    4.8812   349.7    9.894      30.862
2015    7       17    10  32    4.8827   349.7    9.897      30.877
2015    7       17    10  38    4.8843   349.8    9.900      30.891
2015    7       17    10  44    4.8859   349.8    9.903      30.906
2015    7       17    10  50    4.8875   349.8    9.906      30.920
2015    7       17    10  56    4.8890   349.8    9.909      30.935
2015    7       17    11   3    4.8906   349.9    9.912      30.949
2015    7       17    11   9    4.8921   349.9    9.915      30.963
2015    7       17    11  15    4.8936   349.9    9.918      30.977
2015    7       17    11  21    4.8951   350.0    9.921      30.991
2015    7       17    11  28    4.8966   350.0    9.924      31.005
2015    7       17    11  34    4.8981   350.0    9.926      31.018
2015    7       17    11  40    4.8996   350.1    9.929      31.032
2015    7       17    11  46    4.9010   350.1    9.932      31.045
2015    7       17    11  52    4.9024   350.1    9.934      31.059
2015    7       17    11  59    4.9038   350.1    9.937      31.073
2015    7       17    12   5    4.9052   350.2    9.940      31.086
2015    7       17    12  11    4.9066   350.2    9.942      31.100
2015    7       17    12  17    4.9079   350.2    9.945      31.113
2015    7       17    12  24    4.9092   350.3    9.947      31.127
2015    7       17    12  30    4.9105   350.3    9.949      31.140
2015    7       17    12  36    4.9118   350.4    9.951      31.154
2015    7       17    12  42    4.9130   350.4    9.953      31.167
2015    7       17    12  48    4.9143   350.4    9.955      31.181
2015    7       17    12  55    4.9155   350.5    9.957      31.194
2015    7       17    13   1    4.9167   350.5    9.959      31.207
2015    7       17    13   7    4.9178   350.5    9.961      31.220
2015    7       17    13  13    4.9190   350.6    9.963      31.233
2015    7       17    13  19    4.9201   350.6    9.964      31.245
2015    7       17    13  26    4.9212   350.6    9.966      31.258
2015    7       17    13  32    4.9223   350.7    9.967      31.270
2015    7       17    13  38    4.9233   350.7    9.968      31.282
2015    7       17    13  44    4.9244   350.7    9.970      31.294
2015    7       17    13  51    4.9254   350.8    9.971      31.305
2015    7       17    13  57    4.9264   350.8    9.972      31.317
2015    7       17    14   3    4.9274   350.8    9.973      31.328
2015    7       17    14   9    4.9284   350.9    9.974      31.339
2015    7       17    14  15    4.9294   350.9    9.975      31.350
2015    7       17    14  22    4.9303   350.9    9.976      31.360
2015    7       17    14  28    4.9313   351.0    9.977      31.371
2015    7       17    14  34    4.9323   351.0    9.977      31.382
2015    7       17    14  40    4.9332   351.0    9.978      31.392
2015    7       17    14  46    4.9341   351.1    9.979      31.402
2015    7       17    14  53    4.9351   351.1    9.980      31.412
2015    7       17    14  59    4.9360   351.1    9.980      31.422
2015    7       17    15   5    4.9369   351.1    9.981      31.432
2015    7       17    15  11    4.9378   351.2    9.982      31.442
2015    7       17    15  18    4.9387   351.2    9.982      31.451
2015    7       17    15  24    4.9395   351.2    9.983      31.461
2015    7       17    15  30    4.9404   351.3    9.984      31.470
2015    7       17    15  36    4.9413   351.3    9.984      31.479
2015    7       17    15  42    4.9422   351.3    9.985      31.488
2015    7       17    15  49    4.9430   351.4    9.986      31.498
2015    7       17    15  55    4.9439   351.4    9.986      31.507
2015    7       17    16   1    4.9447   351.4    9.987      31.515
2015    7       17    16   7    4.9455   351.5    9.987      31.524
2015    7       17    16  13    4.9464   351.5    9.988      31.534
2015    7       17    16  20    4.9472   351.5    9.989      31.543
2015    7       17    16  26    4.9480   351.6    9.989      31.551
2015    7       17    16  32    4.9488   351.6    9.990      31.560
2015    7       17    16  38    4.9496   351.6    9.990      31.569
2015    7       17    16  45    4.9504   351.6    9.991      31.578
2015    7       17    16  51    4.9511   351.7    9.992      31.587
2015    7       17    16  57    4.9519   351.7    9.992      31.596
2015    7       17    17   3    4.9527   351.7    9.993      31.605
2015    7       17    17   9    4.9534   351.8    9.993      31.614
2015    7       17    17  16    4.9541   351.8    9.994      31.623
2015    7       17    17  22    4.9549   351.8    9.994      31.632
2015    7       17    17  28    4.9556   351.9    9.995      31.641
2015    7       17    17  34    4.9563   351.9    9.995      31.649
2015    7       17    17  40    4.9571   351.9    9.995      31.658
2015    7       17    17  47    4.9578   352.0    9.996      31.666
2015    7       17    17  53    4.9585   352.0    9.996      31.675
2015    7       17    17  59    4.9592   352.0    9.996      31.683
2015    7       17    18   5    4.9600   352.1    9.997      31.691
2015    7       17    18  12    4.9607   352.1    9.997      31.699
2015    7       17    18  18    4.9614   352.1    9.997      31.707
2015    7       17    18  24    4.9621   352.1    9.998      31.715
2015    7       17    18  30    4.9629   352.2    9.998      31.723
2015    7       17    18  36    4.9636   352.2    9.998      31.731
2015    7       17    18  43    4.9643   352.2    9.999      31.739
2015    7       17    18  49    4.9651   352.3    9.999      31.747
2015    7       17    18  55    4.9658   352.3   10.000      31.754
2015    7       17    19   1    4.9666   352.3   10.000      31.762
2015    7       17    19   8    4.9674   352.4   10.001      31.770
2015    7       17    19  14    4.9681   352.4   10.001      31.778
2015    7       17    19  20    4.9689   352.4   10.002      31.786
2015    7       17    19  26    4.9697   352.4   10.002      31.794
2015    7       17    19  32    4.9705   352.5   10.003      31.802
2015    7       17    19  39    4.9713   352.5   10.003      31.809
2015    7       17    19  45    4.9721   352.5   10.004      31.817
2015    7       17    19  51    4.9729   352.6   10.004      31.826
2015    7       17    19  57    4.9737   352.6   10.005      31.834
2015    7       17    20   3    4.9745   352.6   10.005      31.842
2015    7       17    20  10    4.9753   352.7   10.006      31.850
2015    7       17    20  16    4.9762   352.7   10.007      31.858
2015    7       17    20  22    4.9770   352.7   10.007      31.866
2015    7       17    20  28    4.9779   352.8   10.008      31.874
2015    7       17    20  35    4.9787   352.8   10.008      31.882
2015    7       17    20  41    4.9796   352.8   10.009      31.890
2015    7       17    20  47    4.9805   352.9   10.010      31.898
2015    7       17    20  53    4.9814   352.9   10.010      31.905
2015    7       17    20  59    4.9823   352.9   10.011      31.913
2015    7       17    21   6    4.9832   353.0   10.012      31.922
2015    7       17    21  12    4.9841   353.0   10.013      31.930
2015    7       17    21  18    4.9850   353.0   10.013      31.937
2015    7       17    21  24    4.9859   353.1   10.014      31.945
2015    7       17    21  30    4.9868   353.1   10.015      31.953
2015    7       17    21  37    4.9877   353.1   10.016      31.961
2015    7       17    21  43    4.9887   353.2   10.016      31.969
2015    7       17    21  49    4.9896   353.2   10.017      31.977
2015    7       17    21  55    4.9905   353.2   10.018      31.985
2015    7       17    22   2    4.9914   353.3   10.019      31.993
2015    7       17    22   8    4.9923   353.3   10.019      32.001
2015    7       17    22  14    4.9932   353.3   10.020      32.009
2015    7       17    22  20    4.9941   353.3   10.021      32.016
2015    7       17    22  26    4.9950   353.4   10.021      32.024
2015    7       17    22  33    4.9959   353.4   10.022      32.032
2015    7       17    22  39    4.9968   353.4   10.023      32.039
2015    7       17    22  45    4.9977   353.5   10.023      32.047
2015    7       17    22  51    4.9986   353.5   10.024      32.054
2015    7       17    22  57    4.9995   353.5   10.024      32.061
2015    7       17    23   4    5.0004   353.6   10.025      32.068
2015    7       17    23  10    5.0013   353.6   10.025      32.075
2015    7       17    23  16    5.0022   353.6   10.026      32.082
2015    7       17    23  22    5.0032   353.7   10.026      32.089
2015    7       17    23  29    5.0041   353.7   10.026      32.096
2015    7       17    23  35    5.0050   353.7   10.027      32.102
2015    7       17    23  41    5.0059   353.7   10.027      32.109
2015    7       17    23  47    5.0069   353.8   10.027      32.115
2015    7       17    23  53    5.0078   353.8   10.028      32.121
2015    7       18     0   0    5.0088   353.8   10.028      32.128
2015    7       18     0   6    5.0097   353.8   10.028      32.134
2015    7       18     0  12    5.0107   353.9   10.028      32.140
2015    7       18     0  18    5.0117   353.9   10.029      32.145
2015    7       18     0  24    5.0127   353.9   10.029      32.151
2015    7       18     0  31    5.0137   354.0   10.029      32.157
2015    7       18     0  37    5.0147   354.0   10.030      32.163
2015    7       18     0  43    5.0158   354.0   10.030      32.169
2015    7       18     0  49    5.0168   354.0   10.030      32.174
2015    7       18     0  56    5.0179   354.1   10.031      32.180
2015    7       18     1   2    5.0190   354.1   10.031      32.186
2015    7       18     1   8    5.0202   354.1   10.032      32.191
2015    7       18     1  14    5.0213   354.1   10.033      32.197
2015    7       18     1  20    5.0225   354.2   10.033      32.203
2015    7       18     1  27    5.0237   354.2   10.034      32.209
2015    7       18     1  33    5.0249   354.2   10.035      32.215
2015    7       18     1  39    5.0262   354.2   10.036      32.221
2015    7       18     1  45    5.0275   354.2   10.037      32.227
2015    7       18     1  52    5.0289   354.3   10.038      32.233
2015    7       18     1  58    5.0302   354.3   10.040      32.239
2015    7       18     2   4    5.0317   354.3   10.041      32.245
2015    7       18     2  10    5.0331   354.3   10.042      32.252
2015    7       18     2  16    5.0347   354.4   10.044      32.259
2015    7       18     2  23    5.0362   354.4   10.046      32.266
2015    7       18     2  29    5.0378   354.4   10.048      32.273
2015    7       18     2  35    5.0395   354.4   10.050      32.280
2015    7       18     2  41    5.0412   354.5   10.052      32.288
2015    7       18     2  47    5.0429   354.5   10.055      32.295
2015    7       18     2  54    5.0448   354.5   10.057      32.303
2015    7       18     3   0    5.0466   354.5   10.060      32.311
2015    7       18     3   6    5.0486   354.6   10.063      32.320
2015    7       18     3  12    5.0505   354.6   10.066      32.328
2015    7       18     3  19    5.0526   354.6   10.070      32.337
2015    7       18     3  25    5.0547   354.6   10.073      32.347
2015    7       18     3  31    5.0569   354.7   10.077      32.356
2015    7       18     3  37    5.0591   354.7   10.081      32.366
2015    7       18     3  43    5.0614   354.7   10.085      32.377
2015    7       18     3  50    5.0637   354.7   10.090      32.387
2015    7       18     3  56    5.0662   354.8   10.094      32.398
2015    7       18     4   2    5.0686   354.8   10.099      32.410
2015    7       18     4   8    5.0712   354.8   10.104      32.421
2015    7       18     4  14    5.0738   354.8   10.109      32.434
2015    7       18     4  21    5.0764   354.9   10.115      32.446
2015    7       18     4  27    5.0792   354.9   10.121      32.459
2015    7       18     4  33    5.0819   354.9   10.126      32.472
2015    7       18     4  39    5.0848   354.9   10.132      32.486
2015    7       18     4  46    5.0877   355.0   10.139      32.500
2015    7       18     4  52    5.0906   355.0   10.145      32.515
2015    7       18     4  58    5.0937   355.0   10.152      32.530
2015    7       18     5   4    5.0967   355.1   10.159      32.546
2015    7       18     5  10    5.0999   355.1   10.166      32.562
2015    7       18     5  17    5.1030   355.1   10.173      32.578
2015    7       18     5  23    5.1063   355.2   10.180      32.595
2015    7       18     5  29    5.1096   355.2   10.188      32.612
2015    7       18     5  35    5.1129   355.2   10.196      32.629
2015    7       18     5  41    5.1163   355.3   10.204      32.647
2015    7       18     5  48    5.1198   355.3   10.212      32.665
2015    7       18     5  54    5.1233   355.3   10.220      32.684
2015    7       18     6   0    5.1269   355.4   10.228      32.703
2015    7       18     6   6    5.1304   355.4   10.236      32.722
2015    7       18     6  13    5.1341   355.4   10.245      32.742
2015    7       18     6  19    5.1378   355.5   10.254      32.762
2015    7       18     6  25    5.1415   355.5   10.262      32.783
2015    7       18     6  31    5.1453   355.6   10.271      32.804
2015    7       18     6  37    5.1491   355.6   10.280      32.825
2015    7       18     6  44    5.1529   355.6   10.288      32.846
2015    7       18     6  50    5.1568   355.7   10.297      32.868
2015    7       18     6  56    5.1607   355.7   10.306      32.889
2015    7       18     7   2    5.1647   355.8   10.314      32.911
2015    7       18     7   8    5.1686   355.8   10.323      32.933
2015    7       18     7  15    5.1726   355.9   10.332      32.955
2015    7       18     7  21    5.1767   355.9   10.340      32.977
2015    7       18     7  27    5.1807   355.9   10.349      32.999
2015    7       18     7  33    5.1848   356.0   10.357      33.021
2015    7       18     7  40    5.1889   356.0   10.366      33.043
2015    7       18     7  46    5.1930   356.1   10.374      33.064
2015    7       18     7  52    5.1972   356.1   10.382      33.086
2015    7       18     7  58    5.2014   356.2   10.391      33.108
2015    7       18     8   4    5.2057   356.2   10.399      33.129
2015    7       18     8  11    5.2100   356.2   10.407      33.150
2015    7       18     8  17    5.2143   356.3   10.416      33.171
2015    7       18     8  23    5.2187   356.3   10.424      33.192
2015    7       18     8  29    5.2232   356.4   10.433      33.213
2015    7       18     8  36    5.2277   356.4   10.441      33.234
2015    7       18     8  42    5.2324   356.5   10.450      33.255
2015    7       18     8  48    5.2370   356.5   10.459      33.276
2015    7       18     8  54    5.2418   356.5   10.468      33.298
2015    7       18     9   0    5.2466   356.6   10.477      33.319
2015    7       18     9   7    5.2516   356.6   10.486      33.340
2015    7       18     9  13    5.2566   356.7   10.495      33.362
2015    7       18     9  19    5.2618   356.7   10.505      33.384
2015    7       18     9  25    5.2670   356.8   10.515      33.407
2015    7       18     9  31    5.2724   356.8   10.524      33.431
2015    7       18     9  38    5.2778   356.9   10.534      33.455
2015    7       18     9  44    5.2833   356.9   10.544      33.480
2015    7       18     9  50    5.2889   357.0   10.555      33.506
2015    7       18     9  56    5.2946   357.0   10.565      33.533
2015    7       18    10   3    5.3003   357.1   10.575      33.560
2015    7       18    10   9    5.3062   357.2   10.586      33.587
2015    7       18    10  15    5.3121   357.2   10.597      33.615
2015    7       18    10  21    5.3181   357.3   10.607      33.644
2015    7       18    10  27    5.3241   357.3   10.618      33.673
2015    7       18    10  34    5.3302   357.4   10.629      33.703
2015    7       18    10  40    5.3364   357.5   10.639      33.733
2015    7       18    10  46    5.3427   357.5   10.650      33.763
2015    7       18    10  52    5.3490   357.6   10.661      33.794
2015    7       18    10  59    5.3553   357.7   10.672      33.826
2015    7       18    11   5    5.3617   357.7   10.683      33.857
2015    7       18    11  11    5.3682   357.8   10.694      33.889
2015    7       18    11  17    5.3747   357.9   10.705      33.921
2015    7       18    11  23    5.3814   358.0   10.716      33.953
2015    7       18    11  30    5.3880   358.0   10.727      33.985
2015    7       18    11  36    5.3948   358.1   10.739      34.017
2015    7       18    11  42    5.4016   358.2   10.750      34.049
2015    7       18    11  48    5.4085   358.3   10.762      34.082
2015    7       18    11  54    5.4155   358.3   10.774      34.115
2015    7       18    12   1    5.4226   358.4   10.786      34.148
2015    7       18    12   7    5.4297   358.5   10.798      34.181
2015    7       18    12  13    5.4370   358.6   10.811      34.215
2015    7       18    12  19    5.4444   358.6   10.823      34.249
2015    7       18    12  25    5.4518   358.7   10.836      34.283
2015    7       18    12  32    5.4593   358.8   10.849      34.319
2015    7       18    12  38    5.4669   358.9   10.863      34.354
2015    7       18    12  44    5.4746   359.0   10.876      34.391
2015    7       18    12  50    5.4824   359.1   10.890      34.428
2015    7       18    12  57    5.4901   359.2   10.904      34.465
2015    7       18    13   3    5.4980   359.3   10.917      34.504
2015    7       18    13   9    5.5059   359.3   10.931      34.542
2015    7       18    13  15    5.5139   359.4   10.945      34.581
2015    7       18    13  21    5.5219   359.5   10.959      34.621
2015    7       18    13  28    5.5300   359.6   10.973      34.661
2015    7       18    13  34    5.5380   359.7   10.987      34.701
2015    7       18    13  40    5.5461   359.8   11.001      34.742
2015    7       18    13  46    5.5542   359.9   11.015      34.783
2015    7       18    13  52    5.5623   360.0   11.029      34.825
2015    7       18    13  59    5.5703   360.1   11.042      34.867
2015    7       18    14   5    5.5785   360.2   11.056      34.908
2015    7       18    14  11    5.5865   360.3   11.069      34.950
2015    7       18    14  17    5.5946   360.4   11.083      34.992
2015    7       18    14  24    5.6027   360.5   11.096      35.033
2015    7       18    14  30    5.6108   360.6   11.109      35.074
2015    7       18    14  36    5.6189   360.7   11.122      35.116
2015    7       18    14  42    5.6270   360.8   11.135      35.157
2015    7       18    14  48    5.6351   360.9   11.148      35.199
2015    7       18    14  55    5.6432   361.0   11.161      35.241
2015    7       18    15   1    5.6513   361.1   11.174      35.282
2015    7       18    15   7    5.6596   361.2   11.187      35.324
2015    7       18    15  13    5.6677   361.3   11.200      35.365
2015    7       18    15  20    5.6760   361.4   11.213      35.407
2015    7       18    15  26    5.6843   361.5   11.226      35.449
2015    7       18    15  32    5.6926   361.6   11.239      35.492
2015    7       18    15  38    5.7010   361.7   11.252      35.535
2015    7       18    15  44    5.7094   361.8   11.265      35.579
2015    7       18    15  51    5.7178   361.9   11.279      35.624
2015    7       18    15  57    5.7263   362.0   11.292      35.670
2015    7       18    16   3    5.7348   362.1   11.305      35.717
2015    7       18    16   9    5.7434   362.2   11.319      35.764
2015    7       18    16  15    5.7520   362.3   11.332      35.812
2015    7       18    16  22    5.7607   362.4   11.346      35.861
2015    7       18    16  28    5.7694   362.6   11.359      35.910
2015    7       18    16  34    5.7781   362.7   11.373      35.960
2015    7       18    16  40    5.7869   362.8   11.386      36.011
2015    7       18    16  47    5.7956   362.9   11.400      36.063
2015    7       18    16  53    5.8044   363.1   11.413      36.115
2015    7       18    16  59    5.8132   363.2   11.426      36.168
2015    7       18    17   5    5.8220   363.3   11.439      36.222
2015    7       18    17  11    5.8308   363.5   11.452      36.276
2015    7       18    17  18    5.8395   363.6   11.465      36.331
2015    7       18    17  24    5.8483   363.7   11.477      36.386
2015    7       18    17  30    5.8571   363.9   11.490      36.440
2015    7       18    17  36    5.8659   364.0   11.502      36.495
2015    7       18    17  43    5.8747   364.1   11.514      36.549
2015    7       18    17  49    5.8835   364.3   11.526      36.604
2015    7       18    17  55    5.8922   364.4   11.538      36.659
2015    7       18    18   1    5.9010   364.6   11.550      36.714
2015    7       18    18   7    5.9098   364.7   11.561      36.769
2015    7       18    18  14    5.9185   364.9   11.573      36.824
2015    7       18    18  20    5.9273   365.0   11.584      36.880
2015    7       18    18  26    5.9361   365.2   11.596      36.935
2015    7       18    18  32    5.9449   365.3   11.607      36.990
2015    7       18    18  38    5.9537   365.5   11.619      37.044
2015    7       18    18  45    5.9625   365.6   11.631      37.099
2015    7       18    18  51    5.9715   365.8   11.642      37.154
2015    7       18    18  57    5.9804   365.9   11.654      37.209
2015    7       18    19   3    5.9894   366.1   11.667      37.265
2015    7       18    19   9    5.9985   366.2   11.679      37.320
2015    7       18    19  16    6.0076   366.4   11.692      37.376
2015    7       18    19  22    6.0168   366.5   11.706      37.432
2015    7       18    19  28    6.0262   366.7   11.720      37.489
2015    7       18    19  34    6.0357   366.8   11.734      37.546
2015    7       18    19  41    6.0454   367.0   11.749      37.605
2015    7       18    19  47    6.0551   367.2   11.764      37.666
2015    7       18    19  53    6.0650   367.3   11.779      37.729
2015    7       18    19  59    6.0749   367.5   11.795      37.795
2015    7       18    20   5    6.0849   367.7   11.810      37.863
2015    7       18    20  12    6.0949   367.9   11.826      37.934
2015    7       18    20  18    6.1051   368.1   11.842      38.006
2015    7       18    20  24    6.1151   368.3   11.857      38.080
2015    7       18    20  30    6.1253   368.5   11.872      38.155
2015    7       18    20  36    6.1353   368.7   11.887      38.231
2015    7       18    20  43    6.1454   368.9   11.902      38.309
2015    7       18    20  49    6.1553   369.1   11.916      38.388
2015    7       18    20  55    6.1652   369.3   11.929      38.468
2015    7       18    21   1    6.1749   369.5   11.941      38.549
2015    7       18    21   8    6.1846   369.7   11.953      38.630
2015    7       18    21  14    6.1940   369.9   11.964      38.709
2015    7       18    21  20    6.2034   370.1   11.974      38.789
2015    7       18    21  26    6.2125   370.3   11.984      38.867
2015    7       18    21  32    6.2216   370.5   11.992      38.944
2015    7       18    21  39    6.2305   370.7   12.001      39.020
2015    7       18    21  45    6.2393   370.9   12.008      39.095
2015    7       18    21  51    6.2479   371.1   12.015      39.168
2015    7       18    21  57    6.2565   371.3   12.022      39.240
2015    7       18    22   3    6.2649   371.5   12.027      39.312
2015    7       18    22  10    6.2732   371.7   12.033      39.382
2015    7       18    22  16    6.2815   371.9   12.038      39.452
2015    7       18    22  22    6.2896   372.1   12.043      39.520
2015    7       18    22  28    6.2977   372.3   12.047      39.588
2015    7       18    22  35    6.3058   372.5   12.052      39.655
2015    7       18    22  41    6.3137   372.7   12.056      39.721
2015    7       18    22  47    6.3216   372.9   12.059      39.787
2015    7       18    22  53    6.3294   373.1   12.063      39.853
2015    7       18    22  59    6.3373   373.3   12.066      39.919
2015    7       18    23   6    6.3449   373.5   12.069      39.985
2015    7       18    23  12    6.3526   373.7   12.072      40.051
2015    7       18    23  18    6.3602   373.9   12.075      40.117
2015    7       18    23  24    6.3677   374.1   12.078      40.183
2015    7       18    23  31    6.3752   374.3   12.080      40.249
2015    7       18    23  37    6.3826   374.5   12.082      40.315
2015    7       18    23  43    6.3899   374.7   12.084      40.381
2015    7       18    23  49    6.3972   374.9   12.086      40.447
2015    7       18    23  55    6.4044   375.1   12.087      40.512
2015    7       19     0   2    6.4115   375.3   12.089      40.578
2015    7       19     0   8    6.4185   375.5   12.090      40.643
2015    7       19     0  14    6.4255   375.7   12.090      40.708
2015    7       19     0  20    6.4324   375.9   12.091      40.773
2015    7       19     0  26    6.4392   376.1   12.091      40.837
2015    7       19     0  33    6.4459   376.4   12.091      40.902
2015    7       19     0  39    6.4526   376.6   12.091      40.965
2015    7       19     0  45    6.4592   376.8   12.091      41.028
2015    7       19     0  51    6.4658   377.0   12.091      41.090
2015    7       19     0  58    6.4723   377.2   12.091      41.152
2015    7       19     1   4    6.4788   377.4   12.090      41.213
2015    7       19     1  10    6.4852   377.6   12.089      41.273
2015    7       19     1  16    6.4916   377.8   12.089      41.334
2015    7       19     1  22    6.4980   378.0   12.088      41.394
2015    7       19     1  29    6.5043   378.2   12.088      41.453
2015    7       19     1  35    6.5106   378.4   12.087      41.512
2015    7       19     1  41    6.5168   378.6   12.087      41.571
2015    7       19     1  47    6.5231   378.8   12.086      41.630
2015    7       19     1  54    6.5293   379.0   12.086      41.688
2015    7       19     2   0    6.5356   379.2   12.086      41.747
2015    7       19     2   6    6.5418   379.4   12.087      41.805
2015    7       19     2  12    6.5481   379.6   12.087      41.864
2015    7       19     2  18    6.5544   379.8   12.088      41.922
2015    7       19     2  25    6.5607   380.0   12.090      41.981
2015    7       19     2  31    6.5671   380.2   12.092      42.040
2015    7       19     2  37    6.5736   380.4   12.095      42.099
2015    7       19     2  43    6.5801   380.6   12.099      42.159
2015    7       19     2  49    6.5868   380.8   12.103      42.219
2015    7       19     2  56    6.5936   381.0   12.108      42.282
2015    7       19     3   2    6.6005   381.2   12.113      42.346
2015    7       19     3   8    6.6074   381.5   12.120      42.413
2015    7       19     3  14    6.6145   381.7   12.127      42.482
2015    7       19     3  20    6.6217   381.9   12.134      42.554
2015    7       19     3  27    6.6290   382.1   12.142      42.629
2015    7       19     3  33    6.6364   382.3   12.151      42.707
2015    7       19     3  39    6.6439   382.6   12.160      42.788
2015    7       19     3  45    6.6514   382.8   12.171      42.870
2015    7       19     3  52    6.6590   383.0   12.181      42.954
2015    7       19     3  58    6.6668   383.3   12.192      43.043
2015    7       19     4   4    6.6745   383.5   12.203      43.135
2015    7       19     4  10    6.6823   383.8   12.215      43.232
2015    7       19     4  16    6.6901   384.0   12.226      43.332
2015    7       19     4  23    6.6978   384.3   12.237      43.435
2015    7       19     4  29    6.7055   384.6   12.248      43.541
2015    7       19     4  35    6.7131   384.8   12.259      43.649
2015    7       19     4  41    6.7206   385.1   12.269      43.757
2015    7       19     4  48    6.7280   385.4   12.278      43.867
2015    7       19     4  54    6.7352   385.7   12.287      43.977
2015    7       19     5   0    6.7424   386.0   12.296      44.088
2015    7       19     5   6    6.7493   386.3   12.303      44.199
2015    7       19     5  12    6.7561   386.6   12.310      44.310
2015    7       19     5  19    6.7627   386.9   12.315      44.421
2015    7       19     5  25    6.7690   387.2   12.320      44.532
2015    7       19     5  31    6.7752   387.5   12.323      44.641
2015    7       19     5  37    6.7812   387.8   12.326      44.749
2015    7       19     5  43    6.7870   388.1   12.327      44.854
2015    7       19     5  50    6.7926   388.4   12.328      44.958
2015    7       19     5  56    6.7981   388.7   12.328      45.061
2015    7       19     6   2    6.8034   389.0   12.326      45.162
2015    7       19     6   8    6.8085   389.3   12.324      45.261
2015    7       19     6  15    6.8135   389.7   12.321      45.359
2015    7       19     6  21    6.8184   390.0   12.317      45.455
2015    7       19     6  27    6.8232   390.3   12.313      45.550
2015    7       19     6  33    6.8278   390.6   12.308      45.643
2015    7       19     6  39    6.8323   390.9   12.302      45.735
2015    7       19     6  46    6.8368   391.2   12.295      45.825
2015    7       19     6  52    6.8411   391.5   12.288      45.914
2015    7       19     6  58    6.8454   391.9   12.280      46.002
2015    7       19     7   4    6.8496   392.2   12.272      46.089
2015    7       19     7  10    6.8537   392.5   12.263      46.174
2015    7       19     7  17    6.8577   392.8   12.254      46.257
2015    7       19     7  23    6.8617   393.1   12.244      46.340
2015    7       19     7  29    6.8656   393.4   12.234      46.421
2015    7       19     7  35    6.8694   393.7   12.224      46.500
2015    7       19     7  42    6.8731   394.0   12.213      46.579
2015    7       19     7  48    6.8768   394.3   12.202      46.657
2015    7       19     7  54    6.8804   394.6   12.191      46.734
2015    7       19     8   0    6.8840   394.9   12.179      46.810
2015    7       19     8   6    6.8875   395.3   12.167      46.885
2015    7       19     8  13    6.8909   395.6   12.155      46.960
2015    7       19     8  19    6.8942   395.9   12.142      47.034
2015    7       19     8  25    6.8975   396.2   12.130      47.107
2015    7       19     8  31    6.9007   396.5   12.117      47.179
2015    7       19     8  37    6.9038   396.8   12.103      47.251
2015    7       19     8  44    6.9069   397.1   12.090      47.322
2015    7       19     8  50    6.9098   397.4   12.076      47.392
2015    7       19     8  56    6.9127   397.7   12.062      47.462
2015    7       19     9   2    6.9155   398.0   12.048      47.531
2015    7       19     9   8    6.9183   398.3   12.034      47.600
2015    7       19     9  15    6.9210   398.7   12.020      47.667
2015    7       19     9  21    6.9236   399.0   12.005      47.735
2015    7       19     9  27    6.9261   399.3   11.991      47.802
2015    7       19     9  33    6.9286   399.6   11.976      47.869
2015    7       19     9  40    6.9311   399.9   11.962      47.935
2015    7       19     9  46    6.9335   400.2   11.948      48.001
2015    7       19     9  52    6.9359   400.5   11.934      48.067
2015    7       19     9  58    6.9382   400.8   11.919      48.133
2015    7       19    10   4    6.9405   401.1   11.906      48.198
2015    7       19    10  11    6.9428   401.4   11.892      48.264
2015    7       19    10  17    6.9451   401.7   11.879      48.331
2015    7       19    10  23    6.9473   402.0   11.866      48.397
2015    7       19    10  29    6.9495   402.3   11.853      48.464
2015    7       19    10  35    6.9517   402.6   11.841      48.532
2015    7       19    10  42    6.9539   402.9   11.829      48.600
2015    7       19    10  48    6.9561   403.2   11.818      48.670
2015    7       19    10  54    6.9582   403.5   11.807      48.740
2015    7       19    11   0    6.9604   403.8   11.797      48.810
2015    7       19    11   6    6.9625   404.1   11.788      48.881
2015    7       19    11  13    6.9647   404.4   11.780      48.954
2015    7       19    11  19    6.9668   404.8   11.772      49.029
2015    7       19    11  25    6.9690   405.1   11.765      49.109
2015    7       19    11  31    6.9710   405.4   11.758      49.190
2015    7       19    11  38    6.9730   405.7   11.752      49.274
2015    7       19    11  44    6.9749   406.0   11.746      49.360
2015    7       19    11  50    6.9767   406.3   11.740      49.450
2015    7       19    11  56    6.9784   406.7   11.735      49.540
2015    7       19    12   2    6.9799   407.0   11.729      49.633
2015    7       19    12   9    6.9813   407.3   11.723      49.727
2015    7       19    12  15    6.9825   407.7   11.717      49.822
2015    7       19    12  21    6.9835   408.0   11.711      49.918
2015    7       19    12  27    6.9843   408.4   11.704      50.016
2015    7       19    12  34    6.9849   408.7   11.696      50.114
2015    7       19    12  40    6.9852   409.1   11.688      50.214
2015    7       19    12  46    6.9853   409.5   11.680      50.311
2015    7       19    12  52    6.9852   409.8   11.670      50.408
2015    7       19    12  58    6.9849   410.2   11.661      50.504
2015    7       19    13   5    6.9844   410.6   11.650      50.600
2015    7       19    13  11    6.9838   410.9   11.639      50.694
2015    7       19    13  17    6.9829   411.3   11.627      50.787
2015    7       19    13  23    6.9820   411.7   11.615      50.880
2015    7       19    13  29    6.9809   412.1   11.602      50.971
2015    7       19    13  36    6.9797   412.4   11.588      51.062
2015    7       19    13  42    6.9783   412.8   11.574      51.151
2015    7       19    13  48    6.9769   413.2   11.560      51.239
2015    7       19    13  54    6.9753   413.6   11.545      51.326
2015    7       19    14   1    6.9737   414.0   11.530      51.412
2015    7       19    14   7    6.9719   414.4   11.514      51.497
2015    7       19    14  13    6.9701   414.8   11.497      51.580
2015    7       19    14  19    6.9681   415.1   11.481      51.663
2015    7       19    14  25    6.9661   415.5   11.463      51.743
2015    7       19    14  32    6.9639   415.9   11.446      51.822
2015    7       19    14  38    6.9617   416.3   11.428      51.900
2015    7       19    14  44    6.9593   416.7   11.410      51.976
2015    7       19    14  50    6.9569   417.1   11.392      52.050
2015    7       19    14  56    6.9543   417.5   11.373      52.124
2015    7       19    15   3    6.9517   417.9   11.354      52.196
2015    7       19    15   9    6.9489   418.3   11.335      52.266
2015    7       19    15  15    6.9461   418.7   11.315      52.336
2015    7       19    15  21    6.9431   419.1   11.295      52.405
2015    7       19    15  28    6.9400   419.5   11.275      52.473
2015    7       19    15  34    6.9367   419.9   11.254      52.541
2015    7       19    15  40    6.9333   420.3   11.234      52.608
2015    7       19    15  46    6.9298   420.7   11.212      52.675
2015    7       19    15  52    6.9261   421.1   11.190      52.741
2015    7       19    15  59    6.9223   421.5   11.168      52.807
2015    7       19    16   5    6.9183   421.9   11.146      52.872
2015    7       19    16  11    6.9141   422.3   11.123      52.937
2015    7       19    16  17    6.9098   422.7   11.099      53.001
2015    7       19    16  23    6.9052   423.1   11.075      53.064
2015    7       19    16  30    6.9006   423.5   11.050      53.127
2015    7       19    16  36    6.8956   423.9   11.025      53.189
2015    7       19    16  42    6.8905   424.3   10.999      53.249
2015    7       19    16  48    6.8852   424.7   10.973      53.309
2015    7       19    16  54    6.8796   425.1   10.946      53.368
2015    7       19    17   1    6.8738   425.5   10.918      53.426
2015    7       19    17   7    6.8678   425.9   10.890      53.481
2015    7       19    17  13    6.8615   426.3   10.861      53.535
2015    7       19    17  19    6.8550   426.7   10.832      53.587
2015    7       19    17  26    6.8481   427.2   10.801      53.639
2015    7       19    17  32    6.8410   427.6   10.769      53.688
2015    7       19    17  38    6.8334   428.0   10.737      53.735
2015    7       19    17  44    6.8256   428.4   10.704      53.778
2015    7       19    17  50    6.8174   428.8   10.670      53.817
2015    7       19    17  57    6.8090   429.2   10.636      53.854
2015    7       19    18   3    6.8002   429.6   10.601      53.889
2015    7       19    18   9    6.7912   430.0   10.566      53.921
2015    7       19    18  15    6.7818   430.4   10.530      53.951
2015    7       19    18  21    6.7722   430.8   10.495      53.978
2015    7       19    18  28    6.7623   431.1   10.458      54.004
2015    7       19    18  34    6.7522   431.5   10.422      54.029
2015    7       19    18  40    6.7417   431.9   10.386      54.052
2015    7       19    18  46    6.7312   432.3   10.349      54.074
2015    7       19    18  53    6.7202   432.7   10.313      54.093
2015    7       19    18  59    6.7092   433.1   10.276      54.111
2015    7       19    19   5    6.6977   433.4   10.240      54.127
2015    7       19    19  11    6.6863   433.8   10.204      54.143
2015    7       19    19  17    6.6744   434.2   10.167      54.159
2015    7       19    19  24    6.6625   434.6   10.131      54.174
2015    7       19    19  30    6.6502   434.9   10.094      54.187
2015    7       19    19  36    6.6379   435.3   10.058      54.199
2015    7       19    19  42    6.6253   435.7   10.021      54.208
2015    7       19    19  48    6.6127   436.0    9.985      54.217
2015    7       19    19  55    6.5997   436.4    9.949      54.223
2015    7       19    20   1    6.5868   436.7    9.913      54.228
2015    7       19    20   7    6.5737   437.1    9.878      54.232
2015    7       19    20  13    6.5606   437.4    9.842      54.235
2015    7       19    20  20    6.5472   437.8    9.807      54.236
2015    7       19    20  26    6.5340   438.1    9.772      54.236
2015    7       19    20  32    6.5205   438.5    9.737      54.235
2015    7       19    20  38    6.5072   438.8    9.703      54.232
2015    7       19    20  44    6.4937   439.1    9.669      54.228
2015    7       19    20  51    6.4804   439.5    9.635      54.223
2015    7       19    20  57    6.4669   439.8    9.601      54.218
2015    7       19    21   3    6.4535   440.2    9.568      54.213
2015    7       19    21   9    6.4399   440.5    9.536      54.207
2015    7       19    21  15    6.4265   440.8    9.503      54.200
2015    7       19    21  22    6.4129   441.2    9.471      54.192
2015    7       19    21  28    6.3994   441.5    9.439      54.184
2015    7       19    21  34    6.3858   441.8    9.407      54.174
2015    7       19    21  40    6.3722   442.1    9.376      54.164
2015    7       19    21  47    6.3585   442.5    9.344      54.152
2015    7       19    21  53    6.3449   442.8    9.313      54.139
2015    7       19    21  59    6.3310   443.1    9.283      54.125
2015    7       19    22   5    6.3173   443.4    9.252      54.110
2015    7       19    22  11    6.3034   443.8    9.222      54.094
2015    7       19    22  18    6.2896   444.1    9.192      54.077
2015    7       19    22  24    6.2756   444.4    9.162      54.059
2015    7       19    22  30    6.2616   444.7    9.132      54.040
2015    7       19    22  36    6.2475   445.1    9.102      54.021
2015    7       19    22  43    6.2335   445.4    9.073      54.001
2015    7       19    22  49    6.2192   445.7    9.044      53.981
2015    7       19    22  55    6.2050   446.0    9.015      53.961
2015    7       19    23   1    6.1906   446.3    8.985      53.941
2015    7       19    23   7    6.1763   446.6    8.957      53.921
2015    7       19    23  14    6.1618   446.9    8.928      53.901
2015    7       19    23  20    6.1473   447.3    8.899      53.880
2015    7       19    23  26    6.1326   447.6    8.870      53.860
2015    7       19    23  32    6.1180   447.9    8.841      53.839
2015    7       19    23  38    6.1031   448.2    8.812      53.818
2015    7       19    23  45    6.0883   448.5    8.782      53.797
2015    7       19    23  51    6.0732   448.8    8.753      53.776
2015    7       19    23  57    6.0581   449.1    8.724      53.754
2015    7       20     0   3    6.0428   449.4    8.694      53.731
2015    7       20     0  10    6.0275   449.7    8.664      53.707
2015    7       20     0  16    6.0120   450.0    8.634      53.681
2015    7       20     0  22    5.9964   450.3    8.604      53.654
2015    7       20     0  28    5.9806   450.6    8.573      53.624
2015    7       20     0  34    5.9647   451.0    8.542      53.593
2015    7       20     0  41    5.9485   451.3    8.510      53.560
2015    7       20     0  47    5.9323   451.6    8.478      53.526
2015    7       20     0  53    5.9158   451.9    8.445      53.487
2015    7       20     0  59    5.8991   452.2    8.412      53.444
2015    7       20     1   6    5.8822   452.5    8.379      53.397
2015    7       20     1  12    5.8653   452.7    8.345      53.346
2015    7       20     1  18    5.8481   453.0    8.312      53.291
2015    7       20     1  24    5.8309   453.3    8.278      53.233
2015    7       20     1  30    5.8135   453.6    8.244      53.172
2015    7       20     1  37    5.7962   453.8    8.211      53.108
2015    7       20     1  43    5.7787   454.1    8.177      53.042
2015    7       20     1  49    5.7612   454.4    8.143      52.974
2015    7       20     1  55    5.7436   454.6    8.110      52.904
2015    7       20     2   1    5.7262   454.9    8.077      52.834
2015    7       20     2   8    5.7086   455.1    8.044      52.760
2015    7       20     2  14    5.6911   455.3    8.011      52.683
2015    7       20     2  20    5.6735   455.5    7.979      52.605
2015    7       20     2  26    5.6561   455.8    7.947      52.528
2015    7       20     2  33    5.6386   456.0    7.915      52.450
2015    7       20     2  39    5.6212   456.2    7.883      52.370
2015    7       20     2  45    5.6037   456.4    7.852      52.289
2015    7       20     2  51    5.5864   456.6    7.821      52.205
2015    7       20     2  57    5.5691   456.8    7.790      52.119
2015    7       20     3   4    5.5519   457.0    7.760      52.031
2015    7       20     3  10    5.5347   457.2    7.730      51.941
2015    7       20     3  16    5.5176   457.4    7.701      51.850
2015    7       20     3  22    5.5005   457.6    7.671      51.756
2015    7       20     3  29    5.4836   457.7    7.642      51.662
2015    7       20     3  35    5.4667   457.9    7.613      51.567
2015    7       20     3  41    5.4499   458.1    7.585      51.471
2015    7       20     3  47    5.4331   458.2    7.557      51.373
2015    7       20     3  53    5.4165   458.4    7.529      51.274
2015    7       20     4   0    5.4000   458.6    7.502      51.174
2015    7       20     4   6    5.3836   458.7    7.475      51.075
2015    7       20     4  12    5.3673   458.9    7.448      50.975
2015    7       20     4  18    5.3511   459.0    7.422      50.875
2015    7       20     4  24    5.3349   459.2    7.396      50.776
2015    7       20     4  31    5.3189   459.3    7.370      50.676
2015    7       20     4  37    5.3029   459.4    7.344      50.576
2015    7       20     4  43    5.2871   459.6    7.318      50.475
2015    7       20     4  49    5.2712   459.7    7.293      50.373
2015    7       20     4  56    5.2555   459.8    7.268      50.270
2015    7       20     5   2    5.2398   460.0    7.243      50.166
2015    7       20     5   8    5.2243   460.1    7.219      50.062
2015    7       20     5  14    5.2087   460.2    7.195      49.956
2015    7       20     5  20    5.1933   460.3    7.171      49.849
2015    7       20     5  27    5.1779   460.4    7.147      49.742
2015    7       20     5  33    5.1626   460.6    7.124      49.635
2015    7       20     5  39    5.1473   460.7    7.100      49.527
2015    7       20     5  45    5.1321   460.8    7.077      49.419
2015    7       20     5  51    5.1169   460.9    7.054      49.310
2015    7       20     5  58    5.1018   461.0    7.032      49.202
2015    7       20     6   4    5.0867   461.1    7.009      49.094
2015    7       20     6  10    5.0718   461.2    6.987      48.986
2015    7       20     6  16    5.0568   461.3    6.965      48.878
2015    7       20     6  23    5.0420   461.4    6.943      48.771
2015    7       20     6  29    5.0272   461.4    6.921      48.664
2015    7       20     6  35    5.0125   461.5    6.900      48.558
2015    7       20     6  41    4.9978   461.6    6.879      48.452
2015    7       20     6  47    4.9832   461.7    6.858      48.347
2015    7       20     6  54    4.9687   461.7    6.837      48.242
2015    7       20     7   0    4.9543   461.8    6.817      48.139
2015    7       20     7   6    4.9400   461.9    6.797      48.035
2015    7       20     7  12    4.9258   461.9    6.777      47.932
2015    7       20     7  19    4.9117   462.0    6.757      47.830
2015    7       20     7  25    4.8977   462.0    6.738      47.730
2015    7       20     7  31    4.8838   462.1    6.719      47.629
2015    7       20     7  37    4.8700   462.1    6.700      47.530
2015    7       20     7  43    4.8563   462.2    6.682      47.431
2015    7       20     7  50    4.8428   462.2    6.664      47.334
2015    7       20     7  56    4.8293   462.2    6.646      47.237
2015    7       20     8   2    4.8160   462.3    6.629      47.141
2015    7       20     8   8    4.8029   462.3    6.611      47.046
2015    7       20     8  14    4.7899   462.3    6.594      46.953
2015    7       20     8  21    4.7770   462.3    6.578      46.859
2015    7       20     8  27    4.7642   462.4    6.562      46.768
2015    7       20     8  33    4.7516   462.4    6.545      46.676
2015    7       20     8  39    4.7391   462.4    6.530      46.587
2015    7       20     8  46    4.7268   462.4    6.514      46.497
2015    7       20     8  52    4.7147   462.4    6.499      46.410
2015    7       20     8  58    4.7026   462.4    6.485      46.322
2015    7       20     9   4    4.6908   462.4    6.470      46.236
2015    7       20     9  10    4.6791   462.3    6.456      46.151
2015    7       20     9  17    4.6675   462.3    6.442      46.066
2015    7       20     9  23    4.6560   462.3    6.429      45.982
2015    7       20     9  29    4.6448   462.3    6.416      45.899
2015    7       20     9  35    4.6336   462.3    6.403      45.816
2015    7       20     9  42    4.6226   462.2    6.390      45.734
2015    7       20     9  48    4.6118   462.2    6.378      45.651
2015    7       20     9  54    4.6010   462.2    6.366      45.569
2015    7       20    10   0    4.5904   462.1    6.355      45.486
2015    7       20    10   6    4.5800   462.1    6.344      45.404
2015    7       20    10  13    4.5696   462.1    6.333      45.321
2015    7       20    10  19    4.5594   462.0    6.323      45.238
2015    7       20    10  25    4.5493   462.0    6.312      45.155
2015    7       20    10  31    4.5393   462.0    6.303      45.072
2015    7       20    10  38    4.5294   461.9    6.293      44.989
2015    7       20    10  44    4.5196   461.9    6.284      44.907
2015    7       20    10  50    4.5099   461.8    6.274      44.825
2015    7       20    10  56    4.5003   461.8    6.265      44.745
2015    7       20    11   2    4.4908   461.8    6.256      44.664
2015    7       20    11   9    4.4814   461.7    6.248      44.585
2015    7       20    11  15    4.4720   461.7    6.239      44.506
2015    7       20    11  21    4.4628   461.7    6.230      44.429
2015    7       20    11  27    4.4536   461.6    6.221      44.352
2015    7       20    11  33    4.4445   461.6    6.212      44.276
2015    7       20    11  40    4.4355   461.6    6.203      44.200
2015    7       20    11  46    4.4266   461.5    6.194      44.126
2015    7       20    11  52    4.4177   461.5    6.185      44.051
2015    7       20    11  58    4.4090   461.4    6.176      43.977
2015    7       20    12   5    4.4003   461.4    6.167      43.901
2015    7       20    12  11    4.3917   461.3    6.158      43.826
2015    7       20    12  17    4.3831   461.3    6.149      43.750
2015    7       20    12  23    4.3746   461.2    6.140      43.674
2015    7       20    12  29    4.3662   461.2    6.131      43.598
2015    7       20    12  36    4.3579   461.2    6.122      43.521
2015    7       20    12  42    4.3497   461.1    6.112      43.444
2015    7       20    12  48    4.3415   461.1    6.103      43.367
2015    7       20    12  54    4.3334   461.0    6.094      43.289
2015    7       20    13   0    4.3254   461.0    6.085      43.212
2015    7       20    13   7    4.3174   460.9    6.075      43.134
2015    7       20    13  13    4.3095   460.9    6.066      43.057
2015    7       20    13  19    4.3016   460.8    6.057      42.979
2015    7       20    13  25    4.2938   460.8    6.047      42.902
2015    7       20    13  32    4.2861   460.7    6.038      42.825
2015    7       20    13  38    4.2785   460.7    6.028      42.749
2015    7       20    13  44    4.2709   460.6    6.019      42.673
2015    7       20    13  50    4.2634   460.6    6.009      42.598
2015    7       20    13  56    4.2559   460.5    6.000      42.523
2015    7       20    14   3    4.2485   460.5    5.990      42.449
2015    7       20    14   9    4.2412   460.4    5.981      42.374
2015    7       20    14  15    4.2340   460.3    5.972      42.300
2015    7       20    14  21    4.2268   460.3    5.962      42.227
2015    7       20    14  27    4.2197   460.2    5.953      42.154
2015    7       20    14  34    4.2127   460.2    5.943      42.081
2015    7       20    14  40    4.2057   460.1    5.934      42.008
2015    7       20    14  46    4.1989   460.0    5.925      41.936
2015    7       20    14  52    4.1921   460.0    5.916      41.865
2015    7       20    14  59    4.1853   459.9    5.906      41.794
2015    7       20    15   5    4.1787   459.8    5.897      41.724
2015    7       20    15  11    4.1721   459.8    5.888      41.653
2015    7       20    15  17    4.1656   459.7    5.879      41.584
2015    7       20    15  23    4.1592   459.6    5.871      41.515
2015    7       20    15  30    4.1528   459.6    5.862      41.446
2015    7       20    15  36    4.1465   459.5    5.853      41.378
2015    7       20    15  42    4.1403   459.4    5.845      41.310
2015    7       20    15  48    4.1342   459.4    5.836      41.243
2015    7       20    15  55    4.1281   459.3    5.828      41.176
2015    7       20    16   1    4.1221   459.2    5.820      41.110
2015    7       20    16   7    4.1162   459.1    5.812      41.044
2015    7       20    16  13    4.1104   459.0    5.804      40.978
2015    7       20    16  19    4.1047   459.0    5.797      40.913
2015    7       20    16  26    4.0990   458.9    5.789      40.848
2015    7       20    16  32    4.0934   458.8    5.782      40.783
2015    7       20    16  38    4.0879   458.7    5.775      40.718
2015    7       20    16  44    4.0824   458.6    5.768      40.654
2015    7       20    16  50    4.0770   458.5    5.762      40.590
2015    7       20    16  57    4.0717   458.4    5.756      40.525
2015    7       20    17   3    4.0665   458.3    5.750      40.461
2015    7       20    17   9    4.0614   458.2    5.744      40.397
2015    7       20    17  15    4.0563   458.1    5.738      40.332
2015    7       20    17  22    4.0512   458.1    5.733      40.269
2015    7       20    17  28    4.0462   458.0    5.728      40.205
2015    7       20    17  34    4.0413   457.9    5.723      40.141
2015    7       20    17  40    4.0365   457.8    5.719      40.077
2015    7       20    17  46    4.0316   457.7    5.714      40.014
2015    7       20    17  53    4.0269   457.6    5.710      39.951
2015    7       20    17  59    4.0222   457.4    5.706      39.888
2015    7       20    18   5    4.0175   457.3    5.703      39.826
2015    7       20    18  11    4.0129   457.2    5.699      39.765
2015    7       20    18  18    4.0083   457.1    5.695      39.705
2015    7       20    18  24    4.0038   457.0    5.692      39.645
2015    7       20    18  30    3.9993   456.9    5.689      39.587
2015    7       20    18  36    3.9949   456.8    5.685      39.530
2015    7       20    18  42    3.9905   456.7    5.682      39.473
2015    7       20    18  49    3.9861   456.6    5.679      39.418
2015    7       20    18  55    3.9818   456.5    5.676      39.363
2015    7       20    19   1    3.9775   456.4    5.673      39.310
2015    7       20    19   7    3.9733   456.3    5.670      39.257
2015    7       20    19  13    3.9691   456.1    5.667      39.204
2015    7       20    19  20    3.9649   456.0    5.663      39.153
2015    7       20    19  26    3.9608   455.9    5.660      39.102
2015    7       20    19  32    3.9567   455.8    5.657      39.052
2015    7       20    19  38    3.9527   455.7    5.654      39.002
2015    7       20    19  45    3.9487   455.6    5.651      38.952
2015    7       20    19  51    3.9447   455.4    5.647      38.903
2015    7       20    19  57    3.9407   455.3    5.644      38.855
2015    7       20    20   3    3.9368   455.2    5.641      38.806
2015    7       20    20   9    3.9330   455.1    5.637      38.758
2015    7       20    20  16    3.9291   455.0    5.634      38.710
2015    7       20    20  22    3.9254   454.9    5.630      38.661
2015    7       20    20  28    3.9216   454.7    5.627      38.613
2015    7       20    20  34    3.9179   454.6    5.623      38.565
2015    7       20    20  40    3.9142   454.5    5.620      38.518
2015    7       20    20  47    3.9106   454.4    5.616      38.470
2015    7       20    20  53    3.9070   454.2    5.613      38.422
2015    7       20    20  59    3.9034   454.1    5.609      38.375
2015    7       20    21   5    3.8999   454.0    5.606      38.328
2015    7       20    21  12    3.8964   453.9    5.602      38.280
2015    7       20    21  18    3.8929   453.8    5.599      38.233
2015    7       20    21  24    3.8895   453.6    5.595      38.186
2015    7       20    21  30    3.8861   453.5    5.592      38.139
2015    7       20    21  36    3.8828   453.4    5.588      38.091
2015    7       20    21  43    3.8794   453.3    5.585      38.044
2015    7       20    21  49    3.8762   453.1    5.581      37.997
2015    7       20    21  55    3.8729   453.0    5.578      37.950
2015    7       20    22   1    3.8697   452.9    5.574      37.902
2015    7       20    22   7    3.8665   452.8    5.571      37.855
2015    7       20    22  14    3.8634   452.6    5.567      37.807
2015    7       20    22  20    3.8603   452.5    5.564      37.760
2015    7       20    22  26    3.8572   452.4    5.561      37.713
2015    7       20    22  32    3.8542   452.3    5.558      37.665
2015    7       20    22  39    3.8512   452.1    5.554      37.618
2015    7       20    22  45    3.8483   452.0    5.551      37.571
2015    7       20    22  51    3.8454   451.9    5.548      37.523
2015    7       20    22  57    3.8425   451.7    5.545      37.476
2015    7       20    23   3    3.8397   451.6    5.542      37.429
2015    7       20    23  10    3.8369   451.5    5.540      37.383
2015    7       20    23  16    3.8342   451.4    5.537      37.336
2015    7       20    23  22    3.8316   451.2    5.535      37.290
2015    7       20    23  28    3.8289   451.1    5.532      37.244
2015    7       20    23  35    3.8264   451.0    5.530      37.199
2015    7       20    23  41    3.8239   450.8    5.528      37.153
2015    7       20    23  47    3.8214   450.7    5.526      37.109
2015    7       20    23  53    3.8190   450.6    5.524      37.064
2015    7       20    23  59    3.8166   450.5    5.522      37.020
2015    7       21     0   6    3.8143   450.3    5.520      36.976
2015    7       21     0  12    3.8120   450.2    5.519      36.933
2015    7       21     0  18    3.8098   450.1    5.517      36.891
2015    7       21     0  24    3.8076   449.9    5.516      36.849
2015    7       21     0  30    3.8054   449.8    5.515      36.807
2015    7       21     0  37    3.8033   449.7    5.514      36.766
2015    7       21     0  43    3.8012   449.6    5.513      36.725
2015    7       21     0  49    3.7991   449.4    5.512      36.685
2015    7       21     0  55    3.7971   449.3    5.511      36.645
2015    7       21     1   2    3.7951   449.2    5.511      36.606
2015    7       21     1   8    3.7931   449.0    5.510      36.568
2015    7       21     1  14    3.7912   448.9    5.510      36.530
2015    7       21     1  20    3.7893   448.8    5.509      36.492
2015    7       21     1  26    3.7874   448.6    5.509      36.455
2015    7       21     1  33    3.7855   448.5    5.509      36.418
2015    7       21     1  39    3.7837   448.4    5.508      36.382
2015    7       21     1  45    3.7818   448.2    5.508      36.346
2015    7       21     1  51    3.7800   448.1    5.508      36.311
2015    7       21     1  58    3.7782   448.0    5.508      36.276
2015    7       21     2   4    3.7765   447.8    5.508      36.241
2015    7       21     2  10    3.7747   447.7    5.508      36.206
2015    7       21     2  16    3.7730   447.6    5.508      36.172
2015    7       21     2  22    3.7713   447.4    5.508      36.138
2015    7       21     2  29    3.7696   447.3    5.508      36.105
2015    7       21     2  35    3.7679   447.2    5.508      36.072
2015    7       21     2  41    3.7662   447.0    5.508      36.039
2015    7       21     2  47    3.7646   446.9    5.509      36.006
2015    7       21     2  53    3.7630   446.8    5.509      35.974
2015    7       21     3   0    3.7614   446.6    5.509      35.942
2015    7       21     3   6    3.7598   446.5    5.509      35.910
2015    7       21     3  12    3.7583   446.4    5.509      35.878
2015    7       21     3  18    3.7567   446.2    5.509      35.847
2015    7       21     3  25    3.7552   446.1    5.508      35.816
2015    7       21     3  31    3.7537   446.0    5.508      35.785
2015    7       21     3  37    3.7522   445.8    5.508      35.753
2015    7       21     3  43    3.7507   445.7    5.508      35.722
2015    7       21     3  49    3.7492   445.5    5.508      35.691
2015    7       21     3  56    3.7478   445.4    5.508      35.660
2015    7       21     4   2    3.7464   445.3    5.508      35.629
2015    7       21     4   8    3.7449   445.1    5.507      35.599
2015    7       21     4  14    3.7435   445.0    5.507      35.568
2015    7       21     4  20    3.7422   444.9    5.507      35.537
2015    7       21     4  27    3.7408   444.7    5.506      35.506
2015    7       21     4  33    3.7394   444.6    5.506      35.475
2015    7       21     4  39    3.7381   444.4    5.506      35.445
2015    7       21     4  45    3.7368   444.3    5.506      35.414
2015    7       21     4  52    3.7355   444.2    5.505      35.383
2015    7       21     4  58    3.7342   444.0    5.505      35.353
2015    7       21     5   4    3.7330   443.9    5.505      35.322
2015    7       21     5  10    3.7317   443.7    5.504      35.292
2015    7       21     5  16    3.7306   443.6    5.504      35.262
2015    7       21     5  23    3.7294   443.5    5.504      35.232
2015    7       21     5  29    3.7282   443.3    5.504      35.201
2015    7       21     5  35    3.7271   443.2    5.503      35.171
2015    7       21     5  41    3.7260   443.0    5.503      35.141
2015    7       21     5  47    3.7249   442.9    5.503      35.111
2015    7       21     5  54    3.7238   442.7    5.503      35.081
2015    7       21     6   0    3.7228   442.6    5.503      35.051
2015    7       21     6   6    3.7218   442.5    5.503      35.021
2015    7       21     6  12    3.7208   442.3    5.503      34.991
2015    7       21     6  19    3.7199   442.2    5.503      34.962
2015    7       21     6  25    3.7190   442.0    5.503      34.932
2015    7       21     6  31    3.7181   441.9    5.503      34.903
2015    7       21     6  37    3.7173   441.7    5.503      34.873
2015    7       21     6  43    3.7165   441.6    5.503      34.844
2015    7       21     6  50    3.7157   441.5    5.504      34.815
2015    7       21     6  56    3.7149   441.3    5.504      34.785
2015    7       21     7   2    3.7142   441.2    5.504      34.756
2015    7       21     7   8    3.7135   441.0    5.504      34.727
2015    7       21     7  14    3.7128   440.9    5.505      34.698
2015    7       21     7  21    3.7122   440.8    5.505      34.669
2015    7       21     7  27    3.7116   440.6    5.506      34.641
2015    7       21     7  33    3.7110   440.5    5.506      34.612
2015    7       21     7  39    3.7104   440.3    5.507      34.583
2015    7       21     7  46    3.7099   440.2    5.507      34.555
2015    7       21     7  52    3.7093   440.0    5.508      34.526
2015    7       21     7  58    3.7088   439.9    5.509      34.498
2015    7       21     8   4    3.7083   439.8    5.509      34.470
2015    7       21     8  10    3.7078   439.6    5.510      34.442
2015    7       21     8  17    3.7074   439.5    5.511      34.414
2015    7       21     8  23    3.7069   439.3    5.512      34.386
2015    7       21     8  29    3.7065   439.2    5.512      34.358
2015    7       21     8  35    3.7061   439.1    5.513      34.331
2015    7       21     8  42    3.7057   438.9    5.514      34.303
2015    7       21     8  48    3.7054   438.8    5.515      34.276
2015    7       21     8  54    3.7050   438.6    5.516      34.249
2015    7       21     9   0    3.7047   438.5    5.517      34.222
2015    7       21     9   6    3.7043   438.4    5.518      34.195
2015    7       21     9  13    3.7041   438.2    5.519      34.168
2015    7       21     9  19    3.7038   438.1    5.520      34.142
2015    7       21     9  25    3.7035   437.9    5.521      34.115
2015    7       21     9  31    3.7033   437.8    5.523      34.089
2015    7       21     9  37    3.7031   437.7    5.524      34.063
2015    7       21     9  44    3.7029   437.5    5.525      34.038
2015    7       21     9  50    3.7027   437.4    5.526      34.012
2015    7       21     9  56    3.7026   437.2    5.528      33.987
2015    7       21    10   2    3.7025   437.1    5.529      33.962
2015    7       21    10   9    3.7024   437.0    5.530      33.938
2015    7       21    10  15    3.7023   436.8    5.532      33.913
2015    7       21    10  21    3.7022   436.7    5.533      33.889
2015    7       21    10  27    3.7022   436.5    5.535      33.865
2015    7       21    10  33    3.7022   436.4    5.536      33.841
2015    7       21    10  40    3.7022   436.3    5.538      33.818
2015    7       21    10  46    3.7022   436.1    5.539      33.794
2015    7       21    10  52    3.7022   436.0    5.541      33.771
2015    7       21    10  58    3.7023   435.8    5.543      33.748
2015    7       21    11   4    3.7024   435.7    5.544      33.725
2015    7       21    11  11    3.7024   435.6    5.546      33.702
2015    7       21    11  17    3.7026   435.4    5.548      33.679
2015    7       21    11  23    3.7027   435.3    5.550      33.657
2015    7       21    11  29    3.7029   435.1    5.551      33.634
2015    7       21    11  36    3.7031   435.0    5.553      33.612
2015    7       21    11  42    3.7033   434.9    5.555      33.590
2015    7       21    11  48    3.7035   434.7    5.558      33.568
2015    7       21    11  54    3.7037   434.6    5.560      33.546
2015    7       21    12   0    3.7040   434.4    5.562      33.525
2015    7       21    12   7    3.7043   434.3    5.564      33.504
2015    7       21    12  13    3.7046   434.2    5.567      33.483
2015    7       21    12  19    3.7050   434.0    5.569      33.462
2015    7       21    12  25    3.7054   433.9    5.572      33.442
2015    7       21    12  31    3.7058   433.7    5.575      33.422
2015    7       21    12  38    3.7063   433.6    5.577      33.403
2015    7       21    12  44    3.7068   433.4    5.580      33.383
2015    7       21    12  50    3.7074   433.3    5.583      33.365
2015    7       21    12  56    3.7080   433.2    5.587      33.346
2015    7       21    13   3    3.7086   433.0    5.590      33.328
2015    7       21    13   9    3.7093   432.9    5.593      33.310
2015    7       21    13  15    3.7100   432.7    5.597      33.293
2015    7       21    13  21    3.7108   432.6    5.600      33.277
2015    7       21    13  27    3.7116   432.5    5.604      33.260
2015    7       21    13  34    3.7125   432.3    5.608      33.244
2015    7       21    13  40    3.7134   432.2    5.612      33.229
2015    7       21    13  46    3.7144   432.0    5.616      33.214
2015    7       21    13  52    3.7155   431.9    5.620      33.200
2015    7       21    13  58    3.7166   431.8    5.624      33.186
2015    7       21    14   5    3.7177   431.6    5.629      33.172
2015    7       21    14  11    3.7189   431.5    5.633      33.159
2015    7       21    14  17    3.7201   431.3    5.638      33.146
2015    7       21    14  23    3.7214   431.2    5.642      33.134
2015    7       21    14  30    3.7228   431.1    5.647      33.122
2015    7       21    14  36    3.7242   430.9    5.651      33.110
2015    7       21    14  42    3.7256   430.8    5.656      33.099
2015    7       21    14  48    3.7271   430.7    5.661      33.088
2015    7       21    14  54    3.7286   430.5    5.666      33.077
2015    7       21    15   1    3.7302   430.4    5.671      33.067
2015    7       21    15   7    3.7317   430.3    5.675      33.057
2015    7       21    15  13    3.7334   430.1    5.680      33.047
2015    7       21    15  19    3.7351   430.0    5.685      33.038
2015    7       21    15  26    3.7368   429.9    5.690      33.029
2015    7       21    15  32    3.7386   429.8    5.695      33.020
2015    7       21    15  38    3.7404   429.6    5.700      33.011
2015    7       21    15  44    3.7422   429.5    5.705      33.003
2015    7       21    15  50    3.7441   429.4    5.710      32.995
2015    7       21    15  57    3.7460   429.2    5.715      32.987
2015    7       21    16   3    3.7480   429.1    5.720      32.979
2015    7       21    16   9    3.7500   429.0    5.725      32.972
2015    7       21    16  15    3.7520   428.9    5.730      32.965
2015    7       21    16  21    3.7541   428.7    5.735      32.958
2015    7       21    16  28    3.7562   428.6    5.740      32.952
2015    7       21    16  34    3.7584   428.5    5.745      32.946
2015    7       21    16  40    3.7606   428.3    5.751      32.940
2015    7       21    16  46    3.7628   428.2    5.756      32.935
2015    7       21    16  53    3.7651   428.1    5.761      32.930
2015    7       21    16  59    3.7674   428.0    5.766      32.925
2015    7       21    17   5    3.7698   427.9    5.772      32.921
2015    7       21    17  11    3.7721   427.7    5.777      32.917
2015    7       21    17  17    3.7746   427.6    5.783      32.913
2015    7       21    17  24    3.7770   427.5    5.788      32.910
2015    7       21    17  30    3.7795   427.4    5.794      32.907
2015    7       21    17  36    3.7821   427.3    5.800      32.905
2015    7       21    17  42    3.7846   427.2    5.805      32.903
2015    7       21    17  48    3.7872   427.0    5.811      32.901
2015    7       21    17  55    3.7899   426.9    5.817      32.900
2015    7       21    18   1    3.7925   426.8    5.823      32.899
2015    7       21    18   7    3.7952   426.7    5.829      32.898
2015    7       21    18  13    3.7979   426.6    5.836      32.898
2015    7       21    18  20    3.8007   426.5    5.842      32.898
2015    7       21    18  26    3.8034   426.4    5.848      32.898
2015    7       21    18  32    3.8062   426.3    5.855      32.899
2015    7       21    18  38    3.8090   426.2    5.861      32.900
2015    7       21    18  44    3.8119   426.1    5.868      32.901
2015    7       21    18  51    3.8147   425.9    5.874      32.902
2015    7       21    18  57    3.8176   425.8    5.881      32.904
2015    7       21    19   3    3.8205   425.7    5.888      32.906
2015    7       21    19   9    3.8235   425.6    5.895      32.908
2015    7       21    19  15    3.8264   425.5    5.902      32.910
2015    7       21    19  22    3.8295   425.4    5.909      32.913
2015    7       21    19  28    3.8325   425.3    5.917      32.916
2015    7       21    19  34    3.8356   425.2    5.924      32.919
2015    7       21    19  40    3.8387   425.1    5.932      32.922
2015    7       21    19  47    3.8418   425.0    5.939      32.926
2015    7       21    19  53    3.8450   424.9    5.947      32.930
2015    7       21    19  59    3.8482   424.8    5.955      32.934
2015    7       21    20   5    3.8515   424.8    5.963      32.938
2015    7       21    20  11    3.8548   424.7    5.971      32.943
2015    7       21    20  18    3.8581   424.6    5.979      32.947
2015    7       21    20  24    3.8615   424.5    5.988      32.953
2015    7       21    20  30    3.8650   424.4    5.996      32.958
2015    7       21    20  36    3.8685   424.3    6.005      32.964
2015    7       21    20  42    3.8720   424.2    6.014      32.970
2015    7       21    20  49    3.8756   424.1    6.023      32.977
2015    7       21    20  55    3.8793   424.0    6.032      32.984
2015    7       21    21   1    3.8830   423.9    6.041      32.992
2015    7       21    21   7    3.8868   423.9    6.051      33.000
2015    7       21    21  14    3.8906   423.8    6.060      33.009
2015    7       21    21  20    3.8945   423.7    6.070      33.019
2015    7       21    21  26    3.8985   423.6    6.080      33.029
2015    7       21    21  32    3.9025   423.5    6.090      33.040
2015    7       21    21  38    3.9066   423.5    6.099      33.052
2015    7       21    21  45    3.9107   423.4    6.109      33.065
2015    7       21    21  51    3.9149   423.3    6.119      33.079
2015    7       21    21  57    3.9191   423.3    6.129      33.093
2015    7       21    22   3    3.9234   423.2    6.139      33.109
2015    7       21    22   9    3.9276   423.1    6.149      33.126
2015    7       21    22  16    3.9320   423.1    6.159      33.144
2015    7       21    22  22    3.9364   423.0    6.169      33.162
2015    7       21    22  28    3.9408   422.9    6.178      33.181
2015    7       21    22  34    3.9453   422.9    6.188      33.202
2015    7       21    22  41    3.9498   422.8    6.198      33.222
2015    7       21    22  47    3.9543   422.8    6.207      33.243
2015    7       21    22  53    3.9588   422.7    6.216      33.265
2015    7       21    22  59    3.9634   422.6    6.226      33.287
2015    7       21    23   5    3.9680   422.6    6.235      33.310
2015    7       21    23  12    3.9725   422.5    6.244      33.332
2015    7       21    23  18    3.9772   422.5    6.253      33.355
2015    7       21    23  24    3.9818   422.4    6.262      33.378
2015    7       21    23  30    3.9864   422.4    6.270      33.401
2015    7       21    23  36    3.9910   422.3    6.279      33.424
2015    7       21    23  43    3.9957   422.3    6.288      33.447
2015    7       21    23  49    4.0004   422.2    6.296      33.470
2015    7       21    23  55    4.0050   422.2    6.305      33.492
2015    7       22     0   1    4.0097   422.1    6.313      33.515
2015    7       22     0   8    4.0144   422.1    6.321      33.538
2015    7       22     0  14    4.0191   422.0    6.330      33.560
2015    7       22     0  20    4.0238   422.0    6.338      33.583
2015    7       22     0  26    4.0284   422.0    6.346      33.605
2015    7       22     0  32    4.0332   421.9    6.354      33.627
2015    7       22     0  39    4.0378   421.9    6.362      33.650
2015    7       22     0  45    4.0425   421.8    6.370      33.672
2015    7       22     0  51    4.0472   421.8    6.378      33.694
2015    7       22     0  57    4.0518   421.8    6.386      33.717
2015    7       22     1   3    4.0565   421.7    6.393      33.739
2015    7       22     1  10    4.0612   421.7    6.401      33.761
2015    7       22     1  16    4.0658   421.7    6.409      33.783
2015    7       22     1  22    4.0704   421.6    6.417      33.805
2015    7       22     1  28    4.0750   421.6    6.424      33.827
2015    7       22     1  35    4.0797   421.6    6.432      33.849
2015    7       22     1  41    4.0842   421.5    6.439      33.871
2015    7       22     1  47    4.0888   421.5    6.447      33.893
2015    7       22     1  53    4.0934   421.5    6.454      33.914
2015    7       22     1  59    4.0979   421.5    6.462      33.936
2015    7       22     2   6    4.1025   421.5    6.469      33.957
2015    7       22     2  12    4.1070   421.4    6.477      33.978
2015    7       22     2  18    4.1115   421.4    6.484      33.999
2015    7       22     2  24    4.1160   421.4    6.492      34.020
2015    7       22     2  30    4.1205   421.4    6.499      34.041
2015    7       22     2  37    4.1250   421.4    6.506      34.062
2015    7       22     2  43    4.1294   421.3    6.514      34.082
2015    7       22     2  49    4.1339   421.3    6.521      34.102
2015    7       22     2  55    4.1383   421.3    6.528      34.122
2015    7       22     3   2    4.1428   421.3    6.536      34.142
2015    7       22     3   8    4.1472   421.3    6.543      34.162
2015    7       22     3  14    4.1516   421.3    6.550      34.181
2015    7       22     3  20    4.1560   421.3    6.558      34.201
2015    7       22     3  26    4.1605   421.2    6.565      34.220
2015    7       22     3  33    4.1649   421.2    6.572      34.239
2015    7       22     3  39    4.1693   421.2    6.580      34.258
2015    7       22     3  45    4.1737   421.2    6.587      34.277
2015    7       22     3  51    4.1781   421.2    6.595      34.295
2015    7       22     3  57    4.1826   421.2    6.602      34.314
2015    7       22     4   4    4.1870   421.2    6.610      34.333
2015    7       22     4  10    4.1915   421.2    6.618      34.351
2015    7       22     4  16    4.1959   421.2    6.625      34.370
2015    7       22     4  22    4.2004   421.2    6.633      34.389
2015    7       22     4  29    4.2049   421.2    6.641      34.408
2015    7       22     4  35    4.2094   421.1    6.649      34.428
2015    7       22     4  41    4.2139   421.1    6.657      34.448
2015    7       22     4  47    4.2184   421.1    6.665      34.469
2015    7       22     4  53    4.2230   421.2    6.673      34.491
2015    7       22     5   0    4.2275   421.2    6.682      34.513
2015    7       22     5   6    4.2321   421.2    6.690      34.536
2015    7       22     5  12    4.2366   421.2    6.698      34.559
2015    7       22     5  18    4.2411   421.2    6.706      34.584
2015    7       22     5  24    4.2457   421.2    6.714      34.609
2015    7       22     5  31    4.2502   421.2    6.722      34.636
2015    7       22     5  37    4.2547   421.2    6.730      34.663
2015    7       22     5  43    4.2592   421.2    6.738      34.691
2015    7       22     5  49    4.2637   421.2    6.745      34.720
2015    7       22     5  56    4.2683   421.3    6.753      34.749
2015    7       22     6   2    4.2727   421.3    6.761      34.779
2015    7       22     6   8    4.2772   421.3    6.768      34.809
2015    7       22     6  14    4.2816   421.3    6.775      34.839
2015    7       22     6  20    4.2860   421.3    6.783      34.870
2015    7       22     6  27    4.2904   421.3    6.790      34.901
2015    7       22     6  33    4.2948   421.4    6.797      34.932
2015    7       22     6  39    4.2991   421.4    6.804      34.963
2015    7       22     6  45    4.3034   421.4    6.810      34.994
2015    7       22     6  51    4.3077   421.4    6.817      35.025
2015    7       22     6  58    4.3120   421.4    6.824      35.056
2015    7       22     7   4    4.3162   421.5    6.830      35.086
2015    7       22     7  10    4.3204   421.5    6.837      35.117
2015    7       22     7  16    4.3246   421.5    6.843      35.147
2015    7       22     7  23    4.3287   421.5    6.849      35.176
2015    7       22     7  29    4.3328   421.6    6.855      35.206
2015    7       22     7  35    4.3369   421.6    6.861      35.235
2015    7       22     7  41    4.3410   421.6    6.867      35.264
2015    7       22     7  47    4.3451   421.6    6.872      35.293
2015    7       22     7  54    4.3491   421.7    6.878      35.321
2015    7       22     8   0    4.3531   421.7    6.884      35.349
2015    7       22     8   6    4.3571   421.7    6.889      35.377
2015    7       22     8  12    4.3610   421.7    6.895      35.405
2015    7       22     8  18    4.3650   421.8    6.900      35.432
2015    7       22     8  25    4.3689   421.8    6.905      35.459
2015    7       22     8  31    4.3728   421.8    6.910      35.487
2015    7       22     8  37    4.3767   421.9    6.916      35.514
2015    7       22     8  43    4.3806   421.9    6.921      35.541
2015    7       22     8  50    4.3844   421.9    6.926      35.568
2015    7       22     8  56    4.3882   422.0    6.930      35.595
2015    7       22     9   2    4.3920   422.0    6.935      35.623
2015    7       22     9   8    4.3957   422.0    6.940      35.649
2015    7       22     9  14    4.3994   422.1    6.944      35.676
2015    7       22     9  21    4.4031   422.1    6.949      35.703
2015    7       22     9  27    4.4067   422.2    6.953      35.729
2015    7       22     9  33    4.4103   422.2    6.957      35.755
2015    7       22     9  39    4.4139   422.2    6.961      35.781
2015    7       22     9  45    4.4174   422.3    6.965      35.807
2015    7       22     9  52    4.4208   422.3    6.969      35.832
2015    7       22     9  58    4.4242   422.4    6.973      35.856
2015    7       22    10   4    4.4276   422.4    6.976      35.881
2015    7       22    10  10    4.4310   422.5    6.980      35.905
2015    7       22    10  16    4.4343   422.5    6.983      35.929
2015    7       22    10  23    4.4375   422.6    6.986      35.953
2015    7       22    10  29    4.4408   422.6    6.990      35.976
2015    7       22    10  35    4.4440   422.7    6.993      35.999
2015    7       22    10  41    4.4471   422.7    6.996      36.022
2015    7       22    10  48    4.4503   422.7    6.999      36.044
2015    7       22    10  54    4.4534   422.8    7.001      36.066
2015    7       22    11   0    4.4564   422.8    7.004      36.088
2015    7       22    11   6    4.4595   422.9    7.007      36.110
2015    7       22    11  12    4.4625   422.9    7.010      36.131
2015    7       22    11  19    4.4655   423.0    7.012      36.152
2015    7       22    11  25    4.4684   423.0    7.015      36.173
2015    7       22    11  31    4.4714   423.1    7.017      36.193
2015    7       22    11  37    4.4743   423.1    7.020      36.213
2015    7       22    11  43    4.4772   423.2    7.022      36.233
2015    7       22    11  50    4.4801   423.2    7.024      36.253
2015    7       22    11  56    4.4829   423.3    7.027      36.273
2015    7       22    12   2    4.4857   423.3    7.029      36.292
2015    7       22    12   8    4.4885   423.4    7.031      36.312
2015    7       22    12  15    4.4913   423.4    7.034      36.332
2015    7       22    12  21    4.4941   423.5    7.036      36.351
2015    7       22    12  27    4.4968   423.5    7.038      36.371
2015    7       22    12  33    4.4995   423.6    7.041      36.391
2015    7       22    12  39    4.5022   423.6    7.043      36.410
2015    7       22    12  46    4.5049   423.7    7.045      36.430
2015    7       22    12  52    4.5075   423.7    7.047      36.450
2015    7       22    12  58    4.5101   423.8    7.049      36.469
2015    7       22    13   4    4.5127   423.8    7.051      36.489
2015    7       22    13  11    4.5153   423.9    7.054      36.509
2015    7       22    13  17    4.5179   423.9    7.056      36.529
2015    7       22    13  23    4.5204   424.0    7.058      36.548
2015    7       22    13  29    4.5229   424.0    7.060      36.568
2015    7       22    13  35    4.5254   424.1    7.062      36.587
2015    7       22    13  42    4.5279   424.1    7.064      36.607
2015    7       22    13  48    4.5303   424.2    7.066      36.627
2015    7       22    13  54    4.5328   424.2    7.068      36.646
2015    7       22    14   0    4.5352   424.3    7.071      36.666
2015    7       22    14   6    4.5376   424.3    7.073      36.686
2015    7       22    14  13    4.5400   424.4    7.075      36.705
2015    7       22    14  19    4.5423   424.4    7.077      36.725
2015    7       22    14  25    4.5447   424.5    7.079      36.745
2015    7       22    14  31    4.5471   424.5    7.081      36.765
2015    7       22    14  38    4.5494   424.6    7.083      36.785
2015    7       22    14  44    4.5518   424.6    7.086      36.805
2015    7       22    14  50    4.5541   424.7    7.088      36.825
2015    7       22    14  56    4.5564   424.7    7.090      36.845
2015    7       22    15   2    4.5588   424.8    7.093      36.865
2015    7       22    15   9    4.5611   424.9    7.095      36.886
2015    7       22    15  15    4.5635   424.9    7.098      36.907
2015    7       22    15  21    4.5658   425.0    7.100      36.929
2015    7       22    15  27    4.5682   425.0    7.103      36.951
2015    7       22    15  33    4.5705   425.1    7.105      36.973
2015    7       22    15  40    4.5729   425.1    7.108      36.996
2015    7       22    15  46    4.5753   425.2    7.110      37.019
2015    7       22    15  52    4.5776   425.3    7.113      37.042
2015    7       22    15  58    4.5800   425.3    7.116      37.066
2015    7       22    16   4    4.5823   425.4    7.118      37.090
2015    7       22    16  11    4.5846   425.4    7.121      37.114
2015    7       22    16  17    4.5869   425.5    7.123      37.138
2015    7       22    16  23    4.5892   425.6    7.126      37.163
2015    7       22    16  29    4.5915   425.6    7.129      37.188
2015    7       22    16  36    4.5938   425.7    7.131      37.212
2015    7       22    16  42    4.5960   425.8    7.134      37.237
2015    7       22    16  48    4.5982   425.8    7.136      37.262
2015    7       22    16  54    4.6004   425.9    7.139      37.287
2015    7       22    17   0    4.6026   425.9    7.142      37.312
2015    7       22    17   7    4.6047   426.0    7.144      37.338
2015    7       22    17  13    4.6068   426.1    7.147      37.364
2015    7       22    17  19    4.6089   426.2    7.149      37.390
2015    7       22    17  25    4.6109   426.2    7.151      37.417
2015    7       22    17  31    4.6129   426.3    7.153      37.443
2015    7       22    17  38    4.6149   426.4    7.156      37.470
2015    7       22    17  44    4.6168   426.4    7.158      37.496
2015    7       22    17  50    4.6186   426.5    7.159      37.522
2015    7       22    17  56    4.6205   426.6    7.161      37.549
2015    7       22    18   2    4.6222   426.7    7.163      37.575
2015    7       22    18   9    4.6240   426.7    7.164      37.601
2015    7       22    18  15    4.6257   426.8    7.165      37.626
2015    7       22    18  21    4.6273   426.9    7.166      37.651
2015    7       22    18  27    4.6289   427.0    7.167      37.675
2015    7       22    18  34    4.6305   427.0    7.168      37.698
2015    7       22    18  40    4.6320   427.1    7.168      37.721
2015    7       22    18  46    4.6335   427.2    7.169      37.744
2015    7       22    18  52    4.6350   427.3    7.169      37.766
2015    7       22    18  58    4.6364   427.3    7.170      37.787
2015    7       22    19   5    4.6378   427.4    7.170      37.808
2015    7       22    19  11    4.6392   427.5    7.170      37.828
2015    7       22    19  17    4.6406   427.6    7.170      37.847
2015    7       22    19  23    4.6419   427.7    7.169      37.867
2015    7       22    19  29    4.6432   427.7    7.169      37.886
2015    7       22    19  36    4.6444   427.8    7.169      37.904
2015    7       22    19  42    4.6457   427.9    7.168      37.922
2015    7       22    19  48    4.6469   428.0    7.168      37.939
2015    7       22    19  54    4.6481   428.0    7.167      37.956
2015    7       22    20   1    4.6493   428.1    7.166      37.973
2015    7       22    20   7    4.6505   428.2    7.166      37.989
2015    7       22    20  13    4.6517   428.3    7.165      38.005
2015    7       22    20  19    4.6528   428.3    7.164      38.021
2015    7       22    20  25    4.6539   428.4    7.163      38.036
2015    7       22    20  32    4.6551   428.5    7.162      38.051
2015    7       22    20  38    4.6562   428.6    7.161      38.065
2015    7       22    20  44    4.6573   428.6    7.160      38.080
2015    7       22    20  50    4.6583   428.7    7.159      38.094
2015    7       22    20  56    4.6594   428.8    7.158      38.107
2015    7       22    21   3    4.6605   428.8    7.157      38.121
2015    7       22    21   9    4.6615   428.9    7.156      38.135
2015    7       22    21  15    4.6626   429.0    7.155      38.148
2015    7       22    21  21    4.6636   429.1    7.154      38.161
2015    7       22    21  28    4.6646   429.1    7.153      38.174
2015    7       22    21  34    4.6656   429.2    7.152      38.187
2015    7       22    21  40    4.6666   429.3    7.151      38.201
2015    7       22    21  46    4.6676   429.3    7.150      38.214
2015    7       22    21  52    4.6686   429.4    7.149      38.227
2015    7       22    21  59    4.6696   429.5    7.148      38.241
2015    7       22    22   5    4.6706   429.6    7.148      38.254
2015    7       22    22  11    4.6716   429.6    7.147      38.268
2015    7       22    22  17    4.6726   429.7    7.146      38.282
2015    7       22    22  23    4.6736   429.8    7.146      38.296
2015    7       22    22  30    4.6746   429.8    7.145      38.311
2015    7       22    22  36    4.6755   429.9    7.145      38.325
2015    7       22    22  42    4.6765   430.0    7.144      38.341
2015    7       22    22  48    4.6775   430.1    7.144      38.356
2015    7       22    22  55    4.6785   430.1    7.144      38.373
2015    7       22    23   1    4.6794   430.2    7.144      38.389
2015    7       22    23   7    4.6804   430.3    7.144      38.406
2015    7       22    23  13    4.6813   430.4    7.145      38.423
2015    7       22    23  19    4.6823   430.4    7.145      38.441
2015    7       22    23  26    4.6832   430.5    7.145      38.460
2015    7       22    23  32    4.6841   430.6    7.146      38.479
2015    7       22    23  38    4.6850   430.7    7.146      38.498
2015    7       22    23  44    4.6859   430.7    7.147      38.518
2015    7       22    23  50    4.6867   430.8    7.148      38.538
2015    7       22    23  57    4.6876   430.9    7.148      38.558
2015    7       23     0   3    4.6884   431.0    7.149      38.578
2015    7       23     0   9    4.6892   431.1    7.150      38.599
2015    7       23     0  15    4.6900   431.1    7.150      38.620
2015    7       23     0  22    4.6907   431.2    7.151      38.640
2015    7       23     0  28    4.6915   431.3    7.152      38.661
2015    7       23     0  34    4.6922   431.4    7.153      38.681
2015    7       23     0  40    4.6929   431.5    7.153      38.701
2015    7       23     0  46    4.6936   431.5    7.154      38.722
2015    7       23     0  53    4.6943   431.6    7.155      38.743
2015    7       23     0  59    4.6950   431.7    7.155      38.763
2015    7       23     1   5    4.6956   431.8    7.156      38.784
2015    7       23     1  11    4.6963   431.9    7.156      38.806
2015    7       23     1  17    4.6969   431.9    7.157      38.827
2015    7       23     1  24    4.6975   432.0    7.157      38.848
2015    7       23     1  30    4.6981   432.1    7.158      38.869
2015    7       23     1  36    4.6986   432.2    7.158      38.890
2015    7       23     1  42    4.6992   432.3    7.158      38.910
2015    7       23     1  48    4.6997   432.4    7.158      38.931
2015    7       23     1  55    4.7002   432.5    7.157      38.951
2015    7       23     2   1    4.7007   432.6    7.157      38.971
2015    7       23     2   7    4.7011   432.6    7.156      38.991
2015    7       23     2  13    4.7015   432.7    7.156      39.011
2015    7       23     2  20    4.7019   432.8    7.155      39.029
2015    7       23     2  26    4.7023   432.9    7.154      39.047
2015    7       23     2  32    4.7026   433.0    7.153      39.065
2015    7       23     2  38    4.7029   433.1    7.152      39.082
2015    7       23     2  44    4.7032   433.2    7.151      39.099
2015    7       23     2  51    4.7034   433.3    7.149      39.116
2015    7       23     2  57    4.7036   433.4    7.148      39.132
2015    7       23     3   3    4.7039   433.5    7.146      39.147
2015    7       23     3   9    4.7040   433.5    7.144      39.163
2015    7       23     3  15    4.7042   433.6    7.143      39.177
2015    7       23     3  22    4.7043   433.7    7.141      39.192
2015    7       23     3  28    4.7045   433.8    7.139      39.206
2015    7       23     3  34    4.7046   433.9    7.137      39.220
2015    7       23     3  40    4.7046   434.0    7.135      39.233
2015    7       23     3  47    4.7047   434.1    7.133      39.247
2015    7       23     3  53    4.7047   434.2    7.130      39.260
2015    7       23     3  59    4.7047   434.3    7.128      39.272
2015    7       23     4   5    4.7047   434.4    7.126      39.285
2015    7       23     4  11    4.7047   434.4    7.123      39.297
2015    7       23     4  18    4.7046   434.5    7.121      39.309
2015    7       23     4  24    4.7046   434.6    7.118      39.320
2015    7       23     4  30    4.7045   434.7    7.115      39.332
2015    7       23     4  36    4.7044   434.8    7.113      39.343
2015    7       23     4  42    4.7043   434.9    7.110      39.354
2015    7       23     4  49    4.7041   435.0    7.107      39.365
2015    7       23     4  55    4.7040   435.1    7.104      39.376
2015    7       23     5   1    4.7038   435.2    7.101      39.386
2015    7       23     5   7    4.7036   435.2    7.098      39.397
2015    7       23     5  14    4.7034   435.3    7.095      39.407
2015    7       23     5  20    4.7032   435.4    7.092      39.418
2015    7       23     5  26    4.7030   435.5    7.089      39.428
2015    7       23     5  32    4.7027   435.6    7.085      39.438
2015    7       23     5  38    4.7025   435.7    7.082      39.448
2015    7       23     5  45    4.7022   435.8    7.079      39.458
2015    7       23     5  51    4.7020   435.8    7.076      39.468
2015    7       23     5  57    4.7016   435.9    7.072      39.478
2015    7       23     6   3    4.7013   436.0    7.069      39.488
2015    7       23     6   9    4.7010   436.1    7.066      39.498
2015    7       23     6  16    4.7006   436.2    7.063      39.508
2015    7       23     6  22    4.7002   436.3    7.059      39.518
2015    7       23     6  28    4.6998   436.4    7.056      39.528
2015    7       23     6  34    4.6994   436.5    7.052      39.538
2015    7       23     6  40    4.6989   436.5    7.049      39.547
2015    7       23     6  47    4.6984   436.6    7.045      39.557
2015    7       23     6  53    4.6978   436.7    7.041      39.566
2015    7       23     6  59    4.6972   436.8    7.038      39.575
2015    7       23     7   5    4.6966   436.9    7.034      39.584
2015    7       23     7  12    4.6959   437.0    7.030      39.592
2015    7       23     7  18    4.6952   437.1    7.026      39.600
2015    7       23     7  24    4.6944   437.2    7.022      39.607
2015    7       23     7  30    4.6936   437.2    7.018      39.614
2015    7       23     7  36    4.6928   437.3    7.013      39.621
2015    7       23     7  43    4.6919   437.4    7.009      39.627
2015    7       23     7  49    4.6909   437.5    7.005      39.632
2015    7       23     7  55    4.6900   437.6    7.000      39.638
2015    7       23     8   1    4.6889   437.7    6.996      39.642
2015    7       23     8   7    4.6879   437.7    6.991      39.647
2015    7       23     8  14    4.6868   437.8    6.987      39.651
2015    7       23     8  20    4.6857   437.9    6.982      39.655
2015    7       23     8  26    4.6845   438.0    6.978      39.658
2015    7       23     8  32    4.6833   438.1    6.973      39.661
2015    7       23     8  38    4.6820   438.2    6.968      39.664
2015    7       23     8  45    4.6807   438.2    6.963      39.666
2015    7       23     8  51    4.6794   438.3    6.958      39.668
2015    7       23     8  57    4.6780   438.4    6.953      39.670
2015    7       23     9   3    4.6766   438.5    6.948      39.672
2015    7       23     9  10    4.6751   438.6    6.943      39.673
2015    7       23     9  16    4.6736   438.7    6.938      39.674
2015    7       23     9  22    4.6720   438.7    6.933      39.675
2015    7       23     9  28    4.6704   438.8    6.928      39.675
2015    7       23     9  34    4.6688   438.9    6.922      39.675
2015    7       23     9  41    4.6671   439.0    6.917      39.675
2015    7       23     9  47    4.6654   439.1    6.912      39.674
2015    7       23     9  53    4.6636   439.1    6.906      39.673
2015    7       23     9  59    4.6618   439.2    6.901      39.672
2015    7       23    10   5    4.6599   439.3    6.895      39.670
2015    7       23    10  12    4.6580   439.4    6.889      39.668
2015    7       23    10  18    4.6561   439.5    6.883      39.665
2015    7       23    10  24    4.6541   439.5    6.878      39.662
2015    7       23    10  30    4.6521   439.6    6.872      39.658
2015    7       23    10  37    4.6501   439.7    6.866      39.655
2015    7       23    10  43    4.6480   439.8    6.860      39.651
2015    7       23    10  49    4.6459   439.8    6.854      39.646
2015    7       23    10  55    4.6437   439.9    6.848      39.641
2015    7       23    11   1    4.6416   440.0    6.842      39.636
2015    7       23    11   8    4.6394   440.0    6.836      39.630
2015    7       23    11  14    4.6371   440.1    6.830      39.625
2015    7       23    11  20    4.6349   440.2    6.824      39.618
2015    7       23    11  26    4.6326   440.3    6.818      39.612
2015    7       23    11  32    4.6303   440.3    6.812      39.605
2015    7       23    11  39    4.6279   440.4    6.806      39.599
2015    7       23    11  45    4.6256   440.4    6.800      39.591
2015    7       23    11  51    4.6232   440.5    6.794      39.584
2015    7       23    11  57    4.6208   440.6    6.788      39.576
2015    7       23    12   4    4.6183   440.6    6.782      39.568
2015    7       23    12  10    4.6158   440.7    6.776      39.560
2015    7       23    12  16    4.6133   440.8    6.770      39.552
2015    7       23    12  22    4.6108   440.8    6.765      39.543
2015    7       23    12  28    4.6083   440.9    6.759      39.534
2015    7       23    12  35    4.6057   440.9    6.753      39.525
2015    7       23    12  41    4.6031   441.0    6.747      39.516
2015    7       23    12  47    4.6005   441.1    6.741      39.507
2015    7       23    12  53    4.5979   441.1    6.735      39.497
2015    7       23    12  59    4.5952   441.2    6.729      39.487
2015    7       23    13   6    4.5925   441.2    6.724      39.478
2015    7       23    13  12    4.5898   441.3    6.718      39.468
2015    7       23    13  18    4.5871   441.3    6.712      39.457
2015    7       23    13  24    4.5843   441.4    6.706      39.447
2015    7       23    13  31    4.5816   441.4    6.700      39.436
2015    7       23    13  37    4.5787   441.5    6.695      39.425
2015    7       23    13  43    4.5759   441.5    6.689      39.415
2015    7       23    13  49    4.5731   441.6    6.683      39.403
2015    7       23    13  55    4.5702   441.6    6.678      39.392
2015    7       23    14   2    4.5673   441.7    6.672      39.381
2015    7       23    14   8    4.5644   441.7    6.666      39.369
2015    7       23    14  14    4.5614   441.8    6.660      39.357
2015    7       23    14  20    4.5585   441.8    6.655      39.345
2015    7       23    14  26    4.5555   441.9    6.649      39.333
2015    7       23    14  33    4.5525   441.9    6.643      39.321
2015    7       23    14  39    4.5495   441.9    6.637      39.308
2015    7       23    14  45    4.5465   442.0    6.632      39.295
2015    7       23    14  51    4.5434   442.0    6.626      39.282
2015    7       23    14  57    4.5403   442.1    6.620      39.270
2015    7       23    15   4    4.5372   442.1    6.615      39.256
2015    7       23    15  10    4.5341   442.1    6.609      39.243
2015    7       23    15  16    4.5310   442.2    6.603      39.230
2015    7       23    15  22    4.5278   442.2    6.598      39.216
2015    7       23    15  29    4.5247   442.2    6.592      39.203
2015    7       23    15  35    4.5215   442.3    6.586      39.189
2015    7       23    15  41    4.5183   442.3    6.581      39.175
2015    7       23    15  47    4.5151   442.3    6.575      39.161
2015    7       23    15  53    4.5118   442.4    6.570      39.147
2015    7       23    16   0    4.5086   442.4    6.564      39.133
2015    7       23    16   6    4.5053   442.4    6.558      39.119
2015    7       23    16  12    4.5021   442.5    6.553      39.105
2015    7       23    16  18    4.4988   442.5    6.547      39.090
2015    7       23    16  24    4.4955   442.5    6.542      39.076
2015    7       23    16  31    4.4921   442.6    6.536      39.061
2015    7       23    16  37    4.4888   442.6    6.531      39.046
2015    7       23    16  43    4.4855   442.6    6.525      39.031
2015    7       23    16  49    4.4821   442.6    6.520      39.017
2015    7       23    16  55    4.4788   442.7    6.514      39.001
2015    7       23    17   2    4.4754   442.7    6.509      38.986
2015    7       23    17   8    4.4720   442.7    6.504      38.971
2015    7       23    17  14    4.4686   442.7    6.498      38.956
2015    7       23    17  20    4.4652   442.8    6.493      38.940
2015    7       23    17  27    4.4618   442.8    6.488      38.925
2015    7       23    17  33    4.4584   442.8    6.482      38.909
2015    7       23    17  39    4.4550   442.8    6.477      38.893
2015    7       23    17  45    4.4516   442.8    6.472      38.877
2015    7       23    17  51    4.4482   442.9    6.467      38.862
2015    7       23    17  58    4.4447   442.9    6.462      38.846
2015    7       23    18   4    4.4413   442.9    6.457      38.830
2015    7       23    18  10    4.4379   442.9    6.451      38.814
2015    7       23    18  16    4.4345   442.9    6.446      38.798
2015    7       23    18  22    4.4311   443.0    6.441      38.782
2015    7       23    18  29    4.4277   443.0    6.436      38.766
2015    7       23    18  35    4.4242   443.0    6.431      38.749
2015    7       23    18  41    4.4209   443.0    6.426      38.733
2015    7       23    18  47    4.4174   443.0    6.421      38.717
2015    7       23    18  54    4.4140   443.0    6.416      38.700
2015    7       23    19   0    4.4106   443.1    6.411      38.684
2015    7       23    19   6    4.4072   443.1    6.406      38.667
2015    7       23    19  12    4.4038   443.1    6.401      38.650
2015    7       23    19  18    4.4004   443.1    6.396      38.633
2015    7       23    19  25    4.3970   443.1    6.391      38.615
2015    7       23    19  31    4.3936   443.1    6.386      38.597
2015    7       23    19  37    4.3902   443.1    6.381      38.580
2015    7       23    19  43    4.3868   443.1    6.376      38.562
2015    7       23    19  49    4.3834   443.1    6.371      38.543
2015    7       23    19  56    4.3800   443.1    6.366      38.525
2015    7       23    20   2    4.3766   443.2    6.361      38.506
2015    7       23    20   8    4.3732   443.2    6.356      38.487
2015    7       23    20  14    4.3698   443.2    6.351      38.468
2015    7       23    20  21    4.3664   443.2    6.346      38.448
2015    7       23    20  27    4.3631   443.2    6.341      38.429
2015    7       23    20  33    4.3597   443.2    6.336      38.409
2015    7       23    20  39    4.3563   443.2    6.331      38.389
2015    7       23    20  45    4.3529   443.2    6.326      38.370
2015    7       23    20  52    4.3496   443.2    6.321      38.350
2015    7       23    20  58    4.3463   443.2    6.317      38.330
2015    7       23    21   4    4.3429   443.2    6.312      38.309
2015    7       23    21  10    4.3396   443.2    6.307      38.289
2015    7       23    21  16    4.3363   443.2    6.303      38.269
2015    7       23    21  23    4.3330   443.2    6.298      38.249
2015    7       23    21  29    4.3297   443.2    6.293      38.229
2015    7       23    21  35    4.3264   443.2    6.289      38.209
2015    7       23    21  41    4.3232   443.2    6.284      38.188
2015    7       23    21  47    4.3199   443.2    6.280      38.168
2015    7       23    21  54    4.3167   443.1    6.276      38.148
2015    7       23    22   0    4.3134   443.1    6.271      38.127
2015    7       23    22   6    4.3102   443.1    6.267      38.107
2015    7       23    22  12    4.3070   443.1    6.262      38.087
2015    7       23    22  19    4.3038   443.1    6.258      38.066
2015    7       23    22  25    4.3007   443.1    6.254      38.045
2015    7       23    22  31    4.2975   443.1    6.249      38.025
2015    7       23    22  37    4.2943   443.1    6.245      38.004
2015    7       23    22  43    4.2912   443.1    6.241      37.983
2015    7       23    22  50    4.2880   443.1    6.237      37.962
2015    7       23    22  56    4.2849   443.0    6.232      37.941
2015    7       23    23   2    4.2818   443.0    6.228      37.920
2015    7       23    23   8    4.2787   443.0    6.224      37.899
2015    7       23    23  14    4.2756   443.0    6.220      37.878
2015    7       23    23  21    4.2725   443.0    6.216      37.857
2015    7       23    23  27    4.2694   443.0    6.212      37.836
2015    7       23    23  33    4.2664   443.0    6.208      37.814
2015    7       23    23  39    4.2633   442.9    6.204      37.793
2015    7       23    23  45    4.2603   442.9    6.200      37.772
2015    7       23    23  52    4.2573   442.9    6.196      37.751
2015    7       23    23  58    4.2543   442.9    6.192      37.729
2015    7       24     0   4    4.2513   442.9    6.188      37.708
2015    7       24     0  10    4.2484   442.8    6.184      37.687
2015    7       24     0  17    4.2454   442.8    6.180      37.665
2015    7       24     0  23    4.2425   442.8    6.176      37.644
2015    7       24     0  29    4.2396   442.8    6.173      37.623
2015    7       24     0  35    4.2367   442.7    6.169      37.602
2015    7       24     0  41    4.2339   442.7    6.165      37.581
2015    7       24     0  48    4.2310   442.7    6.162      37.559
2015    7       24     0  54    4.2282   442.7    6.158      37.538
2015    7       24     1   0    4.2255   442.6    6.155      37.517
2015    7       24     1   6    4.2227   442.6    6.151      37.497
2015    7       24     1  12    4.2200   442.6    6.148      37.476
2015    7       24     1  19    4.2173   442.6    6.145      37.455
2015    7       24     1  25    4.2146   442.5    6.142      37.435
2015    7       24     1  31    4.2119   442.5    6.139      37.414
2015    7       24     1  37    4.2093   442.5    6.136      37.394
2015    7       24     1  44    4.2067   442.5    6.133      37.374
2015    7       24     1  50    4.2041   442.4    6.130      37.354
2015    7       24     1  56    4.2016   442.4    6.127      37.334
2015    7       24     2   2    4.1991   442.4    6.124      37.315
2015    7       24     2   8    4.1966   442.3    6.121      37.295
2015    7       24     2  15    4.1941   442.3    6.118      37.276
2015    7       24     2  21    4.1916   442.3    6.115      37.256
2015    7       24     2  27    4.1892   442.2    6.112      37.237
2015    7       24     2  33    4.1867   442.2    6.110      37.218
2015    7       24     2  39    4.1843   442.2    6.107      37.199
2015    7       24     2  46    4.1819   442.2    6.104      37.179
2015    7       24     2  52    4.1795   442.1    6.101      37.160
2015    7       24     2  58    4.1771   442.1    6.098      37.141
2015    7       24     3   4    4.1747   442.1    6.095      37.121
2015    7       24     3  11    4.1723   442.0    6.093      37.102
2015    7       24     3  17    4.1699   442.0    6.090      37.083
2015    7       24     3  23    4.1675   442.0    6.087      37.063
2015    7       24     3  29    4.1651   441.9    6.084      37.043
2015    7       24     3  35    4.1628   441.9    6.081      37.023
2015    7       24     3  42    4.1604   441.9    6.078      37.003
2015    7       24     3  48    4.1580   441.8    6.075      36.983
2015    7       24     3  54    4.1557   441.8    6.072      36.963
2015    7       24     4   0    4.1533   441.7    6.070      36.943
2015    7       24     4   6    4.1510   441.7    6.067      36.922
2015    7       24     4  13    4.1486   441.7    6.064      36.902
2015    7       24     4  19    4.1463   441.6    6.061      36.882
2015    7       24     4  25    4.1440   441.6    6.058      36.861
2015    7       24     4  31    4.1416   441.5    6.056      36.841
2015    7       24     4  37    4.1393   441.5    6.053      36.821
2015    7       24     4  44    4.1371   441.5    6.050      36.801
2015    7       24     4  50    4.1348   441.4    6.048      36.781
2015    7       24     4  56    4.1325   441.4    6.045      36.761
2015    7       24     5   2    4.1303   441.3    6.043      36.741
2015    7       24     5   9    4.1280   441.3    6.040      36.721
2015    7       24     5  15    4.1258   441.3    6.038      36.701
2015    7       24     5  21    4.1236   441.2    6.035      36.682
2015    7       24     5  27    4.1215   441.2    6.033      36.663
2015    7       24     5  33    4.1193   441.1    6.030      36.643
2015    7       24     5  40    4.1171   441.1    6.028      36.624
2015    7       24     5  46    4.1150   441.1    6.026      36.605
2015    7       24     5  52    4.1128   441.0    6.023      36.586
2015    7       24     5  58    4.1107   441.0    6.021      36.566
2015    7       24     6   4    4.1086   440.9    6.019      36.547
2015    7       24     6  11    4.1065   440.9    6.017      36.528
2015    7       24     6  17    4.1044   440.8    6.014      36.509
2015    7       24     6  23    4.1024   440.8    6.012      36.490
2015    7       24     6  29    4.1003   440.8    6.010      36.471
2015    7       24     6  35    4.0982   440.7    6.008      36.452
2015    7       24     6  42    4.0962   440.7    6.005      36.433
2015    7       24     6  48    4.0941   440.6    6.003      36.414
2015    7       24     6  54    4.0921   440.6    6.001      36.395
2015    7       24     7   0    4.0900   440.5    5.999      36.375
2015    7       24     7   7    4.0880   440.5    5.996      36.355
2015    7       24     7  13    4.0859   440.4    5.994      36.336
2015    7       24     7  19    4.0839   440.4    5.992      36.316
2015    7       24     7  25    4.0819   440.3    5.989      36.296
2015    7       24     7  31    4.0799   440.3    5.987      36.276
2015    7       24     7  38    4.0778   440.3    5.985      36.256
2015    7       24     7  44    4.0758   440.2    5.982      36.236
2015    7       24     7  50    4.0739   440.2    5.980      36.216
2015    7       24     7  56    4.0719   440.1    5.978      36.196
2015    7       24     8   2    4.0699   440.1    5.975      36.175
2015    7       24     8   9    4.0679   440.0    5.973      36.155
2015    7       24     8  15    4.0660   440.0    5.971      36.135
2015    7       24     8  21    4.0640   439.9    5.968      36.114
2015    7       24     8  27    4.0621   439.9    5.966      36.094
2015    7       24     8  33    4.0602   439.8    5.964      36.073
2015    7       24     8  40    4.0583   439.8    5.961      36.053
2015    7       24     8  46    4.0564   439.7    5.959      36.032
2015    7       24     8  52    4.0545   439.6    5.957      36.011
2015    7       24     8  58    4.0526   439.6    5.955      35.991
2015    7       24     9   5    4.0507   439.5    5.952      35.970
2015    7       24     9  11    4.0489   439.5    5.950      35.949
2015    7       24     9  17    4.0471   439.4    5.948      35.928
2015    7       24     9  23    4.0452   439.4    5.946      35.907
2015    7       24     9  29    4.0434   439.3    5.943      35.887
2015    7       24     9  36    4.0416   439.3    5.941      35.866
2015    7       24     9  42    4.0398   439.2    5.939      35.845
2015    7       24     9  48    4.0381   439.2    5.937      35.824
2015    7       24     9  54    4.0363   439.1    5.935      35.803
2015    7       24    10   0    4.0346   439.1    5.933      35.782
2015    7       24    10   7    4.0328   439.0    5.930      35.761
2015    7       24    10  13    4.0311   438.9    5.928      35.740
2015    7       24    10  19    4.0294   438.9    5.926      35.719
2015    7       24    10  25    4.0277   438.8    5.924      35.698
2015    7       24    10  32    4.0260   438.8    5.922      35.676
2015    7       24    10  38    4.0243   438.7    5.920      35.655
2015    7       24    10  44    4.0226   438.7    5.918      35.634
2015    7       24    10  50    4.0209   438.6    5.916      35.613
2015    7       24    10  56    4.0193   438.5    5.914      35.592
2015    7       24    11   3    4.0176   438.5    5.912      35.571
2015    7       24    11   9    4.0160   438.4    5.910      35.549
2015    7       24    11  15    4.0144   438.4    5.908      35.528
2015    7       24    11  21    4.0127   438.3    5.906      35.507
2015    7       24    11  27    4.0111   438.2    5.904      35.486
2015    7       24    11  34    4.0095   438.2    5.902      35.465
2015    7       24    11  40    4.0080   438.1    5.900      35.444
2015    7       24    11  46    4.0064   438.0    5.898      35.423
2015    7       24    11  52    4.0048   438.0    5.897      35.402
2015    7       24    11  59    4.0033   437.9    5.895      35.381
2015    7       24    12   5    4.0018   437.9    5.893      35.361
2015    7       24    12  11    4.0003   437.8    5.892      35.340
2015    7       24    12  17    3.9987   437.7    5.890      35.320
2015    7       24    12  23    3.9973   437.7    5.889      35.300
2015    7       24    12  30    3.9958   437.6    5.887      35.280
2015    7       24    12  36    3.9943   437.5    5.886      35.260
2015    7       24    12  42    3.9929   437.5    5.884      35.240
2015    7       24    12  48    3.9914   437.4    5.883      35.221
2015    7       24    12  54    3.9900   437.3    5.882      35.201
2015    7       24    13   1    3.9886   437.3    5.881      35.182
2015    7       24    13   7    3.9872   437.2    5.880      35.163
2015    7       24    13  13    3.9858   437.1    5.879      35.144
2015    7       24    13  19    3.9844   437.1    5.877      35.125
2015    7       24    13  25    3.9831   437.0    5.877      35.106
2015    7       24    13  32    3.9817   436.9    5.876      35.087
2015    7       24    13  38    3.9804   436.8    5.875      35.069
2015    7       24    13  44    3.9790   436.8    5.874      35.050
2015    7       24    13  50    3.9777   436.7    5.873      35.031
2015    7       24    13  56    3.9764   436.6    5.872      35.013
2015    7       24    14   3    3.9750   436.6    5.871      34.995
2015    7       24    14   9    3.9737   436.5    5.871      34.976
2015    7       24    14  15    3.9724   436.4    5.870      34.958
2015    7       24    14  21    3.9712   436.4    5.869      34.939
2015    7       24    14  28    3.9699   436.3    5.869      34.921
2015    7       24    14  34    3.9686   436.2    5.868      34.903
2015    7       24    14  40    3.9673   436.1    5.867      34.884
2015    7       24    14  46    3.9661   436.1    5.867      34.866
2015    7       24    14  52    3.9648   436.0    5.866      34.847
2015    7       24    14  59    3.9636   435.9    5.866      34.829
2015    7       24    15   5    3.9624   435.8    5.865      34.811
2015    7       24    15  11    3.9612   435.8    5.865      34.793
2015    7       24    15  17    3.9600   435.7    5.864      34.774
2015    7       24    15  23    3.9588   435.6    5.864      34.756
2015    7       24    15  30    3.9576   435.5    5.863      34.738
2015    7       24    15  36    3.9565   435.5    5.863      34.720
2015    7       24    15  42    3.9553   435.4    5.863      34.702
2015    7       24    15  48    3.9542   435.3    5.862      34.684
2015    7       24    15  55    3.9531   435.2    5.862      34.665
2015    7       24    16   1    3.9520   435.2    5.862      34.647
2015    7       24    16   7    3.9509   435.1    5.861      34.629
2015    7       24    16  13    3.9498   435.0    5.861      34.611
2015    7       24    16  19    3.9488   434.9    5.861      34.593
2015    7       24    16  26    3.9477   434.9    5.860      34.575
2015    7       24    16  32    3.9467   434.8    5.860      34.557
2015    7       24    16  38    3.9457   434.7    5.860      34.539
2015    7       24    16  44    3.9446   434.6    5.860      34.522
2015    7       24    16  50    3.9436   434.5    5.860      34.504
2015    7       24    16  57    3.9426   434.5    5.859      34.486
2015    7       24    17   3    3.9417   434.4    5.859      34.468
2015    7       24    17   9    3.9407   434.3    5.859      34.451
2015    7       24    17  15    3.9398   434.2    5.859      34.433
2015    7       24    17  22    3.9388   434.2    5.858      34.416
2015    7       24    17  28    3.9379   434.1    5.858      34.399
2015    7       24    17  34    3.9369   434.0    5.858      34.381
2015    7       24    17  40    3.9360   433.9    5.857      34.364
2015    7       24    17  46    3.9351   433.8    5.857      34.346
2015    7       24    17  53    3.9342   433.8    5.857      34.329
2015    7       24    17  59    3.9333   433.7    5.856      34.312
2015    7       24    18   5    3.9323   433.6    5.856      34.294
2015    7       24    18  11    3.9314   433.5    5.855      34.277
2015    7       24    18  17    3.9306   433.5    5.855      34.260
2015    7       24    18  24    3.9297   433.4    5.854      34.242
2015    7       24    18  30    3.9288   433.3    5.854      34.224
2015    7       24    18  36    3.9279   433.2    5.853      34.206
2015    7       24    18  42    3.9270   433.1    5.853      34.188
2015    7       24    18  49    3.9261   433.1    5.852      34.170
2015    7       24    18  55    3.9252   433.0    5.852      34.152
2015    7       24    19   1    3.9244   432.9    5.851      34.134
2015    7       24    19   7    3.9235   432.8    5.851      34.116
2015    7       24    19  13    3.9226   432.7    5.850      34.098
2015    7       24    19  20    3.9218   432.7    5.849      34.080
2015    7       24    19  26    3.9209   432.6    5.849      34.062
2015    7       24    19  32    3.9200   432.5    5.848      34.044
2015    7       24    19  38    3.9192   432.4    5.848      34.026
2015    7       24    19  44    3.9183   432.3    5.847      34.008
2015    7       24    19  51    3.9175   432.3    5.847      33.990
2015    7       24    19  57    3.9167   432.2    5.846      33.972
2015    7       24    20   3    3.9158   432.1    5.846      33.953
2015    7       24    20   9    3.9150   432.0    5.845      33.935
2015    7       24    20  15    3.9141   431.9    5.844      33.917
2015    7       24    20  22    3.9133   431.9    5.844      33.899
2015    7       24    20  28    3.9125   431.8    5.843      33.881
2015    7       24    20  34    3.9116   431.7    5.843      33.863
2015    7       24    20  40    3.9108   431.6    5.842      33.844
2015    7       24    20  46    3.9099   431.5    5.842      33.826
2015    7       24    20  53    3.9091   431.4    5.841      33.808
2015    7       24    20  59    3.9083   431.4    5.841      33.789
2015    7       24    21   5    3.9075   431.3    5.840      33.771
2015    7       24    21  11    3.9066   431.2    5.840      33.752
2015    7       24    21  18    3.9058   431.1    5.840      33.734
2015    7       24    21  24    3.9050   431.0    5.839      33.715
2015    7       24    21  30    3.9042   431.0    5.839      33.697
2015    7       24    21  36    3.9034   430.9    5.838      33.678
2015    7       24    21  42    3.9026   430.8    5.838      33.660
2015    7       24    21  49    3.9017   430.7    5.838      33.641
2015    7       24    21  55    3.9009   430.6    5.837      33.623
2015    7       24    22   1    3.9001   430.5    5.837      33.604
2015    7       24    22   7    3.8993   430.4    5.837      33.585
2015    7       24    22  13    3.8985   430.4    5.836      33.567
2015    7       24    22  20    3.8977   430.3    5.836      33.548
2015    7       24    22  26    3.8970   430.2    5.836      33.530
2015    7       24    22  32    3.8962   430.1    5.835      33.511
2015    7       24    22  38    3.8954   430.0    5.835      33.492
2015    7       24    22  45    3.8946   429.9    5.835      33.474
2015    7       24    22  51    3.8939   429.8    5.835      33.456
2015    7       24    22  57    3.8931   429.8    5.835      33.437
2015    7       24    23   3    3.8924   429.7    5.835      33.419
2015    7       24    23   9    3.8917   429.6    5.835      33.401
2015    7       24    23  16    3.8910   429.5    5.835      33.382
2015    7       24    23  22    3.8903   429.4    5.835      33.364
2015    7       24    23  28    3.8896   429.3    5.835      33.346
2015    7       24    23  34    3.8889   429.2    5.835      33.329
2015    7       24    23  40    3.8882   429.1    5.835      33.311
2015    7       24    23  47    3.8876   429.0    5.836      33.293
2015    7       24    23  53    3.8869   429.0    5.836      33.276
2015    7       24    23  59    3.8863   428.9    5.836      33.259
2015    7       25     0   5    3.8857   428.8    5.837      33.242
2015    7       25     0  12    3.8851   428.7    5.837      33.225
2015    7       25     0  18    3.8846   428.6    5.838      33.209
2015    7       25     0  24    3.8840   428.5    5.838      33.193
2015    7       25     0  30    3.8835   428.4    5.839      33.177
2015    7       25     0  36    3.8829   428.3    5.840      33.161
2015    7       25     0  43    3.8824   428.2    5.840      33.146
2015    7       25     0  49    3.8819   428.1    5.841      33.131
2015    7       25     0  55    3.8815   428.1    5.842      33.116
2015    7       25     1   1    3.8810   428.0    5.843      33.101
2015    7       25     1   7    3.8805   427.9    5.843      33.087
2015    7       25     1  14    3.8801   427.8    5.844      33.073
2015    7       25     1  20    3.8796   427.7    5.845      33.059
2015    7       25     1  26    3.8792   427.6    5.846      33.045
2015    7       25     1  32    3.8787   427.5    5.847      33.031
2015    7       25     1  39    3.8783   427.4    5.848      33.017
2015    7       25     1  45    3.8779   427.3    5.849      33.004
2015    7       25     1  51    3.8775   427.3    5.850      32.990
2015    7       25     1  57    3.8771   427.2    5.851      32.977
2015    7       25     2   3    3.8767   427.1    5.852      32.963
2015    7       25     2  10    3.8763   427.0    5.853      32.950
2015    7       25     2  16    3.8759   426.9    5.854      32.936
2015    7       25     2  22    3.8755   426.8    5.855      32.923
2015    7       25     2  28    3.8751   426.7    5.856      32.910
2015    7       25     2  34    3.8747   426.6    5.858      32.897
2015    7       25     2  41    3.8743   426.5    5.859      32.884
2015    7       25     2  47    3.8740   426.5    5.860      32.871
2015    7       25     2  53    3.8736   426.4    5.861      32.859
2015    7       25     2  59    3.8732   426.3    5.862      32.846
2015    7       25     3   5    3.8728   426.2    5.863      32.833
2015    7       25     3  12    3.8724   426.1    5.864      32.820
2015    7       25     3  18    3.8721   426.0    5.865      32.807
2015    7       25     3  24    3.8717   425.9    5.866      32.795
2015    7       25     3  30    3.8713   425.9    5.867      32.782
2015    7       25     3  36    3.8709   425.8    5.868      32.769
2015    7       25     3  43    3.8706   425.7    5.869      32.756
2015    7       25     3  49    3.8702   425.6    5.870      32.743
2015    7       25     3  55    3.8698   425.5    5.871      32.730
2015    7       25     4   1    3.8695   425.4    5.872      32.717
2015    7       25     4   8    3.8691   425.3    5.873      32.704
2015    7       25     4  14    3.8687   425.2    5.874      32.691
2015    7       25     4  20    3.8684   425.2    5.875      32.678
2015    7       25     4  26    3.8680   425.1    5.876      32.665
2015    7       25     4  32    3.8677   425.0    5.876      32.652
2015    7       25     4  39    3.8673   424.9    5.877      32.639
2015    7       25     4  45    3.8670   424.8    5.878      32.625
2015    7       25     4  51    3.8666   424.7    5.879      32.612
2015    7       25     4  57    3.8663   424.6    5.880      32.599
2015    7       25     5   3    3.8659   424.6    5.880      32.585
2015    7       25     5  10    3.8656   424.5    5.881      32.572
2015    7       25     5  16    3.8652   424.4    5.882      32.558
2015    7       25     5  22    3.8649   424.3    5.882      32.544
2015    7       25     5  28    3.8645   424.2    5.883      32.531
2015    7       25     5  35    3.8642   424.1    5.883      32.517
2015    7       25     5  41    3.8638   424.0    5.884      32.503
2015    7       25     5  47    3.8635   424.0    5.884      32.489
2015    7       25     5  53    3.8631   423.9    5.885      32.475
2015    7       25     5  59    3.8627   423.8    5.885      32.460
2015    7       25     6   6    3.8624   423.7    5.886      32.446
2015    7       25     6  12    3.8620   423.6    5.886      32.431
2015    7       25     6  18    3.8617   423.5    5.887      32.417
2015    7       25     6  24    3.8613   423.4    5.887      32.402
2015    7       25     6  30    3.8610   423.3    5.887      32.387
2015    7       25     6  37    3.8607   423.3    5.888      32.372
2015    7       25     6  43    3.8603   423.2    5.888      32.358
2015    7       25     6  49    3.8600   423.1    5.889      32.342
2015    7       25     6  55    3.8597   423.0    5.889      32.327
2015    7       25     7   2    3.8594   422.9    5.889      32.312
2015    7       25     7   8    3.8591   422.8    5.890      32.297
2015    7       25     7  14    3.8588   422.7    5.890      32.282
2015    7       25     7  20    3.8585   422.6    5.891      32.267
2015    7       25     7  26    3.8582   422.5    5.891      32.252
2015    7       25     7  33    3.8580   422.4    5.892      32.237
2015    7       25     7  39    3.8577   422.4    5.892      32.222
2015    7       25     7  45    3.8575   422.3    5.893      32.207
2015    7       25     7  51    3.8573   422.2    5.894      32.192
2015    7       25     7  57    3.8571   422.1    5.894      32.178
2015    7       25     8   4    3.8569   422.0    5.895      32.163
2015    7       25     8  10    3.8567   421.9    5.896      32.148
2015    7       25     8  16    3.8566   421.8    5.897      32.134
2015    7       25     8  22    3.8564   421.7    5.898      32.120
2015    7       25     8  29    3.8563   421.6    5.899      32.106
2015    7       25     8  35    3.8562   421.5    5.900      32.092
2015    7       25     8  41    3.8561   421.4    5.901      32.078
2015    7       25     8  47    3.8560   421.3    5.903      32.065
2015    7       25     8  53    3.8559   421.2    5.904      32.052
2015    7       25     9   0    3.8559   421.2    5.906      32.039
2015    7       25     9   6    3.8558   421.1    5.907      32.026
2015    7       25     9  12    3.8558   421.0    5.909      32.014
2015    7       25     9  18    3.8558   420.9    5.910      32.001
2015    7       25     9  24    3.8558   420.8    5.912      31.989
2015    7       25     9  31    3.8558   420.7    5.914      31.977
2015    7       25     9  37    3.8558   420.6    5.916      31.966
2015    7       25     9  43    3.8558   420.5    5.918      31.954
2015    7       25     9  49    3.8559   420.4    5.920      31.943
2015    7       25     9  55    3.8559   420.3    5.922      31.932
2015    7       25    10   2    3.8560   420.2    5.924      31.922
2015    7       25    10   8    3.8561   420.1    5.927      31.912
2015    7       25    10  14    3.8562   420.1    5.929      31.901
2015    7       25    10  20    3.8563   420.0    5.932      31.892
2015    7       25    10  26    3.8565   419.9    5.934      31.882
2015    7       25    10  33    3.8566   419.8    5.937      31.872
2015    7       25    10  39    3.8568   419.7    5.939      31.863
2015    7       25    10  45    3.8570   419.6    5.942      31.854
2015    7       25    10  51    3.8572   419.5    5.944      31.846
2015    7       25    10  58    3.8574   419.4    5.947      31.837
2015    7       25    11   4    3.8576   419.3    5.950      31.829
2015    7       25    11  10    3.8578   419.2    5.953      31.821
2015    7       25    11  16    3.8580   419.2    5.955      31.813
2015    7       25    11  22    3.8583   419.1    5.958      31.805
2015    7       25    11  29    3.8586   419.0    5.961      31.798
2015    7       25    11  35    3.8588   418.9    5.964      31.790
2015    7       25    11  41    3.8591   418.8    5.967      31.783
2015    7       25    11  47    3.8594   418.7    5.970      31.776
2015    7       25    11  53    3.8597   418.6    5.973      31.770
2015    7       25    12   0    3.8601   418.5    5.976      31.763
2015    7       25    12   6    3.8604   418.5    5.979      31.757
2015    7       25    12  12    3.8607   418.4    5.982      31.750
2015    7       25    12  18    3.8611   418.3    5.985      31.744
2015    7       25    12  24    3.8615   418.2    5.988      31.738
2015    7       25    12  31    3.8619   418.1    5.991      31.732
2015    7       25    12  37    3.8622   418.0    5.994      31.726
2015    7       25    12  43    3.8626   417.9    5.997      31.721
2015    7       25    12  49    3.8631   417.9    6.000      31.715
2015    7       25    12  56    3.8635   417.8    6.004      31.709
2015    7       25    13   2    3.8639   417.7    6.007      31.704
2015    7       25    13   8    3.8644   417.6    6.010      31.699
2015    7       25    13  14    3.8648   417.5    6.013      31.693
2015    7       25    13  20    3.8653   417.4    6.016      31.688
2015    7       25    13  27    3.8658   417.4    6.019      31.683
2015    7       25    13  33    3.8662   417.3    6.022      31.678
2015    7       25    13  39    3.8667   417.2    6.026      31.674
2015    7       25    13  45    3.8672   417.1    6.029      31.669
2015    7       25    13  51    3.8677   417.0    6.032      31.665
2015    7       25    13  58    3.8682   417.0    6.035      31.660
2015    7       25    14   4    3.8687   416.9    6.038      31.655
2015    7       25    14  10    3.8691   416.8    6.041      31.651
2015    7       25    14  16    3.8696   416.7    6.044      31.646
2015    7       25    14  23    3.8701   416.6    6.047      31.642
2015    7       25    14  29    3.8706   416.6    6.050      31.637
2015    7       25    14  35    3.8711   416.5    6.052      31.632
2015    7       25    14  41    3.8716   416.4    6.055      31.627
2015    7       25    14  47    3.8721   416.3    6.058      31.622
2015    7       25    14  54    3.8725   416.3    6.061      31.616
2015    7       25    15   0    3.8730   416.2    6.064      31.611
2015    7       25    15   6    3.8735   416.1    6.066      31.605
2015    7       25    15  12    3.8740   416.0    6.069      31.600
2015    7       25    15  18    3.8745   415.9    6.072      31.594
2015    7       25    15  25    3.8750   415.9    6.075      31.588
2015    7       25    15  31    3.8755   415.8    6.077      31.582
2015    7       25    15  37    3.8760   415.7    6.080      31.576
2015    7       25    15  43    3.8765   415.6    6.083      31.570
2015    7       25    15  50    3.8771   415.5    6.086      31.564
2015    7       25    15  56    3.8776   415.5    6.089      31.558
2015    7       25    16   2    3.8781   415.4    6.091      31.552
2015    7       25    16   8    3.8787   415.3    6.094      31.546
2015    7       25    16  14    3.8792   415.2    6.097      31.540
2015    7       25    16  21    3.8798   415.2    6.100      31.534
2015    7       25    16  27    3.8804   415.1    6.103      31.528
2015    7       25    16  33    3.8809   415.0    6.106      31.522
2015    7       25    16  39    3.8815   414.9    6.109      31.516
2015    7       25    16  45    3.8821   414.8    6.112      31.510
2015    7       25    16  52    3.8827   414.8    6.115      31.505
2015    7       25    16  58    3.8833   414.7    6.118      31.499
2015    7       25    17   4    3.8839   414.6    6.121      31.493
2015    7       25    17  10    3.8845   414.5    6.124      31.488
2015    7       25    17  16    3.8852   414.5    6.127      31.483
2015    7       25    17  23    3.8858   414.4    6.130      31.477
2015    7       25    17  29    3.8864   414.3    6.133      31.472
2015    7       25    17  35    3.8870   414.2    6.137      31.467
2015    7       25    17  41    3.8877   414.2    6.140      31.462
2015    7       25    17  48    3.8883   414.1    6.143      31.457
2015    7       25    17  54    3.8889   414.0    6.146      31.452
2015    7       25    18   0    3.8896   413.9    6.149      31.447
2015    7       25    18   6    3.8902   413.9    6.152      31.442
2015    7       25    18  12    3.8908   413.8    6.156      31.437
2015    7       25    18  19    3.8915   413.7    6.159      31.433
2015    7       25    18  25    3.8921   413.6    6.162      31.428
2015    7       25    18  31    3.8928   413.6    6.165      31.423
2015    7       25    18  37    3.8934   413.5    6.169      31.419
2015    7       25    18  43    3.8941   413.4    6.172      31.415
2015    7       25    18  50    3.8947   413.4    6.175      31.410
2015    7       25    18  56    3.8954   413.3    6.179      31.407
2015    7       25    19   2    3.8960   413.2    6.182      31.402
2015    7       25    19   8    3.8967   413.1    6.185      31.399
2015    7       25    19  14    3.8974   413.1    6.189      31.395
2015    7       25    19  21    3.8981   413.0    6.192      31.392
2015    7       25    19  27    3.8988   412.9    6.196      31.388
2015    7       25    19  33    3.8995   412.8    6.199      31.385
2015    7       25    19  39    3.9002   412.8    6.203      31.382
2015    7       25    19  46    3.9009   412.7    6.206      31.380
2015    7       25    19  52    3.9016   412.6    6.210      31.377
2015    7       25    19  58    3.9024   412.6    6.213      31.375
2015    7       25    20   4    3.9031   412.5    6.217      31.373
2015    7       25    20  10    3.9039   412.4    6.221      31.371
2015    7       25    20  17    3.9047   412.4    6.225      31.369
2015    7       25    20  23    3.9054   412.3    6.228      31.368
2015    7       25    20  29    3.9062   412.2    6.232      31.366
2015    7       25    20  35    3.9070   412.1    6.236      31.365
2015    7       25    20  41    3.9078   412.1    6.240      31.364
2015    7       25    20  48    3.9086   412.0    6.244      31.364
2015    7       25    20  54    3.9094   412.0    6.248      31.363
2015    7       25    21   0    3.9102   411.9    6.251      31.363
2015    7       25    21   6    3.9110   411.8    6.255      31.363
2015    7       25    21  13    3.9118   411.8    6.259      31.363
2015    7       25    21  19    3.9126   411.7    6.263      31.364
2015    7       25    21  25    3.9134   411.6    6.267      31.364
2015    7       25    21  31    3.9141   411.6    6.271      31.364
2015    7       25    21  37    3.9149   411.5    6.275      31.365
2015    7       25    21  44    3.9157   411.4    6.278      31.366
2015    7       25    21  50    3.9164   411.4    6.282      31.366
2015    7       25    21  56    3.9172   411.3    6.286      31.367
2015    7       25    22   2    3.9179   411.3    6.289      31.367
2015    7       25    22   8    3.9186   411.2    6.293      31.368
2015    7       25    22  15    3.9193   411.1    6.296      31.368
2015    7       25    22  21    3.9200   411.1    6.300      31.368
2015    7       25    22  27    3.9207   411.0    6.303      31.368
2015    7       25    22  33    3.9214   411.0    6.307      31.368
2015    7       25    22  40    3.9221   410.9    6.310      31.368
2015    7       25    22  46    3.9228   410.8    6.313      31.367
2015    7       25    22  52    3.9235   410.8    6.317      31.366
2015    7       25    22  58    3.9242   410.7    6.320      31.365
2015    7       25    23   4    3.9248   410.6    6.323      31.364
2015    7       25    23  11    3.9255   410.6    6.326      31.363
2015    7       25    23  17    3.9261   410.5    6.329      31.361
2015    7       25    23  23    3.9268   410.5    6.332      31.360
2015    7       25    23  29    3.9274   410.4    6.335      31.358
2015    7       25    23  35    3.9281   410.3    6.338      31.355
2015    7       25    23  42    3.9287   410.3    6.341      31.353
2015    7       25    23  48    3.9293   410.2    6.344      31.351
2015    7       25    23  54    3.9299   410.1    6.347      31.348
2015    7       26     0   0    3.9306   410.1    6.350      31.345
2015    7       26     0   6    3.9312   410.0    6.352      31.342
2015    7       26     0  13    3.9318   410.0    6.355      31.338
2015    7       26     0  19    3.9324   409.9    6.358      31.335
2015    7       26     0  25    3.9330   409.8    6.360      31.332
2015    7       26     0  31    3.9336   409.8    6.363      31.328
2015    7       26     0  38    3.9342   409.7    6.366      31.324
2015    7       26     0  44    3.9347   409.7    6.368      31.320
2015    7       26     0  50    3.9353   409.6    6.371      31.316
2015    7       26     0  56    3.9359   409.5    6.373      31.312
2015    7       26     1   2    3.9364   409.5    6.376      31.307
2015    7       26     1   9    3.9370   409.4    6.378      31.303
2015    7       26     1  15    3.9375   409.4    6.381      31.298
2015    7       26     1  21    3.9381   409.3    6.383      31.293
2015    7       26     1  27    3.9386   409.2    6.385      31.288
2015    7       26     1  33    3.9391   409.2    6.388      31.283
2015    7       26     1  40    3.9397   409.1    6.390      31.278
2015    7       26     1  46    3.9402   409.0    6.392      31.273
2015    7       26     1  52    3.9407   409.0    6.395      31.268
2015    7       26     1  58    3.9412   408.9    6.397      31.263
2015    7       26     2   4    3.9417   408.9    6.399      31.257
2015    7       26     2  11    3.9422   408.8    6.402      31.252
2015    7       26     2  17    3.9427   408.7    6.404      31.246
2015    7       26     2  23    3.9432   408.7    6.406      31.241
2015    7       26     2  29    3.9437   408.6    6.408      31.236
2015    7       26     2  35    3.9442   408.5    6.411      31.230
2015    7       26     2  42    3.9447   408.5    6.413      31.225
2015    7       26     2  48    3.9452   408.4    6.415      31.220
2015    7       26     2  54    3.9457   408.4    6.418      31.215
2015    7       26     3   0    3.9462   408.3    6.420      31.210
2015    7       26     3   7    3.9467   408.2    6.422      31.205
2015    7       26     3  13    3.9473   408.2    6.425      31.200
2015    7       26     3  19    3.9478   408.1    6.427      31.195
2015    7       26     3  25    3.9483   408.0    6.430      31.190
2015    7       26     3  31    3.9489   408.0    6.432      31.186
2015    7       26     3  38    3.9494   407.9    6.435      31.182
2015    7       26     3  44    3.9499   407.9    6.437      31.177
2015    7       26     3  50    3.9505   407.8    6.440      31.173
2015    7       26     3  56    3.9510   407.7    6.443      31.169
2015    7       26     4   2    3.9516   407.7    6.445      31.166
2015    7       26     4   9    3.9521   407.6    6.448      31.162
2015    7       26     4  15    3.9527   407.5    6.450      31.158
2015    7       26     4  21    3.9532   407.5    6.453      31.155
2015    7       26     4  27    3.9537   407.4    6.456      31.151
2015    7       26     4  34    3.9543   407.4    6.458      31.148
2015    7       26     4  40    3.9548   407.3    6.461      31.145
2015    7       26     4  46    3.9553   407.2    6.464      31.142
2015    7       26     4  52    3.9558   407.2    6.466      31.139
2015    7       26     4  58    3.9563   407.1    6.469      31.136
2015    7       26     5   5    3.9568   407.1    6.472      31.133
2015    7       26     5  11    3.9573   407.0    6.474      31.130
2015    7       26     5  17    3.9578   406.9    6.477      31.127
2015    7       26     5  23    3.9583   406.9    6.479      31.124
2015    7       26     5  29    3.9587   406.8    6.482      31.121
2015    7       26     5  36    3.9592   406.7    6.484      31.118
2015    7       26     5  42    3.9596   406.7    6.487      31.116
2015    7       26     5  48    3.9601   406.6    6.489      31.113
2015    7       26     5  54    3.9606   406.5    6.491      31.110
2015    7       26     6   1    3.9610   406.5    6.494      31.107
2015    7       26     6   7    3.9615   406.4    6.496      31.104
2015    7       26     6  13    3.9619   406.3    6.499      31.101
2015    7       26     6  19    3.9623   406.3    6.501      31.099
2015    7       26     6  25    3.9628   406.2    6.503      31.096
2015    7       26     6  32    3.9632   406.1    6.506      31.093
2015    7       26     6  38    3.9637   406.1    6.508      31.090
2015    7       26     6  44    3.9641   406.0    6.510      31.087
2015    7       26     6  50    3.9645   406.0    6.513      31.083
2015    7       26     6  56    3.9649   405.9    6.515      31.080
2015    7       26     7   3    3.9654   405.8    6.517      31.077
2015    7       26     7   9    3.9658   405.8    6.519      31.074
2015    7       26     7  15    3.9662   405.7    6.522      31.070
2015    7       26     7  21    3.9667   405.6    6.524      31.067
2015    7       26     7  28    3.9671   405.6    6.526      31.063
2015    7       26     7  34    3.9675   405.5    6.528      31.059
2015    7       26     7  40    3.9679   405.4    6.531      31.055
2015    7       26     7  46    3.9683   405.4    6.533      31.052
2015    7       26     7  52    3.9688   405.3    6.535      31.048
2015    7       26     7  59    3.9692   405.2    6.537      31.044
2015    7       26     8   5    3.9696   405.2    6.539      31.040
2015    7       26     8  11    3.9700   405.1    6.542      31.035
2015    7       26     8  17    3.9705   405.0    6.544      31.031
2015    7       26     8  23    3.9709   405.0    6.546      31.027
2015    7       26     8  30    3.9713   404.9    6.548      31.023
2015    7       26     8  36    3.9718   404.8    6.551      31.018
2015    7       26     8  42    3.9722   404.7    6.553      31.014
2015    7       26     8  48    3.9727   404.7    6.555      31.009
2015    7       26     8  54    3.9731   404.6    6.558      31.005
2015    7       26     9   1    3.9736   404.5    6.560      31.000
2015    7       26     9   7    3.9741   404.5    6.562      30.995
2015    7       26     9  13    3.9746   404.4    6.565      30.991
2015    7       26     9  19    3.9751   404.3    6.567      30.986
2015    7       26     9  25    3.9756   404.3    6.570      30.981
2015    7       26     9  32    3.9761   404.2    6.572      30.977
2015    7       26     9  38    3.9767   404.1    6.575      30.972
2015    7       26     9  44    3.9772   404.1    6.577      30.967
2015    7       26     9  50    3.9778   404.0    6.580      30.963
2015    7       26     9  57    3.9784   403.9    6.583      30.958
2015    7       26    10   3    3.9790   403.8    6.585      30.954
2015    7       26    10   9    3.9796   403.8    6.588      30.949
2015    7       26    10  15    3.9802   403.7    6.591      30.945
2015    7       26    10  21    3.9809   403.6    6.594      30.940
2015    7       26    10  28    3.9815   403.6    6.596      30.936
2015    7       26    10  34    3.9822   403.5    6.599      30.932
2015    7       26    10  40    3.9829   403.4    6.602      30.927
2015    7       26    10  46    3.9835   403.4    6.605      30.923
2015    7       26    10  52    3.9842   403.3    6.608      30.919
2015    7       26    10  59    3.9849   403.2    6.610      30.915
2015    7       26    11   5    3.9856   403.2    6.613      30.911
2015    7       26    11  11    3.9863   403.1    6.616      30.907
2015    7       26    11  17    3.9870   403.0    6.619      30.903
2015    7       26    11  24    3.9878   402.9    6.622      30.899
2015    7       26    11  30    3.9885   402.9    6.625      30.895
2015    7       26    11  36    3.9892   402.8    6.628      30.892
2015    7       26    11  42    3.9899   402.7    6.630      30.888
2015    7       26    11  48    3.9906   402.7    6.633      30.884
2015    7       26    11  55    3.9913   402.6    6.636      30.880
2015    7       26    12   1    3.9920   402.5    6.639      30.877
2015    7       26    12   7    3.9926   402.5    6.642      30.873
2015    7       26    12  13    3.9933   402.4    6.644      30.869
2015    7       26    12  19    3.9940   402.3    6.647      30.866
2015    7       26    12  26    3.9947   402.2    6.650      30.862
2015    7       26    12  32    3.9953   402.2    6.652      30.858
2015    7       26    12  38    3.9960   402.1    6.655      30.855
2015    7       26    12  44    3.9966   402.0    6.658      30.851
2015    7       26    12  51    3.9973   402.0    6.660      30.848
2015    7       26    12  57    3.9980   401.9    6.663      30.844
2015    7       26    13   3    3.9986   401.8    6.665      30.841
2015    7       26    13   9    3.9993   401.7    6.668      30.837
2015    7       26    13  15    4.0000   401.7    6.671      30.834
2015    7       26    13  22    4.0006   401.6    6.673      30.831
2015    7       26    13  28    4.0013   401.5    6.676      30.827
2015    7       26    13  34    4.0019   401.5    6.678      30.824
2015    7       26    13  40    4.0026   401.4    6.681      30.821
2015    7       26    13  46    4.0032   401.3    6.683      30.817
2015    7       26    13  53    4.0039   401.2    6.686      30.814
2015    7       26    13  59    4.0046   401.2    6.688      30.811
2015    7       26    14   5    4.0052   401.1    6.691      30.808
2015    7       26    14  11    4.0059   401.0    6.693      30.804
2015    7       26    14  18    4.0066   400.9    6.696      30.801
2015    7       26    14  24    4.0072   400.9    6.698      30.798
2015    7       26    14  30    4.0079   400.8    6.701      30.794
2015    7       26    14  36    4.0086   400.7    6.703      30.791
2015    7       26    14  42    4.0093   400.6    6.706      30.788
2015    7       26    14  49    4.0100   400.6    6.709      30.785
2015    7       26    14  55    4.0107   400.5    6.711      30.781
2015    7       26    15   1    4.0114   400.4    6.714      30.778
2015    7       26    15   7    4.0121   400.3    6.717      30.774
2015    7       26    15  13    4.0129   400.3    6.719      30.771
2015    7       26    15  20    4.0136   400.2    6.722      30.768
2015    7       26    15  26    4.0144   400.1    6.725      30.765
2015    7       26    15  32    4.0152   400.0    6.728      30.762
2015    7       26    15  38    4.0160   400.0    6.731      30.758
2015    7       26    15  44    4.0168   399.9    6.734      30.755
2015    7       26    15  51    4.0176   399.8    6.736      30.752
2015    7       26    15  57    4.0185   399.7    6.740      30.749
2015    7       26    16   3    4.0194   399.6    6.743      30.746
2015    7       26    16   9    4.0203   399.6    6.746      30.743
2015    7       26    16  15    4.0213   399.5    6.749      30.740
2015    7       26    16  22    4.0223   399.4    6.752      30.738
2015    7       26    16  28    4.0233   399.3    6.756      30.735
2015    7       26    16  34    4.0244   399.2    6.759      30.732
2015    7       26    16  40    4.0254   399.2    6.762      30.730
2015    7       26    16  47    4.0266   399.1    6.766      30.727
2015    7       26    16  53    4.0277   399.0    6.770      30.725
2015    7       26    16  59    4.0289   398.9    6.773      30.723
2015    7       26    17   5    4.0301   398.9    6.777      30.721
2015    7       26    17  11    4.0314   398.8    6.781      30.719
2015    7       26    17  18    4.0327   398.7    6.785      30.717
2015    7       26    17  24    4.0340   398.6    6.788      30.715
2015    7       26    17  30    4.0354   398.5    6.792      30.714
2015    7       26    17  36    4.0367   398.5    6.796      30.712
2015    7       26    17  42    4.0382   398.4    6.800      30.711
2015    7       26    17  49    4.0396   398.3    6.804      30.709
2015    7       26    17  55    4.0411   398.2    6.808      30.708
2015    7       26    18   1    4.0426   398.2    6.812      30.707
2015    7       26    18   7    4.0441   398.1    6.816      30.706
2015    7       26    18  13    4.0456   398.0    6.820      30.704
2015    7       26    18  20    4.0471   397.9    6.824      30.703
2015    7       26    18  26    4.0487   397.9    6.828      30.702
2015    7       26    18  32    4.0503   397.8    6.832      30.701
2015    7       26    18  38    4.0518   397.7    6.836      30.699
2015    7       26    18  45    4.0534   397.6    6.840      30.698
2015    7       26    18  51    4.0550   397.5    6.844      30.697
2015    7       26    18  57    4.0566   397.5    6.848      30.695
2015    7       26    19   3    4.0582   397.4    6.852      30.694
2015    7       26    19   9    4.0597   397.3    6.856      30.693
2015    7       26    19  16    4.0614   397.2    6.860      30.691
2015    7       26    19  22    4.0629   397.2    6.863      30.690
2015    7       26    19  28    4.0646   397.1    6.867      30.688
2015    7       26    19  34    4.0662   397.0    6.871      30.687
2015    7       26    19  40    4.0678   396.9    6.875      30.685
2015    7       26    19  47    4.0694   396.8    6.878      30.684
2015    7       26    19  53    4.0710   396.8    6.882      30.682
2015    7       26    19  59    4.0727   396.7    6.886      30.680
2015    7       26    20   5    4.0743   396.6    6.889      30.679
2015    7       26    20  12    4.0760   396.5    6.893      30.677
2015    7       26    20  18    4.0776   396.5    6.896      30.675
2015    7       26    20  24    4.0793   396.4    6.900      30.674
2015    7       26    20  30    4.0810   396.3    6.903      30.672
2015    7       26    20  36    4.0827   396.2    6.907      30.670
2015    7       26    20  43    4.0843   396.2    6.910      30.668
2015    7       26    20  49    4.0860   396.1    6.914      30.666
2015    7       26    20  55    4.0877   396.0    6.917      30.664
2015    7       26    21   1    4.0895   395.9    6.921      30.663
2015    7       26    21   7    4.0912   395.8    6.924      30.661
2015    7       26    21  14    4.0929   395.8    6.928      30.659
2015    7       26    21  20    4.0947   395.7    6.932      30.657
2015    7       26    21  26    4.0964   395.6    6.935      30.655
2015    7       26    21  32    4.0982   395.5    6.939      30.654
2015    7       26    21  39    4.1000   395.5    6.942      30.652
2015    7       26    21  45    4.1018   395.4    6.946      30.650
2015    7       26    21  51    4.1037   395.3    6.950      30.649
2015    7       26    21  57    4.1055   395.2    6.954      30.647
2015    7       26    22   3    4.1074   395.1    6.957      30.646
2015    7       26    22  10    4.1093   395.1    6.961      30.645
2015    7       26    22  16    4.1112   395.0    6.965      30.644
2015    7       26    22  22    4.1132   394.9    6.969      30.643
2015    7       26    22  28    4.1152   394.8    6.973      30.642
2015    7       26    22  34    4.1172   394.8    6.978      30.642
2015    7       26    22  41    4.1192   394.7    6.982      30.641
2015    7       26    22  47    4.1213   394.6    6.986      30.641
2015    7       26    22  53    4.1234   394.5    6.991      30.642
2015    7       26    22  59    4.1255   394.5    6.995      30.642
2015    7       26    23   5    4.1277   394.4    7.000      30.643
2015    7       26    23  12    4.1299   394.3    7.004      30.644
2015    7       26    23  18    4.1321   394.2    7.009      30.646
2015    7       26    23  24    4.1344   394.2    7.014      30.648
2015    7       26    23  30    4.1367   394.1    7.019      30.650
2015    7       26    23  37    4.1391   394.0    7.024      30.652
2015    7       26    23  43    4.1414   394.0    7.029      30.655
2015    7       26    23  49    4.1438   393.9    7.034      30.658
2015    7       26    23  55    4.1463   393.8    7.040      30.662
2015    7       27     0   1    4.1487   393.7    7.045      30.665
