year    month   day   hour  minute  B_enl V_enl   n_enl       T_enl
[year] [month] [day] [hour][minute] [nT]  [km/s]  [cm-3]      [kK]
2015    7       23     0   2    4.9382   434.8    7.049      40.501
2015    7       23     0   8    4.9396   434.8    7.048      40.519
2015    7       23     0  14    4.9410   434.9    7.047      40.536
2015    7       23     0  20    4.9423   435.0    7.046      40.553
2015    7       23     0  26    4.9437   435.1    7.046      40.570
2015    7       23     0  32    4.9450   435.1    7.045      40.587
2015    7       23     0  38    4.9463   435.2    7.044      40.603
2015    7       23     0  44    4.9476   435.3    7.043      40.619
2015    7       23     0  49    4.9489   435.4    7.042      40.635
2015    7       23     0  55    4.9502   435.5    7.041      40.651
2015    7       23     1   1    4.9515   435.5    7.040      40.667
2015    7       23     1   7    4.9527   435.6    7.039      40.682
2015    7       23     1  13    4.9540   435.7    7.039      40.698
2015    7       23     1  19    4.9552   435.8    7.038      40.713
2015    7       23     1  25    4.9564   435.8    7.037      40.728
2015    7       23     1  31    4.9577   435.9    7.037      40.744
2015    7       23     1  37    4.9589   436.0    7.036      40.760
2015    7       23     1  43    4.9601   436.1    7.035      40.775
2015    7       23     1  49    4.9614   436.2    7.035      40.791
2015    7       23     1  55    4.9626   436.2    7.035      40.807
2015    7       23     2   1    4.9638   436.3    7.035      40.824
2015    7       23     2   7    4.9651   436.4    7.035      40.840
2015    7       23     2  13    4.9663   436.5    7.035      40.858
2015    7       23     2  18    4.9676   436.5    7.035      40.876
2015    7       23     2  24    4.9688   436.6    7.036      40.894
2015    7       23     2  30    4.9701   436.7    7.036      40.914
2015    7       23     2  36    4.9714   436.8    7.037      40.934
2015    7       23     2  42    4.9726   436.9    7.037      40.956
2015    7       23     2  48    4.9739   436.9    7.038      40.977
2015    7       23     2  54    4.9752   437.0    7.039      41.000
2015    7       23     3   0    4.9765   437.1    7.040      41.023
2015    7       23     3   6    4.9777   437.2    7.041      41.047
2015    7       23     3  12    4.9790   437.3    7.042      41.072
2015    7       23     3  18    4.9803   437.3    7.043      41.098
2015    7       23     3  24    4.9815   437.4    7.044      41.124
2015    7       23     3  30    4.9828   437.5    7.045      41.151
2015    7       23     3  36    4.9840   437.6    7.046      41.178
2015    7       23     3  42    4.9852   437.7    7.047      41.206
2015    7       23     3  47    4.9864   437.8    7.048      41.234
2015    7       23     3  53    4.9876   437.9    7.048      41.261
2015    7       23     3  59    4.9888   437.9    7.049      41.289
2015    7       23     4   5    4.9900   438.0    7.050      41.317
2015    7       23     4  11    4.9911   438.1    7.050      41.344
2015    7       23     4  17    4.9922   438.2    7.050      41.371
2015    7       23     4  23    4.9932   438.3    7.050      41.398
2015    7       23     4  29    4.9943   438.4    7.050      41.425
2015    7       23     4  35    4.9953   438.5    7.050      41.451
2015    7       23     4  41    4.9962   438.6    7.050      41.476
2015    7       23     4  47    4.9972   438.7    7.049      41.501
2015    7       23     4  53    4.9981   438.8    7.048      41.526
2015    7       23     4  59    4.9991   438.9    7.048      41.549
2015    7       23     5   5    4.9999   439.0    7.047      41.572
2015    7       23     5  10    5.0008   439.1    7.046      41.595
2015    7       23     5  16    5.0016   439.2    7.045      41.617
2015    7       23     5  22    5.0024   439.2    7.043      41.639
2015    7       23     5  28    5.0032   439.3    7.042      41.659
2015    7       23     5  34    5.0040   439.4    7.041      41.680
2015    7       23     5  40    5.0048   439.5    7.039      41.700
2015    7       23     5  46    5.0055   439.6    7.037      41.719
2015    7       23     5  52    5.0062   439.7    7.036      41.738
2015    7       23     5  58    5.0069   439.8    7.034      41.757
2015    7       23     6   4    5.0076   439.9    7.032      41.775
2015    7       23     6  10    5.0082   440.0    7.030      41.793
2015    7       23     6  16    5.0088   440.1    7.028      41.810
2015    7       23     6  22    5.0094   440.2    7.026      41.828
2015    7       23     6  28    5.0100   440.3    7.024      41.844
2015    7       23     6  34    5.0105   440.4    7.022      41.861
2015    7       23     6  39    5.0110   440.5    7.019      41.877
2015    7       23     6  45    5.0115   440.6    7.017      41.892
2015    7       23     6  51    5.0120   440.7    7.015      41.907
2015    7       23     6  57    5.0124   440.8    7.012      41.922
2015    7       23     7   3    5.0128   440.9    7.010      41.937
2015    7       23     7   9    5.0132   441.0    7.007      41.951
2015    7       23     7  15    5.0135   441.1    7.004      41.964
2015    7       23     7  21    5.0138   441.2    7.002      41.978
2015    7       23     7  27    5.0141   441.3    6.999      41.991
2015    7       23     7  33    5.0144   441.4    6.996      42.003
2015    7       23     7  39    5.0146   441.5    6.993      42.015
2015    7       23     7  45    5.0148   441.6    6.990      42.027
2015    7       23     7  51    5.0150   441.7    6.987      42.039
2015    7       23     7  57    5.0152   441.8    6.984      42.050
2015    7       23     8   3    5.0153   441.9    6.981      42.061
2015    7       23     8   9    5.0155   442.0    6.978      42.072
2015    7       23     8  14    5.0156   442.1    6.975      42.083
2015    7       23     8  20    5.0157   442.2    6.972      42.093
2015    7       23     8  26    5.0157   442.3    6.968      42.104
2015    7       23     8  32    5.0158   442.4    6.965      42.114
2015    7       23     8  38    5.0158   442.5    6.962      42.124
2015    7       23     8  44    5.0159   442.6    6.959      42.135
2015    7       23     8  50    5.0159   442.7    6.956      42.145
2015    7       23     8  56    5.0159   442.8    6.953      42.156
2015    7       23     9   2    5.0158   442.9    6.950      42.166
2015    7       23     9   8    5.0158   443.0    6.948      42.177
2015    7       23     9  14    5.0158   443.1    6.945      42.187
2015    7       23     9  20    5.0157   443.2    6.942      42.198
2015    7       23     9  26    5.0156   443.3    6.939      42.210
2015    7       23     9  32    5.0156   443.4    6.936      42.221
2015    7       23     9  38    5.0155   443.5    6.933      42.234
2015    7       23     9  43    5.0153   443.6    6.930      42.247
2015    7       23     9  49    5.0152   443.7    6.928      42.260
2015    7       23     9  55    5.0150   443.8    6.925      42.274
2015    7       23    10   1    5.0149   443.9    6.922      42.288
2015    7       23    10   7    5.0146   444.0    6.919      42.303
2015    7       23    10  13    5.0144   444.1    6.916      42.317
2015    7       23    10  19    5.0142   444.2    6.913      42.332
2015    7       23    10  25    5.0139   444.3    6.909      42.347
2015    7       23    10  31    5.0136   444.4    6.906      42.362
2015    7       23    10  37    5.0132   444.5    6.903      42.377
2015    7       23    10  43    5.0128   444.6    6.899      42.392
2015    7       23    10  49    5.0124   444.7    6.896      42.407
2015    7       23    10  55    5.0120   444.8    6.892      42.422
2015    7       23    11   1    5.0115   444.9    6.889      42.436
2015    7       23    11   7    5.0111   445.0    6.885      42.451
2015    7       23    11  12    5.0106   445.1    6.881      42.465
2015    7       23    11  18    5.0100   445.2    6.877      42.478
2015    7       23    11  24    5.0095   445.3    6.873      42.492
2015    7       23    11  30    5.0089   445.4    6.869      42.505
2015    7       23    11  36    5.0082   445.6    6.865      42.517
2015    7       23    11  42    5.0076   445.7    6.861      42.530
2015    7       23    11  48    5.0069   445.8    6.856      42.542
2015    7       23    11  54    5.0062   445.9    6.852      42.553
2015    7       23    12   0    5.0054   446.0    6.847      42.565
2015    7       23    12   6    5.0046   446.1    6.843      42.575
2015    7       23    12  12    5.0038   446.2    6.838      42.586
2015    7       23    12  18    5.0030   446.3    6.833      42.596
2015    7       23    12  24    5.0021   446.4    6.829      42.605
2015    7       23    12  30    5.0013   446.5    6.824      42.614
2015    7       23    12  35    5.0003   446.6    6.819      42.622
2015    7       23    12  41    4.9994   446.7    6.814      42.630
2015    7       23    12  47    4.9984   446.8    6.808      42.637
2015    7       23    12  53    4.9974   446.9    6.803      42.644
2015    7       23    12  59    4.9964   446.9    6.798      42.650
2015    7       23    13   5    4.9954   447.0    6.793      42.656
2015    7       23    13  11    4.9943   447.1    6.787      42.662
2015    7       23    13  17    4.9932   447.2    6.782      42.667
2015    7       23    13  23    4.9920   447.3    6.776      42.672
2015    7       23    13  29    4.9909   447.4    6.771      42.676
2015    7       23    13  35    4.9897   447.5    6.765      42.679
2015    7       23    13  41    4.9885   447.6    6.759      42.683
2015    7       23    13  47    4.9872   447.7    6.753      42.685
2015    7       23    13  52    4.9860   447.8    6.748      42.688
2015    7       23    13  58    4.9846   447.9    6.742      42.690
2015    7       23    14   4    4.9833   448.0    6.736      42.691
2015    7       23    14  10    4.9819   448.1    6.730      42.692
2015    7       23    14  16    4.9805   448.2    6.723      42.692
2015    7       23    14  22    4.9790   448.3    6.717      42.692
2015    7       23    14  28    4.9776   448.4    6.711      42.692
2015    7       23    14  34    4.9760   448.5    6.705      42.691
2015    7       23    14  40    4.9745   448.6    6.698      42.690
2015    7       23    14  46    4.9729   448.7    6.692      42.688
2015    7       23    14  52    4.9713   448.8    6.686      42.686
2015    7       23    14  58    4.9696   448.9    6.679      42.683
2015    7       23    15   4    4.9679   449.0    6.672      42.680
2015    7       23    15   9    4.9662   449.1    6.666      42.677
2015    7       23    15  15    4.9644   449.2    6.659      42.673
2015    7       23    15  21    4.9626   449.2    6.652      42.668
2015    7       23    15  27    4.9608   449.3    6.646      42.664
2015    7       23    15  33    4.9589   449.4    6.639      42.658
2015    7       23    15  39    4.9571   449.5    6.632      42.653
2015    7       23    15  45    4.9551   449.6    6.625      42.647
2015    7       23    15  51    4.9532   449.7    6.618      42.641
2015    7       23    15  57    4.9512   449.8    6.611      42.634
2015    7       23    16   3    4.9492   449.9    6.604      42.627
2015    7       23    16   9    4.9472   450.0    6.597      42.620
2015    7       23    16  15    4.9451   450.0    6.590      42.612
2015    7       23    16  21    4.9430   450.1    6.583      42.604
2015    7       23    16  26    4.9409   450.2    6.576      42.596
2015    7       23    16  32    4.9388   450.3    6.569      42.587
2015    7       23    16  38    4.9366   450.4    6.562      42.578
2015    7       23    16  44    4.9344   450.5    6.555      42.570
2015    7       23    16  50    4.9322   450.5    6.548      42.560
2015    7       23    16  56    4.9300   450.6    6.540      42.551
2015    7       23    17   2    4.9277   450.7    6.533      42.542
2015    7       23    17   8    4.9254   450.8    6.526      42.532
2015    7       23    17  14    4.9231   450.9    6.519      42.522
2015    7       23    17  20    4.9208   450.9    6.511      42.512
2015    7       23    17  26    4.9185   451.0    6.504      42.501
2015    7       23    17  32    4.9161   451.1    6.497      42.491
2015    7       23    17  38    4.9137   451.2    6.489      42.480
2015    7       23    17  44    4.9113   451.2    6.482      42.469
2015    7       23    17  50    4.9089   451.3    6.474      42.458
2015    7       23    17  55    4.9064   451.4    6.467      42.446
2015    7       23    18   1    4.9039   451.5    6.460      42.434
2015    7       23    18   7    4.9014   451.5    6.452      42.422
2015    7       23    18  13    4.8989   451.6    6.445      42.410
2015    7       23    18  19    4.8964   451.7    6.437      42.398
2015    7       23    18  25    4.8939   451.7    6.430      42.385
2015    7       23    18  31    4.8913   451.8    6.423      42.372
2015    7       23    18  37    4.8887   451.9    6.415      42.358
2015    7       23    18  43    4.8861   451.9    6.408      42.345
2015    7       23    18  49    4.8835   452.0    6.400      42.331
2015    7       23    18  55    4.8809   452.1    6.393      42.317
2015    7       23    19   1    4.8782   452.1    6.386      42.303
2015    7       23    19   7    4.8755   452.2    6.378      42.288
2015    7       23    19  13    4.8729   452.3    6.371      42.274
2015    7       23    19  18    4.8702   452.3    6.364      42.258
2015    7       23    19  24    4.8675   452.4    6.357      42.243
2015    7       23    19  30    4.8648   452.4    6.349      42.228
2015    7       23    19  36    4.8621   452.5    6.342      42.212
2015    7       23    19  42    4.8593   452.5    6.335      42.197
2015    7       23    19  48    4.8566   452.6    6.328      42.181
2015    7       23    19  54    4.8539   452.7    6.321      42.164
2015    7       23    20   0    4.8511   452.7    6.314      42.148
2015    7       23    20   6    4.8483   452.8    6.307      42.132
2015    7       23    20  12    4.8456   452.8    6.300      42.115
2015    7       23    20  18    4.8428   452.9    6.293      42.098
2015    7       23    20  24    4.8400   452.9    6.286      42.081
2015    7       23    20  30    4.8372   453.0    6.279      42.064
2015    7       23    20  36    4.8344   453.0    6.272      42.047
2015    7       23    20  41    4.8316   453.1    6.266      42.030
2015    7       23    20  47    4.8288   453.1    6.259      42.012
2015    7       23    20  53    4.8260   453.2    6.252      41.995
2015    7       23    20  59    4.8232   453.2    6.246      41.977
2015    7       23    21   5    4.8204   453.2    6.239      41.959
2015    7       23    21  11    4.8175   453.3    6.233      41.942
2015    7       23    21  17    4.8147   453.3    6.227      41.924
2015    7       23    21  23    4.8119   453.4    6.220      41.906
2015    7       23    21  29    4.8090   453.4    6.214      41.888
2015    7       23    21  35    4.8062   453.5    6.208      41.870
2015    7       23    21  41    4.8033   453.5    6.202      41.852
2015    7       23    21  47    4.8005   453.5    6.196      41.833
2015    7       23    21  52    4.7976   453.6    6.189      41.815
2015    7       23    21  58    4.7948   453.6    6.184      41.797
2015    7       23    22   4    4.7919   453.6    6.178      41.778
2015    7       23    22  10    4.7890   453.7    6.172      41.760
2015    7       23    22  16    4.7862   453.7    6.166      41.741
2015    7       23    22  22    4.7833   453.7    6.160      41.723
2015    7       23    22  28    4.7804   453.8    6.155      41.704
2015    7       23    22  34    4.7776   453.8    6.149      41.685
2015    7       23    22  40    4.7747   453.8    6.143      41.667
2015    7       23    22  46    4.7718   453.8    6.138      41.648
2015    7       23    22  52    4.7690   453.9    6.133      41.629
2015    7       23    22  58    4.7661   453.9    6.127      41.611
2015    7       23    23   4    4.7633   453.9    6.122      41.592
2015    7       23    23  10    4.7604   453.9    6.117      41.573
2015    7       23    23  15    4.7576   454.0    6.112      41.554
2015    7       23    23  21    4.7548   454.0    6.106      41.536
2015    7       23    23  27    4.7519   454.0    6.101      41.517
2015    7       23    23  33    4.7491   454.0    6.096      41.498
2015    7       23    23  39    4.7463   454.0    6.091      41.480
2015    7       23    23  45    4.7435   454.1    6.086      41.461
2015    7       23    23  51    4.7406   454.1    6.081      41.442
2015    7       23    23  57    4.7378   454.1    6.076      41.423
2015    7       24     0   3    4.7350   454.1    6.071      41.404
2015    7       24     0   9    4.7322   454.1    6.066      41.384
2015    7       24     0  15    4.7293   454.1    6.061      41.365
2015    7       24     0  21    4.7265   454.1    6.055      41.345
2015    7       24     0  27    4.7237   454.2    6.050      41.325
2015    7       24     0  33    4.7208   454.2    6.045      41.305
2015    7       24     0  38    4.7180   454.2    6.040      41.285
2015    7       24     0  44    4.7151   454.2    6.034      41.264
2015    7       24     0  50    4.7123   454.2    6.029      41.243
2015    7       24     0  56    4.7094   454.2    6.024      41.221
2015    7       24     1   2    4.7066   454.2    6.018      41.200
2015    7       24     1   8    4.7037   454.2    6.013      41.178
2015    7       24     1  14    4.7008   454.3    6.008      41.156
2015    7       24     1  20    4.6980   454.3    6.002      41.134
2015    7       24     1  26    4.6951   454.3    5.997      41.111
2015    7       24     1  32    4.6923   454.3    5.992      41.089
2015    7       24     1  38    4.6894   454.3    5.986      41.066
2015    7       24     1  44    4.6866   454.3    5.981      41.043
2015    7       24     1  50    4.6837   454.3    5.975      41.019
2015    7       24     1  56    4.6809   454.3    5.970      40.996
2015    7       24     2   1    4.6780   454.3    5.965      40.972
2015    7       24     2   7    4.6752   454.3    5.959      40.949
2015    7       24     2  13    4.6723   454.3    5.954      40.925
2015    7       24     2  19    4.6695   454.3    5.949      40.901
2015    7       24     2  25    4.6667   454.3    5.943      40.877
2015    7       24     2  31    4.6639   454.3    5.938      40.853
2015    7       24     2  37    4.6611   454.3    5.933      40.828
2015    7       24     2  43    4.6583   454.3    5.928      40.804
2015    7       24     2  49    4.6555   454.3    5.922      40.779
2015    7       24     2  55    4.6527   454.3    5.917      40.755
2015    7       24     3   1    4.6499   454.3    5.912      40.730
2015    7       24     3   7    4.6471   454.3    5.907      40.705
2015    7       24     3  13    4.6443   454.3    5.902      40.680
2015    7       24     3  19    4.6415   454.3    5.897      40.656
2015    7       24     3  25    4.6388   454.3    5.892      40.631
2015    7       24     3  30    4.6360   454.3    5.887      40.606
2015    7       24     3  36    4.6333   454.3    5.882      40.581
2015    7       24     3  42    4.6305   454.3    5.877      40.556
2015    7       24     3  48    4.6278   454.3    5.872      40.531
2015    7       24     3  54    4.6251   454.3    5.868      40.507
2015    7       24     4   0    4.6224   454.3    5.863      40.482
2015    7       24     4   6    4.6197   454.3    5.858      40.457
2015    7       24     4  12    4.6170   454.2    5.854      40.433
2015    7       24     4  18    4.6143   454.2    5.849      40.408
2015    7       24     4  24    4.6116   454.2    5.845      40.384
2015    7       24     4  30    4.6090   454.2    5.841      40.360
2015    7       24     4  36    4.6063   454.2    5.836      40.336
2015    7       24     4  42    4.6037   454.2    5.832      40.312
2015    7       24     4  48    4.6011   454.2    5.828      40.288
2015    7       24     4  53    4.5985   454.2    5.824      40.265
2015    7       24     4  59    4.5960   454.2    5.820      40.242
2015    7       24     5   5    4.5934   454.1    5.817      40.219
2015    7       24     5  11    4.5909   454.1    5.813      40.196
2015    7       24     5  17    4.5883   454.1    5.809      40.174
2015    7       24     5  23    4.5858   454.1    5.806      40.152
2015    7       24     5  29    4.5834   454.1    5.803      40.130
2015    7       24     5  35    4.5809   454.1    5.799      40.109
2015    7       24     5  41    4.5785   454.0    5.796      40.088
2015    7       24     5  47    4.5761   454.0    5.793      40.067
2015    7       24     5  53    4.5737   454.0    5.791      40.047
2015    7       24     5  59    4.5714   454.0    5.788      40.027
2015    7       24     6   5    4.5690   454.0    5.785      40.007
2015    7       24     6  11    4.5667   454.0    5.783      39.988
2015    7       24     6  16    4.5645   453.9    5.781      39.969
2015    7       24     6  22    4.5622   453.9    5.778      39.951
2015    7       24     6  28    4.5600   453.9    5.776      39.933
2015    7       24     6  34    4.5578   453.9    5.774      39.915
2015    7       24     6  40    4.5557   453.8    5.773      39.898
2015    7       24     6  46    4.5536   453.8    5.771      39.882
2015    7       24     6  52    4.5515   453.8    5.769      39.866
2015    7       24     6  58    4.5494   453.8    5.768      39.850
2015    7       24     7   4    4.5473   453.8    5.766      39.835
2015    7       24     7  10    4.5453   453.7    5.765      39.820
2015    7       24     7  16    4.5432   453.7    5.763      39.805
2015    7       24     7  22    4.5412   453.7    5.762      39.791
2015    7       24     7  28    4.5392   453.7    5.761      39.776
2015    7       24     7  34    4.5372   453.6    5.759      39.762
2015    7       24     7  39    4.5352   453.6    5.758      39.748
2015    7       24     7  45    4.5331   453.6    5.757      39.734
2015    7       24     7  51    4.5311   453.6    5.756      39.720
2015    7       24     7  57    4.5291   453.6    5.754      39.706
2015    7       24     8   3    4.5271   453.5    5.753      39.692
2015    7       24     8   9    4.5251   453.5    5.752      39.678
2015    7       24     8  15    4.5230   453.5    5.750      39.664
2015    7       24     8  21    4.5210   453.4    5.749      39.649
2015    7       24     8  27    4.5190   453.4    5.747      39.635
2015    7       24     8  33    4.5170   453.4    5.746      39.620
2015    7       24     8  39    4.5149   453.4    5.745      39.605
2015    7       24     8  45    4.5129   453.3    5.743      39.591
2015    7       24     8  51    4.5109   453.3    5.741      39.576
2015    7       24     8  57    4.5089   453.3    5.740      39.561
2015    7       24     9   3    4.5069   453.3    5.738      39.545
2015    7       24     9   8    4.5049   453.2    5.737      39.530
2015    7       24     9  14    4.5029   453.2    5.735      39.514
2015    7       24     9  20    4.5009   453.2    5.733      39.499
2015    7       24     9  26    4.4989   453.1    5.731      39.483
2015    7       24     9  32    4.4969   453.1    5.729      39.466
2015    7       24     9  38    4.4949   453.1    5.728      39.450
2015    7       24     9  44    4.4930   453.0    5.726      39.434
2015    7       24     9  50    4.4910   453.0    5.724      39.417
2015    7       24     9  56    4.4890   453.0    5.722      39.400
2015    7       24    10   2    4.4871   452.9    5.720      39.383
2015    7       24    10   8    4.4852   452.9    5.718      39.365
2015    7       24    10  14    4.4832   452.9    5.715      39.348
2015    7       24    10  20    4.4813   452.8    5.713      39.330
2015    7       24    10  26    4.4794   452.8    5.711      39.312
2015    7       24    10  31    4.4775   452.8    5.709      39.294
2015    7       24    10  37    4.4756   452.7    5.707      39.276
2015    7       24    10  43    4.4737   452.7    5.704      39.257
2015    7       24    10  49    4.4718   452.7    5.702      39.239
2015    7       24    10  55    4.4699   452.6    5.700      39.220
2015    7       24    11   1    4.4681   452.6    5.697      39.201
2015    7       24    11   7    4.4662   452.6    5.695      39.181
2015    7       24    11  13    4.4644   452.5    5.692      39.162
2015    7       24    11  19    4.4626   452.5    5.690      39.143
2015    7       24    11  25    4.4607   452.5    5.687      39.123
2015    7       24    11  31    4.4589   452.4    5.685      39.103
2015    7       24    11  37    4.4571   452.4    5.682      39.083
2015    7       24    11  43    4.4553   452.3    5.680      39.063
2015    7       24    11  49    4.4535   452.3    5.677      39.043
2015    7       24    11  55    4.4517   452.3    5.675      39.023
2015    7       24    12   0    4.4499   452.2    5.672      39.003
2015    7       24    12   6    4.4482   452.2    5.670      38.982
2015    7       24    12  12    4.4464   452.2    5.667      38.962
2015    7       24    12  18    4.4447   452.1    5.665      38.941
2015    7       24    12  24    4.4429   452.1    5.662      38.921
2015    7       24    12  30    4.4412   452.0    5.660      38.901
2015    7       24    12  36    4.4395   452.0    5.657      38.880
2015    7       24    12  42    4.4378   452.0    5.655      38.859
2015    7       24    12  48    4.4361   451.9    5.652      38.839
2015    7       24    12  54    4.4344   451.9    5.650      38.819
2015    7       24    13   0    4.4327   451.8    5.648      38.798
2015    7       24    13   6    4.4310   451.8    5.645      38.778
2015    7       24    13  12    4.4294   451.8    5.643      38.758
2015    7       24    13  17    4.4277   451.7    5.641      38.738
2015    7       24    13  23    4.4261   451.7    5.639      38.718
2015    7       24    13  29    4.4245   451.6    5.637      38.698
2015    7       24    13  35    4.4229   451.6    5.634      38.678
2015    7       24    13  41    4.4213   451.6    5.632      38.659
2015    7       24    13  47    4.4197   451.5    5.631      38.639
2015    7       24    13  53    4.4181   451.5    5.629      38.620
2015    7       24    13  59    4.4166   451.4    5.627      38.602
2015    7       24    14   5    4.4151   451.4    5.625      38.583
2015    7       24    14  11    4.4136   451.4    5.624      38.565
2015    7       24    14  17    4.4121   451.3    5.622      38.547
2015    7       24    14  23    4.4106   451.3    5.620      38.529
2015    7       24    14  29    4.4091   451.2    5.619      38.511
2015    7       24    14  35    4.4076   451.2    5.618      38.494
2015    7       24    14  40    4.4062   451.2    5.617      38.477
2015    7       24    14  46    4.4047   451.1    5.615      38.461
2015    7       24    14  52    4.4033   451.1    5.614      38.444
2015    7       24    14  58    4.4018   451.0    5.613      38.428
2015    7       24    15   4    4.4004   451.0    5.612      38.412
2015    7       24    15  10    4.3990   450.9    5.612      38.397
2015    7       24    15  16    4.3975   450.9    5.611      38.381
2015    7       24    15  22    4.3961   450.9    5.610      38.366
2015    7       24    15  28    4.3947   450.8    5.609      38.351
2015    7       24    15  34    4.3933   450.8    5.609      38.337
2015    7       24    15  40    4.3919   450.7    5.608      38.322
2015    7       24    15  46    4.3905   450.7    5.607      38.308
2015    7       24    15  52    4.3890   450.7    5.607      38.293
2015    7       24    15  58    4.3876   450.6    5.606      38.279
2015    7       24    16   4    4.3862   450.6    5.606      38.265
2015    7       24    16   9    4.3848   450.5    5.605      38.251
2015    7       24    16  15    4.3834   450.5    5.605      38.237
2015    7       24    16  21    4.3821   450.4    5.605      38.223
2015    7       24    16  27    4.3807   450.4    5.604      38.209
2015    7       24    16  33    4.3793   450.3    5.604      38.195
2015    7       24    16  39    4.3780   450.3    5.603      38.181
2015    7       24    16  45    4.3766   450.2    5.603      38.166
2015    7       24    16  51    4.3753   450.2    5.603      38.152
2015    7       24    16  57    4.3739   450.1    5.602      38.138
2015    7       24    17   3    4.3726   450.1    5.602      38.124
2015    7       24    17   9    4.3713   450.0    5.602      38.110
2015    7       24    17  15    4.3700   450.0    5.601      38.096
2015    7       24    17  21    4.3688   449.9    5.601      38.081
2015    7       24    17  27    4.3675   449.9    5.601      38.067
2015    7       24    17  32    4.3663   449.9    5.600      38.053
2015    7       24    17  38    4.3651   449.8    5.600      38.039
2015    7       24    17  44    4.3639   449.8    5.600      38.025
2015    7       24    17  50    4.3627   449.7    5.600      38.010
2015    7       24    17  56    4.3616   449.7    5.600      37.996
2015    7       24    18   2    4.3604   449.6    5.600      37.982
2015    7       24    18   8    4.3593   449.6    5.600      37.968
2015    7       24    18  14    4.3582   449.5    5.600      37.954
2015    7       24    18  20    4.3571   449.5    5.600      37.940
2015    7       24    18  26    4.3560   449.4    5.600      37.926
2015    7       24    18  32    4.3550   449.4    5.600      37.913
2015    7       24    18  38    4.3539   449.3    5.600      37.899
2015    7       24    18  44    4.3528   449.3    5.600      37.886
2015    7       24    18  50    4.3518   449.2    5.600      37.873
2015    7       24    18  56    4.3507   449.2    5.599      37.860
2015    7       24    19   1    4.3496   449.1    5.599      37.847
2015    7       24    19   7    4.3486   449.1    5.599      37.835
2015    7       24    19  13    4.3475   449.0    5.599      37.822
2015    7       24    19  19    4.3464   449.0    5.599      37.810
2015    7       24    19  25    4.3453   448.9    5.599      37.797
2015    7       24    19  31    4.3442   448.9    5.598      37.785
2015    7       24    19  37    4.3431   448.8    5.598      37.773
2015    7       24    19  43    4.3420   448.8    5.597      37.760
2015    7       24    19  49    4.3409   448.7    5.597      37.747
2015    7       24    19  55    4.3398   448.7    5.596      37.734
2015    7       24    20   1    4.3386   448.6    5.596      37.721
2015    7       24    20   7    4.3375   448.6    5.595      37.708
2015    7       24    20  13    4.3363   448.5    5.594      37.694
2015    7       24    20  18    4.3352   448.5    5.593      37.680
2015    7       24    20  24    4.3340   448.4    5.592      37.666
2015    7       24    20  30    4.3329   448.4    5.592      37.651
2015    7       24    20  36    4.3317   448.3    5.591      37.637
2015    7       24    20  42    4.3305   448.3    5.590      37.622
2015    7       24    20  48    4.3294   448.2    5.589      37.606
2015    7       24    20  54    4.3282   448.1    5.588      37.591
2015    7       24    21   0    4.3271   448.1    5.587      37.576
2015    7       24    21   6    4.3259   448.0    5.585      37.560
2015    7       24    21  12    4.3247   448.0    5.584      37.544
2015    7       24    21  18    4.3236   447.9    5.583      37.529
2015    7       24    21  24    4.3224   447.9    5.582      37.513
2015    7       24    21  30    4.3213   447.8    5.581      37.496
2015    7       24    21  36    4.3202   447.8    5.580      37.480
2015    7       24    21  41    4.3190   447.7    5.579      37.464
2015    7       24    21  47    4.3179   447.6    5.578      37.448
2015    7       24    21  53    4.3168   447.6    5.576      37.432
2015    7       24    21  59    4.3157   447.5    5.575      37.416
2015    7       24    22   5    4.3146   447.5    5.574      37.400
2015    7       24    22  11    4.3135   447.4    5.573      37.383
2015    7       24    22  17    4.3124   447.3    5.572      37.367
2015    7       24    22  23    4.3113   447.3    5.571      37.351
2015    7       24    22  29    4.3103   447.2    5.570      37.335
2015    7       24    22  35    4.3092   447.2    5.569      37.319
2015    7       24    22  41    4.3082   447.1    5.568      37.303
2015    7       24    22  47    4.3072   447.1    5.567      37.288
2015    7       24    22  53    4.3062   447.0    5.566      37.272
2015    7       24    22  59    4.3052   446.9    5.565      37.256
2015    7       24    23   5    4.3042   446.9    5.564      37.240
2015    7       24    23  10    4.3032   446.8    5.563      37.225
2015    7       24    23  16    4.3022   446.8    5.563      37.209
2015    7       24    23  22    4.3013   446.7    5.562      37.193
2015    7       24    23  28    4.3003   446.6    5.561      37.178
2015    7       24    23  34    4.2994   446.6    5.560      37.162
2015    7       24    23  40    4.2985   446.5    5.560      37.147
2015    7       24    23  46    4.2976   446.5    5.559      37.131
2015    7       24    23  52    4.2967   446.4    5.558      37.116
2015    7       24    23  58    4.2958   446.3    5.558      37.100
2015    7       25     0   4    4.2949   446.3    5.557      37.085
2015    7       25     0  10    4.2941   446.2    5.557      37.070
2015    7       25     0  16    4.2932   446.1    5.556      37.055
2015    7       25     0  22    4.2924   446.1    5.556      37.039
2015    7       25     0  28    4.2916   446.0    5.555      37.025
2015    7       25     0  33    4.2908   446.0    5.555      37.010
2015    7       25     0  39    4.2901   445.9    5.555      36.995
2015    7       25     0  45    4.2893   445.8    5.555      36.980
2015    7       25     0  51    4.2886   445.8    5.554      36.966
2015    7       25     0  57    4.2878   445.7    5.554      36.951
2015    7       25     1   3    4.2871   445.7    5.554      36.937
2015    7       25     1   9    4.2864   445.6    5.554      36.923
2015    7       25     1  15    4.2858   445.5    5.554      36.909
2015    7       25     1  21    4.2851   445.5    5.555      36.895
2015    7       25     1  27    4.2844   445.4    5.555      36.882
2015    7       25     1  33    4.2838   445.4    5.555      36.868
2015    7       25     1  39    4.2832   445.3    5.555      36.855
2015    7       25     1  45    4.2825   445.3    5.556      36.842
2015    7       25     1  51    4.2819   445.2    5.556      36.829
2015    7       25     1  56    4.2813   445.1    5.557      36.816
2015    7       25     2   2    4.2806   445.1    5.557      36.804
2015    7       25     2   8    4.2800   445.0    5.558      36.792
2015    7       25     2  14    4.2793   445.0    5.558      36.780
2015    7       25     2  20    4.2787   444.9    5.559      36.769
2015    7       25     2  26    4.2780   444.9    5.560      36.758
2015    7       25     2  32    4.2773   444.8    5.560      36.747
2015    7       25     2  38    4.2766   444.7    5.561      36.736
2015    7       25     2  44    4.2759   444.7    5.562      36.725
2015    7       25     2  50    4.2752   444.6    5.562      36.715
2015    7       25     2  56    4.2744   444.6    5.563      36.705
2015    7       25     3   2    4.2736   444.5    5.563      36.694
2015    7       25     3   8    4.2729   444.4    5.564      36.684
2015    7       25     3  14    4.2721   444.4    5.564      36.673
2015    7       25     3  19    4.2712   444.3    5.565      36.663
2015    7       25     3  25    4.2704   444.3    5.565      36.652
2015    7       25     3  31    4.2696   444.2    5.566      36.641
2015    7       25     3  37    4.2687   444.1    5.566      36.629
2015    7       25     3  43    4.2679   444.1    5.567      36.618
2015    7       25     3  49    4.2670   444.0    5.567      36.607
2015    7       25     3  55    4.2661   444.0    5.568      36.595
2015    7       25     4   1    4.2653   443.9    5.568      36.584
2015    7       25     4   7    4.2644   443.8    5.569      36.572
2015    7       25     4  13    4.2635   443.8    5.569      36.560
2015    7       25     4  19    4.2626   443.7    5.570      36.549
2015    7       25     4  25    4.2617   443.6    5.570      36.537
2015    7       25     4  31    4.2608   443.6    5.570      36.525
2015    7       25     4  37    4.2599   443.5    5.571      36.513
2015    7       25     4  42    4.2591   443.4    5.571      36.502
2015    7       25     4  48    4.2582   443.4    5.572      36.490
2015    7       25     4  54    4.2573   443.3    5.572      36.478
2015    7       25     5   0    4.2564   443.2    5.573      36.466
2015    7       25     5   6    4.2556   443.2    5.573      36.454
2015    7       25     5  12    4.2547   443.1    5.574      36.443
2015    7       25     5  18    4.2538   443.0    5.574      36.431
2015    7       25     5  24    4.2530   443.0    5.575      36.419
2015    7       25     5  30    4.2522   442.9    5.575      36.407
2015    7       25     5  36    4.2513   442.8    5.576      36.395
2015    7       25     5  42    4.2505   442.7    5.576      36.384
2015    7       25     5  48    4.2497   442.7    5.577      36.372
2015    7       25     5  54    4.2489   442.6    5.577      36.360
2015    7       25     6   0    4.2482   442.5    5.578      36.348
2015    7       25     6   6    4.2474   442.5    5.578      36.336
2015    7       25     6  11    4.2467   442.4    5.578      36.325
2015    7       25     6  17    4.2460   442.3    5.579      36.313
2015    7       25     6  23    4.2453   442.3    5.579      36.301
2015    7       25     6  29    4.2446   442.2    5.580      36.289
2015    7       25     6  35    4.2439   442.1    5.580      36.278
2015    7       25     6  41    4.2433   442.0    5.580      36.266
2015    7       25     6  47    4.2426   442.0    5.580      36.255
2015    7       25     6  53    4.2420   441.9    5.581      36.243
2015    7       25     6  59    4.2414   441.8    5.581      36.232
2015    7       25     7   5    4.2408   441.8    5.581      36.221
2015    7       25     7  11    4.2402   441.7    5.581      36.210
2015    7       25     7  17    4.2397   441.6    5.581      36.198
2015    7       25     7  23    4.2391   441.6    5.581      36.187
2015    7       25     7  29    4.2386   441.5    5.582      36.176
2015    7       25     7  34    4.2380   441.4    5.582      36.165
2015    7       25     7  40    4.2375   441.3    5.582      36.154
2015    7       25     7  46    4.2370   441.3    5.582      36.143
2015    7       25     7  52    4.2364   441.2    5.582      36.132
2015    7       25     7  58    4.2359   441.1    5.581      36.120
2015    7       25     8   4    4.2354   441.1    5.581      36.109
2015    7       25     8  10    4.2348   441.0    5.581      36.098
2015    7       25     8  16    4.2343   440.9    5.581      36.086
2015    7       25     8  22    4.2337   440.8    5.581      36.075
2015    7       25     8  28    4.2332   440.8    5.581      36.063
2015    7       25     8  34    4.2326   440.7    5.581      36.051
2015    7       25     8  40    4.2321   440.6    5.581      36.039
2015    7       25     8  46    4.2315   440.6    5.581      36.027
2015    7       25     8  52    4.2309   440.5    5.580      36.015
2015    7       25     8  57    4.2303   440.4    5.580      36.002
2015    7       25     9   3    4.2297   440.3    5.580      35.990
2015    7       25     9   9    4.2291   440.3    5.580      35.977
2015    7       25     9  15    4.2285   440.2    5.580      35.964
2015    7       25     9  21    4.2279   440.1    5.580      35.952
2015    7       25     9  27    4.2273   440.0    5.580      35.938
2015    7       25     9  33    4.2266   440.0    5.580      35.925
2015    7       25     9  39    4.2260   439.9    5.579      35.912
2015    7       25     9  45    4.2253   439.8    5.579      35.898
2015    7       25     9  51    4.2247   439.7    5.579      35.885
2015    7       25     9  57    4.2240   439.7    5.579      35.871
2015    7       25    10   3    4.2233   439.6    5.579      35.857
2015    7       25    10   9    4.2226   439.5    5.579      35.843
2015    7       25    10  15    4.2219   439.4    5.579      35.829
2015    7       25    10  20    4.2212   439.4    5.579      35.815
2015    7       25    10  26    4.2204   439.3    5.579      35.800
2015    7       25    10  32    4.2197   439.2    5.579      35.786
2015    7       25    10  38    4.2189   439.1    5.578      35.771
2015    7       25    10  44    4.2182   439.1    5.578      35.756
2015    7       25    10  50    4.2174   439.0    5.578      35.742
2015    7       25    10  56    4.2166   438.9    5.578      35.727
2015    7       25    11   2    4.2159   438.8    5.578      35.712
2015    7       25    11   8    4.2151   438.7    5.578      35.696
2015    7       25    11  14    4.2143   438.6    5.578      35.681
2015    7       25    11  20    4.2135   438.6    5.579      35.666
2015    7       25    11  26    4.2127   438.5    5.579      35.651
2015    7       25    11  32    4.2119   438.4    5.579      35.635
2015    7       25    11  38    4.2111   438.3    5.579      35.620
2015    7       25    11  43    4.2103   438.2    5.579      35.604
2015    7       25    11  49    4.2094   438.1    5.579      35.589
2015    7       25    11  55    4.2086   438.1    5.579      35.573
2015    7       25    12   1    4.2078   438.0    5.580      35.558
2015    7       25    12   7    4.2070   437.9    5.580      35.542
2015    7       25    12  13    4.2062   437.8    5.580      35.527
2015    7       25    12  19    4.2054   437.7    5.580      35.511
2015    7       25    12  25    4.2046   437.6    5.581      35.496
2015    7       25    12  31    4.2038   437.5    5.581      35.481
2015    7       25    12  37    4.2030   437.4    5.582      35.465
2015    7       25    12  43    4.2023   437.4    5.582      35.450
2015    7       25    12  49    4.2015   437.3    5.583      35.435
2015    7       25    12  55    4.2008   437.2    5.583      35.420
2015    7       25    13   1    4.2000   437.1    5.584      35.405
2015    7       25    13   6    4.1993   437.0    5.584      35.391
2015    7       25    13  12    4.1986   436.9    5.585      35.376
2015    7       25    13  18    4.1980   436.8    5.586      35.362
2015    7       25    13  24    4.1974   436.7    5.587      35.347
2015    7       25    13  30    4.1967   436.6    5.588      35.334
2015    7       25    13  36    4.1962   436.5    5.589      35.320
2015    7       25    13  42    4.1956   436.4    5.590      35.306
2015    7       25    13  48    4.1951   436.3    5.591      35.293
2015    7       25    13  54    4.1945   436.3    5.593      35.280
2015    7       25    14   0    4.1941   436.2    5.594      35.267
2015    7       25    14   6    4.1936   436.1    5.595      35.255
2015    7       25    14  12    4.1932   436.0    5.597      35.243
2015    7       25    14  18    4.1928   435.9    5.598      35.232
2015    7       25    14  24    4.1924   435.8    5.600      35.220
2015    7       25    14  29    4.1921   435.7    5.602      35.209
2015    7       25    14  35    4.1917   435.6    5.603      35.199
2015    7       25    14  41    4.1914   435.5    5.605      35.189
2015    7       25    14  47    4.1911   435.4    5.607      35.179
2015    7       25    14  53    4.1908   435.4    5.609      35.170
2015    7       25    14  59    4.1905   435.3    5.611      35.161
2015    7       25    15   5    4.1902   435.2    5.613      35.152
2015    7       25    15  11    4.1899   435.1    5.615      35.144
2015    7       25    15  17    4.1895   435.0    5.617      35.136
2015    7       25    15  23    4.1892   434.9    5.619      35.128
2015    7       25    15  29    4.1889   434.8    5.621      35.120
2015    7       25    15  35    4.1885   434.7    5.623      35.113
2015    7       25    15  41    4.1881   434.6    5.625      35.105
2015    7       25    15  47    4.1877   434.6    5.627      35.098
2015    7       25    15  53    4.1873   434.5    5.629      35.091
2015    7       25    15  58    4.1869   434.4    5.631      35.084
2015    7       25    16   4    4.1864   434.3    5.634      35.077
2015    7       25    16  10    4.1860   434.2    5.636      35.069
2015    7       25    16  16    4.1855   434.1    5.638      35.062
2015    7       25    16  22    4.1850   434.0    5.640      35.054
2015    7       25    16  28    4.1845   433.9    5.642      35.047
2015    7       25    16  34    4.1839   433.8    5.644      35.039
2015    7       25    16  40    4.1834   433.7    5.646      35.032
2015    7       25    16  46    4.1828   433.6    5.648      35.024
2015    7       25    16  52    4.1822   433.5    5.650      35.016
2015    7       25    16  58    4.1817   433.4    5.652      35.008
2015    7       25    17   4    4.1811   433.4    5.654      35.000
2015    7       25    17  10    4.1805   433.3    5.656      34.992
2015    7       25    17  16    4.1799   433.2    5.658      34.983
2015    7       25    17  21    4.1792   433.1    5.659      34.975
2015    7       25    17  27    4.1786   433.0    5.661      34.966
2015    7       25    17  33    4.1780   432.9    5.663      34.957
2015    7       25    17  39    4.1773   432.8    5.664      34.948
2015    7       25    17  45    4.1767   432.7    5.666      34.939
2015    7       25    17  51    4.1760   432.6    5.668      34.930
2015    7       25    17  57    4.1754   432.5    5.669      34.921
2015    7       25    18   3    4.1748   432.4    5.671      34.911
2015    7       25    18   9    4.1741   432.3    5.672      34.902
2015    7       25    18  15    4.1735   432.2    5.673      34.892
2015    7       25    18  21    4.1728   432.1    5.675      34.882
2015    7       25    18  27    4.1722   432.0    5.676      34.872
2015    7       25    18  33    4.1716   431.9    5.677      34.862
2015    7       25    18  38    4.1709   431.8    5.679      34.851
2015    7       25    18  44    4.1703   431.7    5.680      34.841
2015    7       25    18  50    4.1697   431.6    5.681      34.830
2015    7       25    18  56    4.1691   431.5    5.682      34.818
2015    7       25    19   2    4.1684   431.3    5.683      34.807
2015    7       25    19   8    4.1678   431.2    5.684      34.795
2015    7       25    19  14    4.1672   431.1    5.685      34.783
2015    7       25    19  20    4.1666   431.0    5.686      34.770
2015    7       25    19  26    4.1660   430.9    5.687      34.758
2015    7       25    19  32    4.1654   430.8    5.688      34.745
2015    7       25    19  38    4.1648   430.7    5.689      34.732
2015    7       25    19  44    4.1642   430.6    5.690      34.718
2015    7       25    19  50    4.1636   430.5    5.690      34.705
2015    7       25    19  56    4.1630   430.4    5.691      34.691
2015    7       25    20   1    4.1624   430.3    5.692      34.676
2015    7       25    20   7    4.1618   430.2    5.693      34.662
2015    7       25    20  13    4.1612   430.1    5.694      34.648
2015    7       25    20  19    4.1606   430.0    5.695      34.633
2015    7       25    20  25    4.1601   429.8    5.696      34.619
2015    7       25    20  31    4.1595   429.7    5.697      34.604
2015    7       25    20  37    4.1590   429.6    5.698      34.589
2015    7       25    20  43    4.1584   429.5    5.699      34.574
2015    7       25    20  49    4.1579   429.4    5.700      34.559
2015    7       25    20  55    4.1574   429.3    5.701      34.544
2015    7       25    21   1    4.1569   429.2    5.702      34.529
2015    7       25    21   7    4.1564   429.1    5.703      34.515
2015    7       25    21  13    4.1559   429.0    5.704      34.500
2015    7       25    21  19    4.1554   428.9    5.705      34.485
2015    7       25    21  25    4.1550   428.7    5.707      34.471
2015    7       25    21  30    4.1545   428.6    5.708      34.456
2015    7       25    21  36    4.1541   428.5    5.710      34.442
2015    7       25    21  42    4.1536   428.4    5.711      34.427
2015    7       25    21  48    4.1532   428.3    5.713      34.413
2015    7       25    21  54    4.1528   428.2    5.714      34.399
2015    7       25    22   0    4.1525   428.1    5.716      34.386
2015    7       25    22   6    4.1521   428.0    5.718      34.372
2015    7       25    22  12    4.1517   427.9    5.720      34.359
2015    7       25    22  18    4.1513   427.8    5.722      34.345
2015    7       25    22  24    4.1510   427.6    5.724      34.332
2015    7       25    22  30    4.1506   427.5    5.726      34.319
2015    7       25    22  36    4.1503   427.4    5.728      34.307
2015    7       25    22  42    4.1499   427.3    5.731      34.294
2015    7       25    22  48    4.1495   427.2    5.733      34.282
2015    7       25    22  53    4.1491   427.1    5.736      34.270
2015    7       25    22  59    4.1487   427.0    5.738      34.258
2015    7       25    23   5    4.1484   426.9    5.741      34.246
2015    7       25    23  11    4.1480   426.8    5.743      34.235
2015    7       25    23  17    4.1476   426.6    5.746      34.223
2015    7       25    23  23    4.1472   426.5    5.749      34.212
2015    7       25    23  29    4.1468   426.4    5.752      34.202
2015    7       25    23  35    4.1463   426.3    5.755      34.191
2015    7       25    23  41    4.1459   426.2    5.758      34.181
2015    7       25    23  47    4.1455   426.1    5.761      34.170
2015    7       25    23  53    4.1451   426.0    5.764      34.160
2015    7       25    23  59    4.1447   425.9    5.768      34.151
2015    7       26     0   5    4.1443   425.7    5.771      34.141
2015    7       26     0  11    4.1439   425.6    5.774      34.132
2015    7       26     0  16    4.1435   425.5    5.778      34.123
2015    7       26     0  22    4.1432   425.4    5.781      34.115
2015    7       26     0  28    4.1428   425.3    5.785      34.106
2015    7       26     0  34    4.1424   425.2    5.788      34.098
2015    7       26     0  40    4.1421   425.0    5.792      34.090
2015    7       26     0  46    4.1418   424.9    5.796      34.083
2015    7       26     0  52    4.1414   424.8    5.800      34.076
2015    7       26     0  58    4.1411   424.7    5.804      34.069
2015    7       26     1   4    4.1409   424.6    5.808      34.062
2015    7       26     1  10    4.1406   424.5    5.812      34.056
2015    7       26     1  16    4.1403   424.3    5.816      34.050
2015    7       26     1  22    4.1400   424.2    5.820      34.044
2015    7       26     1  28    4.1398   424.1    5.824      34.038
2015    7       26     1  33    4.1396   424.0    5.828      34.032
2015    7       26     1  39    4.1393   423.9    5.832      34.027
2015    7       26     1  45    4.1391   423.8    5.836      34.022
2015    7       26     1  51    4.1389   423.7    5.840      34.017
2015    7       26     1  57    4.1387   423.5    5.845      34.012
2015    7       26     2   3    4.1384   423.4    5.849      34.007
2015    7       26     2   9    4.1382   423.3    5.853      34.002
2015    7       26     2  15    4.1380   423.2    5.857      33.997
2015    7       26     2  21    4.1378   423.1    5.861      33.992
2015    7       26     2  27    4.1376   423.0    5.865      33.987
2015    7       26     2  33    4.1374   422.8    5.869      33.981
2015    7       26     2  39    4.1372   422.7    5.873      33.976
2015    7       26     2  45    4.1370   422.6    5.877      33.970
2015    7       26     2  51    4.1368   422.5    5.881      33.965
2015    7       26     2  56    4.1366   422.4    5.885      33.959
2015    7       26     3   2    4.1364   422.2    5.888      33.953
2015    7       26     3   8    4.1362   422.1    5.892      33.947
2015    7       26     3  14    4.1360   422.0    5.896      33.941
2015    7       26     3  20    4.1358   421.9    5.899      33.934
2015    7       26     3  26    4.1356   421.8    5.903      33.928
2015    7       26     3  32    4.1354   421.7    5.906      33.921
2015    7       26     3  38    4.1352   421.5    5.909      33.914
2015    7       26     3  44    4.1350   421.4    5.913      33.907
2015    7       26     3  50    4.1348   421.3    5.916      33.899
2015    7       26     3  56    4.1346   421.2    5.919      33.892
2015    7       26     4   2    4.1345   421.1    5.923      33.884
2015    7       26     4   8    4.1343   420.9    5.926      33.877
2015    7       26     4  14    4.1341   420.8    5.929      33.869
2015    7       26     4  20    4.1339   420.7    5.932      33.861
2015    7       26     4  25    4.1338   420.6    5.935      33.852
2015    7       26     4  31    4.1336   420.5    5.938      33.844
2015    7       26     4  37    4.1334   420.3    5.941      33.835
2015    7       26     4  43    4.1333   420.2    5.943      33.826
2015    7       26     4  49    4.1331   420.1    5.946      33.817
2015    7       26     4  55    4.1330   420.0    5.949      33.808
2015    7       26     5   1    4.1328   419.9    5.952      33.798
2015    7       26     5   7    4.1327   419.7    5.954      33.789
2015    7       26     5  13    4.1325   419.6    5.957      33.779
2015    7       26     5  19    4.1324   419.5    5.959      33.769
2015    7       26     5  25    4.1322   419.4    5.962      33.758
2015    7       26     5  31    4.1321   419.3    5.964      33.748
2015    7       26     5  37    4.1319   419.1    5.967      33.737
2015    7       26     5  43    4.1318   419.0    5.969      33.726
2015    7       26     5  48    4.1316   418.9    5.972      33.715
2015    7       26     5  54    4.1315   418.8    5.974      33.704
2015    7       26     6   0    4.1314   418.6    5.977      33.693
2015    7       26     6   6    4.1312   418.5    5.979      33.681
2015    7       26     6  12    4.1311   418.4    5.981      33.669
2015    7       26     6  18    4.1310   418.3    5.984      33.657
2015    7       26     6  24    4.1309   418.2    5.986      33.645
2015    7       26     6  30    4.1307   418.0    5.989      33.633
2015    7       26     6  36    4.1306   417.9    5.991      33.621
2015    7       26     6  42    4.1305   417.8    5.994      33.609
2015    7       26     6  48    4.1304   417.7    5.996      33.596
2015    7       26     6  54    4.1304   417.5    5.999      33.584
2015    7       26     7   0    4.1303   417.4    6.001      33.572
2015    7       26     7   6    4.1302   417.3    6.004      33.560
2015    7       26     7  11    4.1302   417.2    6.007      33.547
2015    7       26     7  17    4.1302   417.0    6.009      33.535
2015    7       26     7  23    4.1301   416.9    6.012      33.523
2015    7       26     7  29    4.1301   416.8    6.015      33.511
2015    7       26     7  35    4.1302   416.6    6.018      33.500
2015    7       26     7  41    4.1302   416.5    6.021      33.488
2015    7       26     7  47    4.1303   416.4    6.024      33.477
2015    7       26     7  53    4.1303   416.3    6.027      33.466
2015    7       26     7  59    4.1304   416.1    6.031      33.455
2015    7       26     8   5    4.1305   416.0    6.034      33.444
2015    7       26     8  11    4.1307   415.9    6.038      33.434
2015    7       26     8  17    4.1308   415.8    6.041      33.424
2015    7       26     8  23    4.1310   415.6    6.045      33.414
2015    7       26     8  28    4.1312   415.5    6.049      33.405
2015    7       26     8  34    4.1314   415.4    6.053      33.395
2015    7       26     8  40    4.1316   415.3    6.057      33.387
2015    7       26     8  46    4.1319   415.1    6.061      33.378
2015    7       26     8  52    4.1321   415.0    6.066      33.370
2015    7       26     8  58    4.1324   414.9    6.070      33.361
2015    7       26     9   4    4.1327   414.8    6.074      33.354
2015    7       26     9  10    4.1329   414.6    6.079      33.346
2015    7       26     9  16    4.1332   414.5    6.084      33.339
2015    7       26     9  22    4.1335   414.4    6.088      33.332
2015    7       26     9  28    4.1338   414.3    6.093      33.325
2015    7       26     9  34    4.1341   414.1    6.098      33.318
2015    7       26     9  40    4.1345   414.0    6.103      33.312
2015    7       26     9  46    4.1348   413.9    6.107      33.306
2015    7       26     9  51    4.1351   413.8    6.112      33.300
2015    7       26     9  57    4.1354   413.6    6.117      33.294
2015    7       26    10   3    4.1358   413.5    6.122      33.288
2015    7       26    10   9    4.1361   413.4    6.127      33.283
2015    7       26    10  15    4.1365   413.3    6.132      33.278
2015    7       26    10  21    4.1368   413.1    6.138      33.273
2015    7       26    10  27    4.1372   413.0    6.143      33.268
2015    7       26    10  33    4.1376   412.9    6.148      33.263
2015    7       26    10  39    4.1380   412.8    6.153      33.258
2015    7       26    10  45    4.1384   412.6    6.158      33.253
2015    7       26    10  51    4.1389   412.5    6.163      33.249
2015    7       26    10  57    4.1393   412.4    6.169      33.245
2015    7       26    11   3    4.1398   412.3    6.174      33.240
2015    7       26    11   9    4.1402   412.1    6.179      33.236
2015    7       26    11  15    4.1407   412.0    6.184      33.232
2015    7       26    11  20    4.1412   411.9    6.189      33.228
2015    7       26    11  26    4.1417   411.8    6.195      33.224
2015    7       26    11  32    4.1423   411.6    6.200      33.220
2015    7       26    11  38    4.1428   411.5    6.205      33.216
2015    7       26    11  44    4.1434   411.4    6.210      33.213
2015    7       26    11  50    4.1440   411.3    6.216      33.209
2015    7       26    11  56    4.1446   411.1    6.221      33.205
2015    7       26    12   2    4.1452   411.0    6.226      33.202
2015    7       26    12   8    4.1458   410.9    6.231      33.198
2015    7       26    12  14    4.1465   410.8    6.236      33.194
2015    7       26    12  20    4.1471   410.6    6.241      33.191
2015    7       26    12  26    4.1478   410.5    6.247      33.187
2015    7       26    12  32    4.1485   410.4    6.252      33.184
2015    7       26    12  38    4.1492   410.3    6.257      33.180
2015    7       26    12  43    4.1499   410.1    6.262      33.176
2015    7       26    12  49    4.1506   410.0    6.267      33.172
2015    7       26    12  55    4.1513   409.9    6.271      33.168
2015    7       26    13   1    4.1521   409.8    6.276      33.164
2015    7       26    13   7    4.1529   409.7    6.281      33.160
2015    7       26    13  13    4.1536   409.5    6.286      33.156
2015    7       26    13  19    4.1544   409.4    6.291      33.152
2015    7       26    13  25    4.1552   409.3    6.295      33.148
2015    7       26    13  31    4.1560   409.2    6.300      33.144
2015    7       26    13  37    4.1569   409.0    6.305      33.140
2015    7       26    13  43    4.1577   408.9    6.309      33.135
2015    7       26    13  49    4.1585   408.8    6.314      33.131
2015    7       26    13  55    4.1594   408.7    6.318      33.126
2015    7       26    14   1    4.1603   408.5    6.323      33.122
2015    7       26    14   6    4.1612   408.4    6.327      33.117
2015    7       26    14  12    4.1621   408.3    6.332      33.113
2015    7       26    14  18    4.1630   408.2    6.336      33.108
2015    7       26    14  24    4.1639   408.0    6.340      33.103
2015    7       26    14  30    4.1649   407.9    6.345      33.099
2015    7       26    14  36    4.1658   407.8    6.349      33.094
2015    7       26    14  42    4.1668   407.7    6.353      33.089
2015    7       26    14  48    4.1677   407.6    6.358      33.085
2015    7       26    14  54    4.1687   407.4    6.362      33.080
2015    7       26    15   0    4.1697   407.3    6.366      33.075
2015    7       26    15   6    4.1707   407.2    6.371      33.070
2015    7       26    15  12    4.1717   407.1    6.375      33.066
2015    7       26    15  18    4.1727   406.9    6.379      33.061
2015    7       26    15  23    4.1737   406.8    6.384      33.056
2015    7       26    15  29    4.1748   406.7    6.388      33.052
2015    7       26    15  35    4.1758   406.6    6.392      33.047
2015    7       26    15  41    4.1768   406.5    6.397      33.042
2015    7       26    15  47    4.1779   406.3    6.401      33.038
2015    7       26    15  53    4.1790   406.2    6.406      33.033
2015    7       26    15  59    4.1801   406.1    6.410      33.029
2015    7       26    16   5    4.1811   406.0    6.415      33.025
2015    7       26    16  11    4.1822   405.9    6.419      33.021
2015    7       26    16  17    4.1834   405.7    6.424      33.017
2015    7       26    16  23    4.1845   405.6    6.428      33.013
2015    7       26    16  29    4.1856   405.5    6.433      33.009
2015    7       26    16  35    4.1868   405.4    6.438      33.005
2015    7       26    16  41    4.1879   405.3    6.443      33.001
2015    7       26    16  46    4.1891   405.1    6.447      32.998
2015    7       26    16  52    4.1903   405.0    6.452      32.994
2015    7       26    16  58    4.1915   404.9    6.457      32.991
2015    7       26    17   4    4.1927   404.8    6.462      32.988
2015    7       26    17  10    4.1939   404.7    6.468      32.985
2015    7       26    17  16    4.1952   404.5    6.473      32.983
2015    7       26    17  22    4.1964   404.4    6.478      32.980
2015    7       26    17  28    4.1977   404.3    6.483      32.978
2015    7       26    17  34    4.1990   404.2    6.489      32.976
2015    7       26    17  40    4.2003   404.1    6.494      32.974
2015    7       26    17  46    4.2016   403.9    6.500      32.972
2015    7       26    17  52    4.2030   403.8    6.505      32.971
2015    7       26    17  58    4.2044   403.7    6.511      32.970
2015    7       26    18   4    4.2058   403.6    6.517      32.969
2015    7       26    18   9    4.2072   403.5    6.523      32.969
2015    7       26    18  15    4.2086   403.4    6.529      32.968
2015    7       26    18  21    4.2101   403.2    6.535      32.968
2015    7       26    18  27    4.2115   403.1    6.541      32.968
2015    7       26    18  33    4.2130   403.0    6.547      32.969
2015    7       26    18  39    4.2146   402.9    6.554      32.970
2015    7       26    18  45    4.2161   402.8    6.560      32.971
2015    7       26    18  51    4.2177   402.7    6.567      32.972
2015    7       26    18  57    4.2193   402.6    6.573      32.973
2015    7       26    19   3    4.2209   402.4    6.580      32.975
2015    7       26    19   9    4.2225   402.3    6.586      32.977
2015    7       26    19  15    4.2242   402.2    6.593      32.980
2015    7       26    19  21    4.2258   402.1    6.600      32.982
2015    7       26    19  27    4.2275   402.0    6.607      32.985
2015    7       26    19  32    4.2292   401.9    6.613      32.988
2015    7       26    19  38    4.2310   401.8    6.620      32.991
2015    7       26    19  44    4.2327   401.7    6.627      32.995
2015    7       26    19  50    4.2345   401.5    6.634      32.998
2015    7       26    19  56    4.2362   401.4    6.641      33.002
2015    7       26    20   2    4.2380   401.3    6.648      33.006
2015    7       26    20   8    4.2398   401.2    6.655      33.011
2015    7       26    20  14    4.2417   401.1    6.662      33.015
2015    7       26    20  20    4.2435   401.0    6.669      33.020
2015    7       26    20  26    4.2453   400.9    6.676      33.025
2015    7       26    20  32    4.2472   400.8    6.683      33.029
2015    7       26    20  38    4.2490   400.7    6.690      33.035
2015    7       26    20  44    4.2509   400.6    6.697      33.040
2015    7       26    20  50    4.2527   400.5    6.703      33.045
2015    7       26    20  55    4.2546   400.4    6.710      33.051
2015    7       26    21   1    4.2565   400.3    6.717      33.056
2015    7       26    21   7    4.2583   400.2    6.724      33.062
2015    7       26    21  13    4.2602   400.0    6.731      33.068
2015    7       26    21  19    4.2621   399.9    6.738      33.074
2015    7       26    21  25    4.2639   399.8    6.744      33.080
2015    7       26    21  31    4.2658   399.7    6.751      33.086
2015    7       26    21  37    4.2677   399.6    6.758      33.092
2015    7       26    21  43    4.2695   399.5    6.764      33.098
2015    7       26    21  49    4.2714   399.4    6.771      33.104
2015    7       26    21  55    4.2732   399.3    6.777      33.110
2015    7       26    22   1    4.2751   399.2    6.784      33.116
2015    7       26    22   7    4.2769   399.1    6.790      33.122
2015    7       26    22  13    4.2787   399.0    6.797      33.128
2015    7       26    22  18    4.2806   398.9    6.803      33.134
2015    7       26    22  24    4.2824   398.8    6.810      33.140
2015    7       26    22  30    4.2843   398.7    6.816      33.146
2015    7       26    22  36    4.2861   398.6    6.822      33.152
2015    7       26    22  42    4.2880   398.5    6.828      33.158
2015    7       26    22  48    4.2898   398.4    6.835      33.163
2015    7       26    22  54    4.2917   398.3    6.841      33.169
2015    7       26    23   0    4.2935   398.2    6.847      33.175
2015    7       26    23   6    4.2954   398.1    6.853      33.181
2015    7       26    23  12    4.2973   398.1    6.859      33.186
2015    7       26    23  18    4.2991   398.0    6.865      33.192
2015    7       26    23  24    4.3010   397.9    6.871      33.198
2015    7       26    23  30    4.3029   397.8    6.878      33.203
2015    7       26    23  35    4.3048   397.7    6.884      33.209
2015    7       26    23  41    4.3067   397.6    6.890      33.215
2015    7       26    23  47    4.3086   397.5    6.896      33.221
2015    7       26    23  53    4.3105   397.4    6.902      33.227
2015    7       26    23  59    4.3125   397.3    6.908      33.234
2015    7       27     0   5    4.3144   397.2    6.914      33.240
2015    7       27     0  11    4.3163   397.1    6.920      33.247
2015    7       27     0  17    4.3182   397.0    6.926      33.254
2015    7       27     0  23    4.3202   396.9    6.932      33.261
2015    7       27     0  29    4.3222   396.9    6.938      33.268
2015    7       27     0  35    4.3241   396.8    6.944      33.276
2015    7       27     0  41    4.3261   396.7    6.949      33.283
2015    7       27     0  47    4.3281   396.6    6.955      33.291
2015    7       27     0  53    4.3301   396.5    6.961      33.299
2015    7       27     0  58    4.3321   396.4    6.967      33.307
2015    7       27     1   4    4.3341   396.3    6.973      33.315
2015    7       27     1  10    4.3361   396.2    6.978      33.324
2015    7       27     1  16    4.3382   396.2    6.984      33.332
2015    7       27     1  22    4.3402   396.1    6.990      33.340
2015    7       27     1  28    4.3423   396.0    6.995      33.349
2015    7       27     1  34    4.3444   395.9    7.001      33.358
2015    7       27     1  40    4.3465   395.8    7.007      33.367
2015    7       27     1  46    4.3487   395.8    7.013      33.376
2015    7       27     1  52    4.3508   395.7    7.018      33.385
2015    7       27     1  58    4.3530   395.6    7.024      33.394
2015    7       27     2   4    4.3552   395.5    7.030      33.403
2015    7       27     2  10    4.3575   395.4    7.036      33.412
2015    7       27     2  16    4.3597   395.4    7.042      33.422
2015    7       27     2  22    4.3620   395.3    7.047      33.431
2015    7       27     2  27    4.3643   395.2    7.053      33.441
2015    7       27     2  33    4.3667   395.1    7.059      33.451
2015    7       27     2  39    4.3691   395.1    7.065      33.460
2015    7       27     2  45    4.3715   395.0    7.071      33.471
2015    7       27     2  51    4.3739   394.9    7.077      33.481
2015    7       27     2  57    4.3764   394.8    7.083      33.491
2015    7       27     3   3    4.3789   394.8    7.089      33.501
2015    7       27     3   9    4.3815   394.7    7.095      33.512
2015    7       27     3  15    4.3840   394.6    7.101      33.523
2015    7       27     3  21    4.3867   394.6    7.107      33.533
2015    7       27     3  27    4.3893   394.5    7.113      33.544
2015    7       27     3  33    4.3920   394.4    7.119      33.556
2015    7       27     3  39    4.3947   394.4    7.125      33.567
2015    7       27     3  45    4.3975   394.3    7.132      33.578
2015    7       27     3  50    4.4003   394.2    7.138      33.590
2015    7       27     3  56    4.4032   394.2    7.144      33.602
2015    7       27     4   2    4.4061   394.1    7.150      33.613
2015    7       27     4   8    4.4090   394.0    7.156      33.626
2015    7       27     4  14    4.4120   394.0    7.162      33.638
2015    7       27     4  20    4.4150   393.9    7.168      33.650
2015    7       27     4  26    4.4181   393.9    7.174      33.663
2015    7       27     4  32    4.4212   393.8    7.181      33.675
2015    7       27     4  38    4.4243   393.7    7.187      33.688
2015    7       27     4  44    4.4275   393.7    7.193      33.701
2015    7       27     4  50    4.4307   393.6    7.199      33.714
2015    7       27     4  56    4.4340   393.6    7.205      33.728
2015    7       27     5   2    4.4373   393.5    7.211      33.741
2015    7       27     5   8    4.4406   393.5    7.217      33.755
2015    7       27     5  13    4.4440   393.4    7.223      33.769
2015    7       27     5  19    4.4475   393.4    7.229      33.782
2015    7       27     5  25    4.4509   393.3    7.235      33.796
2015    7       27     5  31    4.4545   393.3    7.241      33.810
2015    7       27     5  37    4.4580   393.2    7.247      33.825
2015    7       27     5  43    4.4616   393.2    7.253      33.839
2015    7       27     5  49    4.4652   393.1    7.259      33.853
2015    7       27     5  55    4.4689   393.1    7.265      33.868
2015    7       27     6   1    4.4726   393.1    7.270      33.883
2015    7       27     6   7    4.4763   393.0    7.276      33.897
2015    7       27     6  13    4.4800   393.0    7.282      33.912
2015    7       27     6  19    4.4838   392.9    7.288      33.927
2015    7       27     6  25    4.4876   392.9    7.294      33.942
2015    7       27     6  30    4.4914   392.8    7.300      33.957
2015    7       27     6  36    4.4952   392.8    7.306      33.973
2015    7       27     6  42    4.4990   392.8    7.312      33.988
2015    7       27     6  48    4.5028   392.7    7.317      34.004
2015    7       27     6  54    4.5067   392.7    7.323      34.019
2015    7       27     7   0    4.5105   392.7    7.329      34.035
2015    7       27     7   6    4.5144   392.6    7.335      34.050
2015    7       27     7  12    4.5182   392.6    7.341      34.066
2015    7       27     7  18    4.5221   392.5    7.347      34.082
2015    7       27     7  24    4.5259   392.5    7.353      34.099
2015    7       27     7  30    4.5298   392.5    7.358      34.115
2015    7       27     7  36    4.5336   392.4    7.364      34.131
2015    7       27     7  42    4.5375   392.4    7.370      34.148
2015    7       27     7  48    4.5413   392.4    7.376      34.164
2015    7       27     7  53    4.5452   392.4    7.382      34.181
2015    7       27     7  59    4.5490   392.3    7.388      34.197
2015    7       27     8   5    4.5529   392.3    7.393      34.214
2015    7       27     8  11    4.5567   392.3    7.399      34.231
2015    7       27     8  17    4.5605   392.2    7.405      34.248
2015    7       27     8  23    4.5644   392.2    7.411      34.265
2015    7       27     8  29    4.5682   392.2    7.417      34.282
2015    7       27     8  35    4.5720   392.2    7.423      34.300
2015    7       27     8  41    4.5759   392.1    7.429      34.317
2015    7       27     8  47    4.5797   392.1    7.435      34.335
2015    7       27     8  53    4.5835   392.1    7.441      34.352
2015    7       27     8  59    4.5874   392.1    7.447      34.370
2015    7       27     9   5    4.5912   392.0    7.453      34.388
2015    7       27     9  11    4.5951   392.0    7.459      34.406
2015    7       27     9  16    4.5990   392.0    7.465      34.424
2015    7       27     9  22    4.6028   392.0    7.471      34.443
2015    7       27     9  28    4.6067   391.9    7.477      34.461
2015    7       27     9  34    4.6106   391.9    7.483      34.479
2015    7       27     9  40    4.6145   391.9    7.489      34.498
2015    7       27     9  46    4.6184   391.9    7.495      34.517
2015    7       27     9  52    4.6223   391.9    7.502      34.536
2015    7       27     9  58    4.6262   391.8    7.508      34.555
2015    7       27    10   4    4.6302   391.8    7.514      34.574
2015    7       27    10  10    4.6341   391.8    7.521      34.593
2015    7       27    10  16    4.6381   391.8    7.527      34.613
2015    7       27    10  22    4.6420   391.8    7.534      34.633
2015    7       27    10  28    4.6460   391.8    7.540      34.652
2015    7       27    10  34    4.6500   391.7    7.547      34.672
2015    7       27    10  39    4.6541   391.7    7.553      34.693
2015    7       27    10  45    4.6581   391.7    7.560      34.713
2015    7       27    10  51    4.6621   391.7    7.567      34.733
2015    7       27    10  57    4.6662   391.7    7.573      34.754
2015    7       27    11   3    4.6703   391.7    7.580      34.775
2015    7       27    11   9    4.6744   391.7    7.587      34.796
2015    7       27    11  15    4.6785   391.7    7.594      34.817
2015    7       27    11  21    4.6826   391.7    7.601      34.839
2015    7       27    11  27    4.6868   391.7    7.608      34.860
2015    7       27    11  33    4.6910   391.7    7.615      34.882
2015    7       27    11  39    4.6952   391.6    7.622      34.904
2015    7       27    11  45    4.6994   391.6    7.629      34.925
2015    7       27    11  51    4.7036   391.6    7.637      34.948
2015    7       27    11  57    4.7078   391.6    7.644      34.970
2015    7       27    12   2    4.7121   391.6    7.651      34.992
2015    7       27    12   8    4.7163   391.6    7.659      35.015
2015    7       27    12  14    4.7206   391.6    7.666      35.037
2015    7       27    12  20    4.7248   391.6    7.674      35.060
2015    7       27    12  26    4.7290   391.6    7.681      35.083
2015    7       27    12  32    4.7332   391.6    7.689      35.107
2015    7       27    12  38    4.7374   391.6    7.696      35.130
2015    7       27    12  44    4.7416   391.6    7.703      35.154
2015    7       27    12  50    4.7458   391.6    7.711      35.178
2015    7       27    12  56    4.7499   391.6    7.718      35.202
2015    7       27    13   2    4.7540   391.7    7.725      35.226
2015    7       27    13   8    4.7581   391.7    7.733      35.250
2015    7       27    13  14    4.7622   391.7    7.740      35.274
2015    7       27    13  19    4.7663   391.7    7.747      35.298
2015    7       27    13  25    4.7703   391.7    7.754      35.322
2015    7       27    13  31    4.7743   391.7    7.761      35.346
2015    7       27    13  37    4.7783   391.7    7.768      35.370
2015    7       27    13  43    4.7823   391.7    7.775      35.394
2015    7       27    13  49    4.7863   391.7    7.782      35.418
2015    7       27    13  55    4.7902   391.7    7.789      35.442
2015    7       27    14   1    4.7942   391.7    7.796      35.465
2015    7       27    14   7    4.7981   391.7    7.803      35.488
2015    7       27    14  13    4.8021   391.7    7.809      35.511
2015    7       27    14  19    4.8060   391.7    7.816      35.534
2015    7       27    14  25    4.8099   391.7    7.823      35.557
2015    7       27    14  31    4.8137   391.7    7.830      35.580
2015    7       27    14  37    4.8176   391.7    7.837      35.603
2015    7       27    14  42    4.8215   391.7    7.844      35.625
2015    7       27    14  48    4.8254   391.7    7.851      35.648
2015    7       27    14  54    4.8292   391.7    7.858      35.671
2015    7       27    15   0    4.8330   391.7    7.865      35.694
2015    7       27    15   6    4.8368   391.7    7.872      35.716
2015    7       27    15  12    4.8406   391.7    7.879      35.739
2015    7       27    15  18    4.8444   391.8    7.886      35.762
2015    7       27    15  24    4.8482   391.8    7.893      35.785
2015    7       27    15  30    4.8520   391.8    7.900      35.808
2015    7       27    15  36    4.8557   391.8    7.908      35.831
2015    7       27    15  42    4.8594   391.8    7.915      35.853
2015    7       27    15  48    4.8632   391.8    7.922      35.876
2015    7       27    15  54    4.8669   391.8    7.930      35.899
2015    7       27    16   0    4.8706   391.8    7.937      35.922
2015    7       27    16   5    4.8743   391.8    7.945      35.945
2015    7       27    16  11    4.8780   391.8    7.952      35.968
2015    7       27    16  17    4.8816   391.8    7.960      35.991
2015    7       27    16  23    4.8853   391.8    7.968      36.014
2015    7       27    16  29    4.8889   391.8    7.976      36.037
2015    7       27    16  35    4.8926   391.8    7.983      36.060
2015    7       27    16  41    4.8962   391.8    7.991      36.083
2015    7       27    16  47    4.8999   391.9    7.999      36.106
2015    7       27    16  53    4.9035   391.9    8.007      36.128
2015    7       27    16  59    4.9072   391.9    8.016      36.151
2015    7       27    17   5    4.9108   391.9    8.024      36.174
2015    7       27    17  11    4.9145   391.9    8.032      36.197
2015    7       27    17  17    4.9182   391.9    8.040      36.220
2015    7       27    17  23    4.9219   391.9    8.049      36.243
2015    7       27    17  28    4.9256   391.9    8.058      36.267
2015    7       27    17  34    4.9294   391.9    8.066      36.290
2015    7       27    17  40    4.9331   391.9    8.075      36.314
2015    7       27    17  46    4.9369   391.9    8.084      36.339
2015    7       27    17  52    4.9407   392.0    8.093      36.364
2015    7       27    17  58    4.9446   392.0    8.102      36.389
2015    7       27    18   4    4.9485   392.0    8.112      36.414
2015    7       27    18  10    4.9524   392.0    8.121      36.441
2015    7       27    18  16    4.9563   392.0    8.130      36.468
2015    7       27    18  22    4.9603   392.0    8.140      36.495
2015    7       27    18  28    4.9643   392.1    8.150      36.523
2015    7       27    18  34    4.9683   392.1    8.159      36.552
2015    7       27    18  40    4.9723   392.1    8.169      36.581
2015    7       27    18  46    4.9764   392.1    8.179      36.611
2015    7       27    18  51    4.9805   392.2    8.189      36.641
2015    7       27    18  57    4.9845   392.2    8.199      36.671
2015    7       27    19   3    4.9886   392.2    8.209      36.702
2015    7       27    19   9    4.9927   392.2    8.219      36.733
2015    7       27    19  15    4.9967   392.3    8.229      36.765
2015    7       27    19  21    5.0008   392.3    8.239      36.798
2015    7       27    19  27    5.0048   392.4    8.249      36.831
2015    7       27    19  33    5.0088   392.4    8.259      36.864
2015    7       27    19  39    5.0128   392.4    8.269      36.898
2015    7       27    19  45    5.0168   392.5    8.278      36.932
2015    7       27    19  51    5.0207   392.5    8.288      36.966
2015    7       27    19  57    5.0247   392.6    8.297      37.000
2015    7       27    20   3    5.0285   392.6    8.306      37.034
2015    7       27    20   8    5.0324   392.6    8.315      37.068
2015    7       27    20  14    5.0362   392.7    8.324      37.102
2015    7       27    20  20    5.0399   392.7    8.332      37.135
2015    7       27    20  26    5.0437   392.8    8.341      37.169
2015    7       27    20  32    5.0474   392.8    8.349      37.202
2015    7       27    20  38    5.0511   392.9    8.356      37.235
2015    7       27    20  44    5.0547   392.9    8.364      37.267
2015    7       27    20  50    5.0583   393.0    8.371      37.298
2015    7       27    20  56    5.0619   393.0    8.379      37.329
2015    7       27    21   2    5.0655   393.1    8.386      37.359
2015    7       27    21   8    5.0691   393.1    8.393      37.389
2015    7       27    21  14    5.0726   393.2    8.399      37.418
2015    7       27    21  20    5.0761   393.2    8.406      37.446
2015    7       27    21  25    5.0796   393.3    8.412      37.474
2015    7       27    21  31    5.0831   393.3    8.419      37.502
2015    7       27    21  37    5.0866   393.4    8.425      37.529
2015    7       27    21  43    5.0902   393.4    8.431      37.556
2015    7       27    21  49    5.0937   393.4    8.437      37.582
2015    7       27    21  55    5.0972   393.5    8.443      37.608
2015    7       27    22   1    5.1007   393.5    8.449      37.633
2015    7       27    22   7    5.1042   393.6    8.455      37.658
2015    7       27    22  13    5.1077   393.6    8.461      37.683
2015    7       27    22  19    5.1112   393.7    8.466      37.707
2015    7       27    22  25    5.1147   393.7    8.472      37.731
2015    7       27    22  31    5.1183   393.8    8.477      37.755
2015    7       27    22  37    5.1219   393.8    8.483      37.778
2015    7       27    22  43    5.1254   393.9    8.489      37.802
2015    7       27    22  48    5.1290   393.9    8.494      37.825
2015    7       27    22  54    5.1326   394.0    8.500      37.847
2015    7       27    23   0    5.1363   394.0    8.505      37.870
2015    7       27    23   6    5.1399   394.1    8.511      37.893
2015    7       27    23  12    5.1436   394.1    8.517      37.915
2015    7       27    23  18    5.1473   394.2    8.522      37.938
2015    7       27    23  24    5.1510   394.2    8.528      37.960
2015    7       27    23  30    5.1548   394.3    8.534      37.982
2015    7       27    23  36    5.1585   394.3    8.540      38.004
2015    7       27    23  42    5.1624   394.4    8.546      38.027
2015    7       27    23  48    5.1662   394.4    8.552      38.049
2015    7       27    23  54    5.1701   394.5    8.558      38.071
2015    7       28     0   0    5.1740   394.5    8.564      38.094
2015    7       28     0   6    5.1780   394.6    8.571      38.117
2015    7       28     0  12    5.1820   394.6    8.578      38.140
2015    7       28     0  17    5.1860   394.7    8.584      38.163
2015    7       28     0  23    5.1901   394.8    8.591      38.186
2015    7       28     0  29    5.1943   394.8    8.598      38.210
2015    7       28     0  35    5.1985   394.9    8.606      38.234
2015    7       28     0  41    5.2027   394.9    8.613      38.258
2015    7       28     0  47    5.2071   395.0    8.621      38.283
2015    7       28     0  53    5.2115   395.0    8.629      38.309
2015    7       28     0  59    5.2159   395.1    8.637      38.336
2015    7       28     1   5    5.2204   395.1    8.645      38.363
2015    7       28     1  11    5.2249   395.2    8.654      38.391
2015    7       28     1  17    5.2295   395.3    8.662      38.419
2015    7       28     1  23    5.2341   395.3    8.670      38.448
2015    7       28     1  29    5.2388   395.4    8.679      38.477
2015    7       28     1  35    5.2435   395.4    8.687      38.506
2015    7       28     1  40    5.2482   395.5    8.696      38.536
2015    7       28     1  46    5.2529   395.6    8.704      38.565
2015    7       28     1  52    5.2576   395.6    8.713      38.594
2015    7       28     1  58    5.2624   395.7    8.721      38.624
2015    7       28     2   4    5.2671   395.8    8.729      38.654
2015    7       28     2  10    5.2718   395.9    8.737      38.684
2015    7       28     2  16    5.2766   395.9    8.744      38.713
2015    7       28     2  22    5.2812   396.0    8.751      38.742
2015    7       28     2  28    5.2859   396.1    8.758      38.770
2015    7       28     2  34    5.2905   396.2    8.765      38.798
2015    7       28     2  40    5.2951   396.2    8.771      38.825
2015    7       28     2  46    5.2996   396.3    8.778      38.852
2015    7       28     2  52    5.3041   396.4    8.783      38.877
2015    7       28     2  57    5.3086   396.5    8.789      38.902
2015    7       28     3   3    5.3130   396.6    8.794      38.927
2015    7       28     3   9    5.3174   396.6    8.799      38.950
2015    7       28     3  15    5.3218   396.7    8.804      38.974
2015    7       28     3  21    5.3261   396.8    8.808      38.996
2015    7       28     3  27    5.3303   396.9    8.812      39.018
2015    7       28     3  33    5.3346   397.0    8.816      39.038
2015    7       28     3  39    5.3388   397.0    8.819      39.058
2015    7       28     3  45    5.3429   397.1    8.823      39.077
2015    7       28     3  51    5.3470   397.2    8.826      39.096
2015    7       28     3  57    5.3511   397.3    8.829      39.113
2015    7       28     4   3    5.3552   397.4    8.831      39.130
2015    7       28     4   9    5.3593   397.4    8.834      39.147
2015    7       28     4  14    5.3633   397.5    8.837      39.162
2015    7       28     4  20    5.3673   397.6    8.839      39.177
2015    7       28     4  26    5.3713   397.7    8.841      39.192
2015    7       28     4  32    5.3753   397.7    8.843      39.206
2015    7       28     4  38    5.3793   397.8    8.845      39.220
2015    7       28     4  44    5.3833   397.9    8.847      39.233
2015    7       28     4  50    5.3872   398.0    8.849      39.246
2015    7       28     4  56    5.3912   398.0    8.851      39.259
2015    7       28     5   2    5.3952   398.1    8.853      39.271
2015    7       28     5   8    5.3991   398.2    8.854      39.283
2015    7       28     5  14    5.4031   398.3    8.856      39.295
2015    7       28     5  20    5.4070   398.3    8.857      39.306
2015    7       28     5  26    5.4110   398.4    8.859      39.318
2015    7       28     5  32    5.4149   398.5    8.861      39.329
2015    7       28     5  37    5.4189   398.6    8.862      39.340
2015    7       28     5  43    5.4229   398.6    8.864      39.350
2015    7       28     5  49    5.4268   398.7    8.865      39.361
2015    7       28     5  55    5.4308   398.8    8.867      39.371
2015    7       28     6   1    5.4348   398.9    8.869      39.382
2015    7       28     6   7    5.4388   398.9    8.870      39.392
2015    7       28     6  13    5.4428   399.0    8.872      39.403
2015    7       28     6  19    5.4469   399.1    8.874      39.414
2015    7       28     6  25    5.4509   399.1    8.876      39.424
2015    7       28     6  31    5.4550   399.2    8.878      39.435
2015    7       28     6  37    5.4591   399.3    8.880      39.446
2015    7       28     6  43    5.4632   399.4    8.882      39.457
2015    7       28     6  49    5.4673   399.5    8.884      39.469
2015    7       28     6  55    5.4715   399.5    8.887      39.480
2015    7       28     7   0    5.4757   399.6    8.890      39.492
2015    7       28     7   6    5.4800   399.7    8.892      39.505
2015    7       28     7  12    5.4843   399.8    8.895      39.518
2015    7       28     7  18    5.4886   399.8    8.899      39.531
2015    7       28     7  24    5.4930   399.9    8.902      39.545
2015    7       28     7  30    5.4974   400.0    8.906      39.559
2015    7       28     7  36    5.5018   400.1    8.910      39.574
2015    7       28     7  42    5.5063   400.2    8.915      39.590
2015    7       28     7  48    5.5109   400.3    8.919      39.606
2015    7       28     7  54    5.5155   400.4    8.924      39.623
2015    7       28     8   0    5.5201   400.4    8.930      39.641
2015    7       28     8   6    5.5248   400.5    8.935      39.660
2015    7       28     8  12    5.5295   400.6    8.941      39.680
2015    7       28     8  18    5.5342   400.7    8.947      39.700
2015    7       28     8  23    5.5390   400.8    8.954      39.721
2015    7       28     8  29    5.5437   400.9    8.960      39.743
2015    7       28     8  35    5.5485   401.0    8.967      39.766
2015    7       28     8  41    5.5533   401.1    8.973      39.789
2015    7       28     8  47    5.5581   401.2    8.980      39.812
2015    7       28     8  53    5.5629   401.3    8.987      39.836
2015    7       28     8  59    5.5677   401.4    8.994      39.860
2015    7       28     9   5    5.5724   401.5    9.001      39.884
2015    7       28     9  11    5.5772   401.7    9.008      39.910
2015    7       28     9  17    5.5818   401.8    9.015      39.935
2015    7       28     9  23    5.5865   401.9    9.022      39.961
2015    7       28     9  29    5.5911   402.0    9.028      39.986
2015    7       28     9  35    5.5956   402.1    9.035      40.011
2015    7       28     9  41    5.6001   402.2    9.041      40.036
2015    7       28     9  46    5.6046   402.4    9.047      40.061
2015    7       28     9  52    5.6090   402.5    9.052      40.085
2015    7       28     9  58    5.6133   402.6    9.058      40.109
2015    7       28    10   4    5.6176   402.7    9.063      40.133
2015    7       28    10  10    5.6219   402.9    9.068      40.156
2015    7       28    10  16    5.6261   403.0    9.072      40.179
2015    7       28    10  22    5.6302   403.1    9.077      40.201
2015    7       28    10  28    5.6343   403.2    9.081      40.223
2015    7       28    10  34    5.6383   403.3    9.084      40.244
2015    7       28    10  40    5.6424   403.5    9.088      40.264
2015    7       28    10  46    5.6463   403.6    9.091      40.284
2015    7       28    10  52    5.6503   403.7    9.094      40.304
2015    7       28    10  58    5.6542   403.8    9.097      40.322
2015    7       28    11   3    5.6580   403.9    9.099      40.341
2015    7       28    11   9    5.6619   404.1    9.102      40.358
2015    7       28    11  15    5.6657   404.2    9.104      40.376
2015    7       28    11  21    5.6695   404.3    9.106      40.392
2015    7       28    11  27    5.6732   404.4    9.108      40.408
2015    7       28    11  33    5.6770   404.5    9.109      40.424
2015    7       28    11  39    5.6807   404.6    9.110      40.439
2015    7       28    11  45    5.6844   404.8    9.112      40.454
2015    7       28    11  51    5.6880   404.9    9.112      40.468
2015    7       28    11  57    5.6917   405.0    9.113      40.482
2015    7       28    12   3    5.6953   405.1    9.114      40.495
2015    7       28    12   9    5.6989   405.2    9.114      40.508
2015    7       28    12  15    5.7025   405.3    9.115      40.520
2015    7       28    12  20    5.7061   405.4    9.115      40.532
2015    7       28    12  26    5.7097   405.5    9.115      40.543
2015    7       28    12  32    5.7132   405.7    9.115      40.554
2015    7       28    12  38    5.7167   405.8    9.115      40.564
2015    7       28    12  44    5.7202   405.9    9.114      40.575
2015    7       28    12  50    5.7237   406.0    9.114      40.584
2015    7       28    12  56    5.7272   406.1    9.113      40.594
2015    7       28    13   2    5.7306   406.2    9.113      40.603
2015    7       28    13   8    5.7340   406.3    9.112      40.612
2015    7       28    13  14    5.7375   406.4    9.111      40.621
2015    7       28    13  20    5.7409   406.5    9.111      40.629
2015    7       28    13  26    5.7443   406.7    9.110      40.638
2015    7       28    13  32    5.7477   406.8    9.109      40.646
2015    7       28    13  38    5.7511   406.9    9.108      40.654
2015    7       28    13  43    5.7545   407.0    9.107      40.662
2015    7       28    13  49    5.7579   407.1    9.106      40.670
2015    7       28    13  55    5.7613   407.2    9.105      40.678
2015    7       28    14   1    5.7646   407.3    9.105      40.686
2015    7       28    14   7    5.7680   407.4    9.104      40.694
2015    7       28    14  13    5.7714   407.5    9.103      40.702
2015    7       28    14  19    5.7748   407.6    9.102      40.710
2015    7       28    14  25    5.7783   407.8    9.102      40.718
2015    7       28    14  31    5.7817   407.9    9.101      40.727
2015    7       28    14  37    5.7851   408.0    9.101      40.736
2015    7       28    14  43    5.7886   408.1    9.101      40.745
2015    7       28    14  49    5.7920   408.2    9.100      40.754
2015    7       28    14  55    5.7955   408.3    9.100      40.763
2015    7       28    15   1    5.7990   408.4    9.100      40.773
2015    7       28    15   6    5.8025   408.6    9.100      40.782
2015    7       28    15  12    5.8060   408.7    9.101      40.793
2015    7       28    15  18    5.8095   408.8    9.101      40.803
2015    7       28    15  24    5.8131   408.9    9.102      40.814
2015    7       28    15  30    5.8166   409.0    9.103      40.825
2015    7       28    15  36    5.8202   409.1    9.104      40.837
2015    7       28    15  42    5.8238   409.2    9.105      40.849
2015    7       28    15  48    5.8273   409.4    9.106      40.862
2015    7       28    15  54    5.8309   409.5    9.108      40.876
2015    7       28    16   0    5.8345   409.6    9.109      40.890
2015    7       28    16   6    5.8380   409.7    9.111      40.904
2015    7       28    16  12    5.8416   409.8    9.113      40.920
2015    7       28    16  18    5.8452   410.0    9.114      40.935
2015    7       28    16  24    5.8487   410.1    9.116      40.951
2015    7       28    16  29    5.8522   410.2    9.118      40.968
2015    7       28    16  35    5.8558   410.3    9.120      40.984
2015    7       28    16  41    5.8593   410.5    9.122      41.001
2015    7       28    16  47    5.8628   410.6    9.124      41.018
2015    7       28    16  53    5.8664   410.7    9.126      41.036
2015    7       28    16  59    5.8699   410.9    9.128      41.054
2015    7       28    17   5    5.8734   411.0    9.129      41.072
2015    7       28    17  11    5.8770   411.1    9.131      41.090
2015    7       28    17  17    5.8806   411.2    9.133      41.109
2015    7       28    17  23    5.8841   411.4    9.135      41.128
2015    7       28    17  29    5.8877   411.5    9.137      41.147
2015    7       28    17  35    5.8914   411.6    9.139      41.166
2015    7       28    17  41    5.8950   411.8    9.142      41.186
2015    7       28    17  46    5.8987   411.9    9.144      41.206
2015    7       28    17  52    5.9024   412.0    9.146      41.227
2015    7       28    17  58    5.9062   412.1    9.149      41.248
2015    7       28    18   4    5.9100   412.3    9.151      41.270
2015    7       28    18  10    5.9138   412.4    9.154      41.292
2015    7       28    18  16    5.9177   412.5    9.157      41.316
2015    7       28    18  22    5.9217   412.7    9.160      41.340
2015    7       28    18  28    5.9257   412.8    9.163      41.364
2015    7       28    18  34    5.9298   412.9    9.167      41.389
2015    7       28    18  40    5.9339   413.1    9.171      41.415
2015    7       28    18  46    5.9380   413.2    9.174      41.443
2015    7       28    18  52    5.9422   413.4    9.178      41.472
2015    7       28    18  58    5.9463   413.5    9.182      41.502
2015    7       28    19   3    5.9505   413.6    9.186      41.533
2015    7       28    19   9    5.9546   413.8    9.190      41.564
2015    7       28    19  15    5.9587   413.9    9.194      41.597
2015    7       28    19  21    5.9628   414.1    9.197      41.630
2015    7       28    19  27    5.9669   414.2    9.201      41.663
2015    7       28    19  33    5.9709   414.4    9.204      41.696
2015    7       28    19  39    5.9748   414.5    9.207      41.730
2015    7       28    19  45    5.9787   414.6    9.210      41.763
2015    7       28    19  51    5.9825   414.8    9.212      41.796
2015    7       28    19  57    5.9863   414.9    9.214      41.830
2015    7       28    20   3    5.9900   415.1    9.216      41.862
2015    7       28    20   9    5.9936   415.2    9.218      41.894
2015    7       28    20  15    5.9972   415.4    9.219      41.925
2015    7       28    20  21    6.0007   415.5    9.219      41.955
2015    7       28    20  26    6.0042   415.7    9.220      41.983
2015    7       28    20  32    6.0076   415.8    9.220      42.011
2015    7       28    20  38    6.0110   415.9    9.220      42.038
2015    7       28    20  44    6.0143   416.1    9.219      42.064
2015    7       28    20  50    6.0175   416.2    9.219      42.089
2015    7       28    20  56    6.0208   416.4    9.218      42.114
2015    7       28    21   2    6.0240   416.5    9.217      42.137
2015    7       28    21   8    6.0271   416.7    9.215      42.160
2015    7       28    21  14    6.0303   416.8    9.213      42.182
2015    7       28    21  20    6.0334   416.9    9.212      42.203
2015    7       28    21  26    6.0365   417.1    9.210      42.224
2015    7       28    21  32    6.0395   417.2    9.207      42.243
2015    7       28    21  38    6.0426   417.4    9.205      42.263
2015    7       28    21  44    6.0456   417.5    9.203      42.281
2015    7       28    21  49    6.0486   417.7    9.200      42.300
2015    7       28    21  55    6.0516   417.8    9.197      42.317
2015    7       28    22   1    6.0546   417.9    9.194      42.334
2015    7       28    22   7    6.0576   418.1    9.191      42.351
2015    7       28    22  13    6.0605   418.2    9.188      42.367
2015    7       28    22  19    6.0635   418.3    9.185      42.383
2015    7       28    22  25    6.0664   418.5    9.181      42.398
2015    7       28    22  31    6.0694   418.6    9.178      42.413
2015    7       28    22  37    6.0723   418.8    9.175      42.428
2015    7       28    22  43    6.0753   418.9    9.171      42.443
2015    7       28    22  49    6.0782   419.0    9.168      42.457
2015    7       28    22  55    6.0811   419.2    9.164      42.471
2015    7       28    23   1    6.0841   419.3    9.161      42.485
2015    7       28    23   7    6.0870   419.4    9.157      42.498
2015    7       28    23  12    6.0899   419.6    9.153      42.512
2015    7       28    23  18    6.0929   419.7    9.150      42.525
2015    7       28    23  24    6.0958   419.9    9.146      42.539
2015    7       28    23  30    6.0987   420.0    9.143      42.552
2015    7       28    23  36    6.1017   420.1    9.139      42.566
2015    7       28    23  42    6.1047   420.3    9.136      42.579
2015    7       28    23  48    6.1076   420.4    9.132      42.593
2015    7       28    23  54    6.1106   420.5    9.129      42.607
2015    7       29     0   0    6.1136   420.7    9.126      42.621
2015    7       29     0   6    6.1167   420.8    9.123      42.635
2015    7       29     0  12    6.1197   420.9    9.120      42.650
2015    7       29     0  18    6.1228   421.1    9.117      42.666
2015    7       29     0  24    6.1260   421.2    9.115      42.681
2015    7       29     0  30    6.1292   421.3    9.113      42.698
2015    7       29     0  35    6.1324   421.5    9.111      42.715
2015    7       29     0  41    6.1356   421.6    9.109      42.734
2015    7       29     0  47    6.1390   421.7    9.107      42.753
2015    7       29     0  53    6.1424   421.9    9.106      42.773
2015    7       29     0  59    6.1458   422.0    9.106      42.794
2015    7       29     1   5    6.1493   422.1    9.106      42.817
2015    7       29     1  11    6.1529   422.3    9.106      42.840
2015    7       29     1  17    6.1566   422.4    9.107      42.866
2015    7       29     1  23    6.1604   422.6    9.108      42.893
2015    7       29     1  29    6.1643   422.7    9.110      42.922
2015    7       29     1  35    6.1683   422.8    9.112      42.952
2015    7       29     1  41    6.1725   423.0    9.115      42.983
2015    7       29     1  47    6.1767   423.1    9.119      43.017
2015    7       29     1  52    6.1810   423.3    9.123      43.054
2015    7       29     1  58    6.1853   423.4    9.128      43.094
2015    7       29     2   4    6.1897   423.6    9.133      43.138
2015    7       29     2  10    6.1941   423.8    9.138      43.186
2015    7       29     2  16    6.1985   423.9    9.143      43.236
2015    7       29     2  22    6.2030   424.1    9.149      43.289
2015    7       29     2  28    6.2074   424.3    9.155      43.344
2015    7       29     2  34    6.2117   424.4    9.160      43.402
2015    7       29     2  40    6.2161   424.6    9.166      43.461
2015    7       29     2  46    6.2203   424.8    9.171      43.521
2015    7       29     2  52    6.2245   425.0    9.176      43.582
2015    7       29     2  58    6.2285   425.2    9.180      43.644
2015    7       29     3   4    6.2324   425.3    9.184      43.706
2015    7       29     3   9    6.2362   425.5    9.187      43.769
2015    7       29     3  15    6.2400   425.7    9.190      43.832
2015    7       29     3  21    6.2436   425.9    9.192      43.892
2015    7       29     3  27    6.2471   426.1    9.193      43.952
2015    7       29     3  33    6.2505   426.3    9.194      44.009
2015    7       29     3  39    6.2538   426.5    9.195      44.065
2015    7       29     3  45    6.2571   426.6    9.195      44.119
2015    7       29     3  51    6.2603   426.8    9.194      44.171
2015    7       29     3  57    6.2633   427.0    9.193      44.222
2015    7       29     4   3    6.2664   427.2    9.192      44.272
2015    7       29     4   9    6.2693   427.4    9.190      44.320
2015    7       29     4  15    6.2722   427.6    9.187      44.366
2015    7       29     4  21    6.2751   427.8    9.185      44.412
2015    7       29     4  27    6.2779   428.0    9.181      44.456
2015    7       29     4  32    6.2807   428.2    9.178      44.499
2015    7       29     4  38    6.2835   428.3    9.174      44.541
2015    7       29     4  44    6.2862   428.5    9.170      44.582
2015    7       29     4  50    6.2888   428.7    9.166      44.621
2015    7       29     4  56    6.2915   428.9    9.161      44.660
2015    7       29     5   2    6.2941   429.1    9.156      44.698
2015    7       29     5   8    6.2967   429.3    9.151      44.735
2015    7       29     5  14    6.2992   429.5    9.145      44.772
2015    7       29     5  20    6.3017   429.7    9.139      44.807
2015    7       29     5  26    6.3042   429.9    9.133      44.842
2015    7       29     5  32    6.3067   430.1    9.127      44.876
2015    7       29     5  38    6.3091   430.3    9.121      44.909
2015    7       29     5  44    6.3116   430.5    9.114      44.942
2015    7       29     5  50    6.3140   430.7    9.108      44.974
2015    7       29     5  55    6.3163   430.9    9.101      45.005
2015    7       29     6   1    6.3186   431.1    9.094      45.036
2015    7       29     6   7    6.3209   431.3    9.086      45.067
2015    7       29     6  13    6.3232   431.5    9.079      45.097
2015    7       29     6  19    6.3255   431.7    9.071      45.126
2015    7       29     6  25    6.3277   431.9    9.064      45.155
2015    7       29     6  31    6.3298   432.1    9.056      45.184
2015    7       29     6  37    6.3320   432.3    9.048      45.212
2015    7       29     6  43    6.3341   432.5    9.040      45.240
2015    7       29     6  49    6.3361   432.7    9.032      45.267
2015    7       29     6  55    6.3381   432.9    9.024      45.294
2015    7       29     7   1    6.3402   433.1    9.016      45.321
2015    7       29     7   7    6.3421   433.3    9.007      45.348
2015    7       29     7  13    6.3441   433.5    8.999      45.374
2015    7       29     7  18    6.3460   433.7    8.991      45.400
2015    7       29     7  24    6.3479   433.9    8.982      45.426
2015    7       29     7  30    6.3497   434.1    8.974      45.452
2015    7       29     7  36    6.3516   434.3    8.966      45.478
2015    7       29     7  42    6.3534   434.5    8.958      45.504
2015    7       29     7  48    6.3552   434.7    8.949      45.529
2015    7       29     7  54    6.3571   434.9    8.941      45.556
2015    7       29     8   0    6.3589   435.1    8.933      45.582
2015    7       29     8   6    6.3607   435.3    8.925      45.608
2015    7       29     8  12    6.3625   435.5    8.918      45.635
2015    7       29     8  18    6.3643   435.7    8.910      45.662
2015    7       29     8  24    6.3661   435.9    8.903      45.689
2015    7       29     8  30    6.3679   436.1    8.895      45.717
2015    7       29     8  35    6.3697   436.4    8.888      45.745
2015    7       29     8  41    6.3715   436.6    8.881      45.774
2015    7       29     8  47    6.3733   436.8    8.875      45.803
2015    7       29     8  53    6.3752   437.0    8.868      45.832
2015    7       29     8  59    6.3771   437.2    8.862      45.862
2015    7       29     9   5    6.3789   437.4    8.856      45.893
2015    7       29     9  11    6.3809   437.6    8.851      45.925
2015    7       29     9  17    6.3827   437.8    8.845      45.959
2015    7       29     9  23    6.3847   438.0    8.840      45.995
2015    7       29     9  29    6.3865   438.3    8.835      46.033
2015    7       29     9  35    6.3884   438.5    8.830      46.073
2015    7       29     9  41    6.3903   438.7    8.825      46.114
2015    7       29     9  47    6.3922   438.9    8.820      46.156
2015    7       29     9  52    6.3940   439.1    8.815      46.200
2015    7       29     9  58    6.3958   439.4    8.810      46.245
2015    7       29    10   4    6.3975   439.6    8.804      46.291
2015    7       29    10  10    6.3992   439.8    8.799      46.338
2015    7       29    10  16    6.4009   440.1    8.793      46.386
2015    7       29    10  22    6.4024   440.3    8.787      46.436
2015    7       29    10  28    6.4039   440.5    8.781      46.486
2015    7       29    10  34    6.4054   440.8    8.774      46.536
2015    7       29    10  40    6.4068   441.0    8.768      46.586
2015    7       29    10  46    6.4081   441.2    8.761      46.635
2015    7       29    10  52    6.4093   441.5    8.753      46.683
2015    7       29    10  58    6.4105   441.7    8.746      46.731
2015    7       29    11   4    6.4116   442.0    8.738      46.778
2015    7       29    11  10    6.4126   442.2    8.730      46.824
2015    7       29    11  15    6.4136   442.4    8.721      46.870
2015    7       29    11  21    6.4145   442.7    8.712      46.914
2015    7       29    11  27    6.4153   442.9    8.703      46.959
2015    7       29    11  33    6.4160   443.2    8.694      47.002
2015    7       29    11  39    6.4167   443.4    8.685      47.045
2015    7       29    11  45    6.4173   443.7    8.675      47.086
2015    7       29    11  51    6.4178   443.9    8.665      47.128
2015    7       29    11  57    6.4183   444.1    8.655      47.168
2015    7       29    12   3    6.4187   444.4    8.644      47.208
2015    7       29    12   9    6.4191   444.6    8.633      47.248
2015    7       29    12  15    6.4195   444.9    8.623      47.286
2015    7       29    12  21    6.4197   445.1    8.611      47.325
2015    7       29    12  27    6.4200   445.4    8.600      47.362
2015    7       29    12  33    6.4202   445.6    8.589      47.399
2015    7       29    12  38    6.4203   445.8    8.577      47.435
2015    7       29    12  44    6.4204   446.1    8.565      47.470
2015    7       29    12  50    6.4204   446.3    8.553      47.504
2015    7       29    12  56    6.4204   446.6    8.540      47.538
2015    7       29    13   2    6.4203   446.8    8.528      47.570
2015    7       29    13   8    6.4202   447.1    8.515      47.602
2015    7       29    13  14    6.4200   447.3    8.502      47.632
2015    7       29    13  20    6.4197   447.6    8.489      47.662
2015    7       29    13  26    6.4193   447.8    8.476      47.690
2015    7       29    13  32    6.4189   448.1    8.463      47.717
2015    7       29    13  38    6.4184   448.3    8.449      47.743
2015    7       29    13  44    6.4178   448.6    8.435      47.769
2015    7       29    13  50    6.4170   448.9    8.421      47.793
2015    7       29    13  56    6.4162   449.1    8.407      47.816
2015    7       29    14   2    6.4152   449.4    8.392      47.840
2015    7       29    14   7    6.4140   449.7    8.377      47.863
2015    7       29    14  13    6.4127   450.0    8.361      47.885
2015    7       29    14  19    6.4112   450.3    8.345      47.905
2015    7       29    14  25    6.4095   450.5    8.329      47.923
2015    7       29    14  31    6.4077   450.8    8.312      47.940
2015    7       29    14  37    6.4057   451.1    8.295      47.956
2015    7       29    14  43    6.4036   451.4    8.279      47.970
2015    7       29    14  49    6.4015   451.6    8.262      47.983
2015    7       29    14  55    6.3993   451.9    8.245      47.996
2015    7       29    15   1    6.3970   452.1    8.228      48.007
2015    7       29    15   7    6.3947   452.4    8.211      48.017
2015    7       29    15  13    6.3923   452.6    8.194      48.026
2015    7       29    15  19    6.3900   452.8    8.178      48.034
2015    7       29    15  24    6.3877   453.1    8.162      48.040
2015    7       29    15  30    6.3856   453.3    8.146      48.045
2015    7       29    15  36    6.3834   453.5    8.131      48.050
2015    7       29    15  42    6.3814   453.7    8.116      48.056
2015    7       29    15  48    6.3794   453.9    8.102      48.063
2015    7       29    15  54    6.3775   454.1    8.087      48.072
2015    7       29    16   0    6.3756   454.3    8.073      48.082
2015    7       29    16   6    6.3738   454.5    8.059      48.094
2015    7       29    16  12    6.3720   454.7    8.045      48.108
2015    7       29    16  18    6.3703   455.0    8.032      48.124
2015    7       29    16  24    6.3686   455.2    8.019      48.141
2015    7       29    16  30    6.3669   455.4    8.005      48.159
2015    7       29    16  36    6.3652   455.7    7.992      48.178
2015    7       29    16  41    6.3635   455.9    7.979      48.198
2015    7       29    16  47    6.3618   456.2    7.966      48.218
2015    7       29    16  53    6.3601   456.4    7.953      48.238
2015    7       29    16  59    6.3582   456.6    7.940      48.258
2015    7       29    17   5    6.3564   456.9    7.927      48.277
2015    7       29    17  11    6.3545   457.1    7.913      48.296
2015    7       29    17  17    6.3526   457.4    7.900      48.315
2015    7       29    17  23    6.3506   457.6    7.887      48.334
2015    7       29    17  29    6.3486   457.9    7.873      48.351
2015    7       29    17  35    6.3464   458.1    7.860      48.367
2015    7       29    17  41    6.3442   458.3    7.846      48.382
2015    7       29    17  47    6.3419   458.6    7.833      48.397
2015    7       29    17  53    6.3395   458.8    7.819      48.412
2015    7       29    17  58    6.3370   459.1    7.805      48.426
2015    7       29    18   4    6.3345   459.3    7.791      48.440
2015    7       29    18  10    6.3319   459.5    7.777      48.453
2015    7       29    18  16    6.3292   459.8    7.763      48.466
2015    7       29    18  22    6.3264   460.0    7.749      48.479
2015    7       29    18  28    6.3236   460.3    7.735      48.492
2015    7       29    18  34    6.3207   460.5    7.722      48.505
2015    7       29    18  40    6.3178   460.7    7.708      48.517
2015    7       29    18  46    6.3148   461.0    7.694      48.530
2015    7       29    18  52    6.3118   461.2    7.680      48.542
2015    7       29    18  58    6.3088   461.4    7.667      48.554
2015    7       29    19   4    6.3057   461.6    7.653      48.568
2015    7       29    19  10    6.3026   461.8    7.640      48.581
2015    7       29    19  16    6.2996   462.1    7.626      48.595
2015    7       29    19  22    6.2965   462.3    7.613      48.609
2015    7       29    19  27    6.2935   462.5    7.600      48.623
2015    7       29    19  33    6.2904   462.8    7.586      48.638
2015    7       29    19  39    6.2873   463.0    7.573      48.653
2015    7       29    19  45    6.2842   463.3    7.559      48.667
2015    7       29    19  51    6.2810   463.5    7.546      48.681
2015    7       29    19  57    6.2778   463.7    7.532      48.693
2015    7       29    20   3    6.2745   464.0    7.519      48.705
2015    7       29    20   9    6.2712   464.2    7.505      48.716
2015    7       29    20  15    6.2678   464.5    7.491      48.726
2015    7       29    20  21    6.2643   464.7    7.477      48.735
2015    7       29    20  27    6.2608   464.9    7.463      48.741
2015    7       29    20  33    6.2571   465.2    7.449      48.746
2015    7       29    20  39    6.2534   465.4    7.434      48.749
2015    7       29    20  45    6.2496   465.6    7.420      48.750
2015    7       29    20  50    6.2458   465.9    7.405      48.751
2015    7       29    20  56    6.2419   466.1    7.390      48.749
2015    7       29    21   2    6.2378   466.4    7.375      48.747
2015    7       29    21   8    6.2337   466.6    7.360      48.744
2015    7       29    21  14    6.2295   466.8    7.345      48.740
2015    7       29    21  20    6.2252   467.1    7.329      48.737
2015    7       29    21  26    6.2208   467.4    7.313      48.733
2015    7       29    21  32    6.2162   467.6    7.297      48.727
2015    7       29    21  38    6.2116   467.8    7.281      48.719
2015    7       29    21  44    6.2069   468.1    7.264      48.710
2015    7       29    21  50    6.2021   468.3    7.248      48.699
2015    7       29    21  56    6.1973   468.6    7.231      48.688
2015    7       29    22   2    6.1924   468.8    7.215      48.675
2015    7       29    22   7    6.1875   469.0    7.198      48.662
2015    7       29    22  13    6.1826   469.2    7.182      48.648
2015    7       29    22  19    6.1777   469.4    7.166      48.632
2015    7       29    22  25    6.1730   469.6    7.150      48.617
2015    7       29    22  31    6.1682   469.8    7.134      48.601
2015    7       29    22  37    6.1635   470.0    7.119      48.584
2015    7       29    22  43    6.1589   470.1    7.105      48.566
2015    7       29    22  49    6.1545   470.3    7.091      48.548
2015    7       29    22  55    6.1502   470.4    7.078      48.531
2015    7       29    23   1    6.1461   470.6    7.065      48.515
2015    7       29    23   7    6.1420   470.7    7.053      48.502
2015    7       29    23  13    6.1380   470.9    7.041      48.490
2015    7       29    23  19    6.1342   471.0    7.029      48.481
2015    7       29    23  24    6.1304   471.2    7.018      48.475
2015    7       29    23  30    6.1268   471.3    7.007      48.472
2015    7       29    23  36    6.1232   471.5    6.997      48.472
2015    7       29    23  42    6.1196   471.6    6.987      48.473
2015    7       29    23  48    6.1161   471.8    6.977      48.476
2015    7       29    23  54    6.1126   472.0    6.967      48.481
2015    7       30     0   0    6.1092   472.2    6.957      48.486
2015    7       30     0   6    6.1057   472.3    6.947      48.492
2015    7       30     0  12    6.1023   472.5    6.938      48.498
2015    7       30     0  18    6.0987   472.7    6.928      48.504
2015    7       30     0  24    6.0952   472.9    6.918      48.510
2015    7       30     0  30    6.0917   473.1    6.908      48.515
2015    7       30     0  36    6.0881   473.2    6.898      48.520
2015    7       30     0  41    6.0845   473.4    6.888      48.524
2015    7       30     0  47    6.0808   473.6    6.878      48.526
2015    7       30     0  53    6.0770   473.8    6.868      48.527
2015    7       30     0  59    6.0732   474.0    6.857      48.526
2015    7       30     1   5    6.0693   474.2    6.847      48.525
2015    7       30     1  11    6.0653   474.3    6.836      48.522
2015    7       30     1  17    6.0613   474.5    6.825      48.518
2015    7       30     1  23    6.0572   474.7    6.815      48.514
2015    7       30     1  29    6.0531   474.9    6.804      48.508
2015    7       30     1  35    6.0490   475.0    6.793      48.502
2015    7       30     1  41    6.0448   475.2    6.782      48.495
2015    7       30     1  47    6.0407   475.4    6.771      48.488
2015    7       30     1  53    6.0365   475.5    6.761      48.481
2015    7       30     1  59    6.0323   475.7    6.750      48.474
2015    7       30     2   5    6.0282   475.9    6.739      48.466
2015    7       30     2  10    6.0240   476.0    6.729      48.459
2015    7       30     2  16    6.0199   476.2    6.719      48.452
2015    7       30     2  22    6.0158   476.3    6.709      48.446
2015    7       30     2  28    6.0118   476.5    6.699      48.441
2015    7       30     2  34    6.0078   476.7    6.689      48.437
2015    7       30     2  40    6.0038   476.8    6.679      48.432
2015    7       30     2  46    5.9999   477.0    6.670      48.429
2015    7       30     2  52    5.9959   477.2    6.660      48.426
2015    7       30     2  58    5.9920   477.4    6.651      48.422
2015    7       30     3   4    5.9880   477.6    6.641      48.419
2015    7       30     3  10    5.9841   477.7    6.631      48.415
2015    7       30     3  16    5.9801   477.9    6.622      48.411
2015    7       30     3  22    5.9761   478.1    6.612      48.407
2015    7       30     3  28    5.9720   478.3    6.603      48.402
2015    7       30     3  33    5.9679   478.5    6.593      48.396
2015    7       30     3  39    5.9638   478.7    6.583      48.389
2015    7       30     3  45    5.9596   478.8    6.573      48.382
2015    7       30     3  51    5.9554   479.0    6.564      48.373
2015    7       30     3  57    5.9512   479.2    6.554      48.364
2015    7       30     4   3    5.9469   479.4    6.544      48.354
2015    7       30     4   9    5.9426   479.5    6.534      48.344
2015    7       30     4  15    5.9383   479.7    6.524      48.334
2015    7       30     4  21    5.9341   479.9    6.515      48.323
2015    7       30     4  27    5.9298   480.0    6.505      48.312
2015    7       30     4  33    5.9255   480.2    6.495      48.301
2015    7       30     4  39    5.9213   480.3    6.486      48.289
2015    7       30     4  45    5.9171   480.5    6.476      48.278
2015    7       30     4  51    5.9130   480.6    6.467      48.267
2015    7       30     4  56    5.9089   480.8    6.458      48.256
2015    7       30     5   2    5.9049   480.9    6.449      48.245
2015    7       30     5   8    5.9009   481.1    6.440      48.235
2015    7       30     5  14    5.8970   481.2    6.431      48.225
2015    7       30     5  20    5.8932   481.4    6.422      48.215
2015    7       30     5  26    5.8894   481.5    6.413      48.206
2015    7       30     5  32    5.8856   481.6    6.405      48.198
2015    7       30     5  38    5.8820   481.8    6.396      48.191
2015    7       30     5  44    5.8784   481.9    6.388      48.184
2015    7       30     5  50    5.8748   482.1    6.380      48.178
2015    7       30     5  56    5.8713   482.2    6.372      48.172
2015    7       30     6   2    5.8678   482.4    6.364      48.167
2015    7       30     6   8    5.8644   482.5    6.357      48.163
2015    7       30     6  13    5.8610   482.7    6.349      48.159
2015    7       30     6  19    5.8576   482.8    6.342      48.156
2015    7       30     6  25    5.8544   483.0    6.335      48.153
2015    7       30     6  31    5.8511   483.1    6.328      48.150
2015    7       30     6  37    5.8478   483.2    6.321      48.148
2015    7       30     6  43    5.8446   483.4    6.314      48.146
2015    7       30     6  49    5.8414   483.5    6.307      48.145
2015    7       30     6  55    5.8383   483.6    6.301      48.144
2015    7       30     7   1    5.8351   483.8    6.294      48.143
2015    7       30     7   7    5.8320   483.9    6.288      48.142
2015    7       30     7  13    5.8289   484.1    6.282      48.141
2015    7       30     7  19    5.8258   484.2    6.275      48.141
2015    7       30     7  25    5.8228   484.3    6.269      48.140
2015    7       30     7  30    5.8197   484.5    6.263      48.139
2015    7       30     7  36    5.8167   484.6    6.256      48.138
2015    7       30     7  42    5.8136   484.7    6.250      48.137
2015    7       30     7  48    5.8106   484.9    6.244      48.136
2015    7       30     7  54    5.8076   485.0    6.238      48.135
2015    7       30     8   0    5.8046   485.1    6.231      48.133
2015    7       30     8   6    5.8015   485.3    6.225      48.132
2015    7       30     8  12    5.7985   485.4    6.219      48.130
2015    7       30     8  18    5.7955   485.5    6.212      48.128
2015    7       30     8  24    5.7925   485.6    6.206      48.125
2015    7       30     8  30    5.7895   485.8    6.200      48.123
2015    7       30     8  36    5.7864   485.9    6.193      48.120
2015    7       30     8  42    5.7834   486.0    6.187      48.117
2015    7       30     8  48    5.7804   486.2    6.181      48.114
2015    7       30     8  53    5.7774   486.3    6.174      48.111
2015    7       30     8  59    5.7743   486.4    6.168      48.107
2015    7       30     9   5    5.7713   486.6    6.161      48.103
2015    7       30     9  11    5.7683   486.7    6.155      48.099
2015    7       30     9  17    5.7653   486.8    6.149      48.095
2015    7       30     9  23    5.7623   487.0    6.142      48.090
2015    7       30     9  29    5.7593   487.1    6.136      48.086
2015    7       30     9  35    5.7562   487.2    6.129      48.082
2015    7       30     9  41    5.7533   487.4    6.123      48.077
2015    7       30     9  47    5.7503   487.5    6.116      48.073
2015    7       30     9  53    5.7473   487.6    6.110      48.068
2015    7       30     9  59    5.7443   487.7    6.104      48.064
2015    7       30    10   5    5.7413   487.9    6.097      48.059
2015    7       30    10  11    5.7383   488.0    6.091      48.054
2015    7       30    10  16    5.7353   488.1    6.085      48.050
2015    7       30    10  22    5.7323   488.3    6.078      48.046
2015    7       30    10  28    5.7293   488.4    6.072      48.041
2015    7       30    10  34    5.7263   488.5    6.066      48.037
2015    7       30    10  40    5.7233   488.6    6.060      48.033
2015    7       30    10  46    5.7203   488.8    6.053      48.029
2015    7       30    10  52    5.7174   488.9    6.047      48.025
2015    7       30    10  58    5.7144   489.0    6.041      48.021
2015    7       30    11   4    5.7114   489.2    6.035      48.018
2015    7       30    11  10    5.7085   489.3    6.029      48.014
2015    7       30    11  16    5.7055   489.4    6.023      48.011
2015    7       30    11  22    5.7026   489.5    6.017      48.008
2015    7       30    11  28    5.6997   489.7    6.011      48.005
2015    7       30    11  34    5.6968   489.8    6.005      48.002
2015    7       30    11  39    5.6939   489.9    5.999      48.000
2015    7       30    11  45    5.6910   490.0    5.993      47.997
2015    7       30    11  51    5.6882   490.2    5.988      47.995
2015    7       30    11  57    5.6853   490.3    5.982      47.993
2015    7       30    12   3    5.6825   490.4    5.976      47.991
2015    7       30    12   9    5.6797   490.5    5.971      47.990
2015    7       30    12  15    5.6770   490.7    5.965      47.989
2015    7       30    12  21    5.6742   490.8    5.959      47.987
2015    7       30    12  27    5.6715   490.9    5.954      47.986
2015    7       30    12  33    5.6688   491.0    5.949      47.986
2015    7       30    12  39    5.6661   491.1    5.943      47.985
2015    7       30    12  45    5.6635   491.3    5.938      47.985
2015    7       30    12  51    5.6608   491.4    5.933      47.985
2015    7       30    12  57    5.6583   491.5    5.927      47.985
2015    7       30    13   2    5.6557   491.6    5.922      47.986
2015    7       30    13   8    5.6532   491.7    5.917      47.986
2015    7       30    13  14    5.6506   491.9    5.912      47.987
2015    7       30    13  20    5.6482   492.0    5.907      47.988
2015    7       30    13  26    5.6457   492.1    5.902      47.989
2015    7       30    13  32    5.6433   492.2    5.897      47.991
2015    7       30    13  38    5.6409   492.3    5.892      47.992
2015    7       30    13  44    5.6385   492.4    5.887      47.994
2015    7       30    13  50    5.6362   492.6    5.883      47.996
2015    7       30    13  56    5.6338   492.7    5.878      47.998
2015    7       30    14   2    5.6315   492.8    5.873      48.000
2015    7       30    14   8    5.6292   492.9    5.869      48.002
2015    7       30    14  13    5.6270   493.0    5.864      48.004
2015    7       30    14  19    5.6248   493.1    5.860      48.006
2015    7       30    14  25    5.6225   493.2    5.855      48.008
2015    7       30    14  31    5.6203   493.3    5.851      48.010
2015    7       30    14  37    5.6181   493.5    5.846      48.012
2015    7       30    14  43    5.6159   493.6    5.842      48.014
2015    7       30    14  49    5.6137   493.7    5.837      48.016
2015    7       30    14  55    5.6116   493.8    5.833      48.018
2015    7       30    15   1    5.6094   493.9    5.828      48.019
2015    7       30    15   7    5.6072   494.0    5.824      48.020
2015    7       30    15  13    5.6051   494.1    5.819      48.022
2015    7       30    15  19    5.6029   494.2    5.815      48.023
2015    7       30    15  25    5.6007   494.4    5.811      48.024
2015    7       30    15  31    5.5986   494.5    5.806      48.025
2015    7       30    15  36    5.5964   494.6    5.802      48.026
2015    7       30    15  42    5.5942   494.7    5.797      48.026
2015    7       30    15  48    5.5921   494.8    5.793      48.027
2015    7       30    15  54    5.5899   494.9    5.788      48.027
2015    7       30    16   0    5.5877   495.0    5.784      48.028
2015    7       30    16   6    5.5856   495.1    5.780      48.028
2015    7       30    16  12    5.5834   495.2    5.775      48.028
2015    7       30    16  18    5.5812   495.3    5.771      48.028
2015    7       30    16  24    5.5791   495.5    5.766      48.028
2015    7       30    16  30    5.5769   495.6    5.762      48.028
2015    7       30    16  36    5.5747   495.7    5.758      48.029
2015    7       30    16  42    5.5725   495.8    5.753      48.029
2015    7       30    16  48    5.5704   495.9    5.749      48.029
2015    7       30    16  54    5.5682   496.0    5.744      48.029
2015    7       30    16  59    5.5661   496.1    5.740      48.029
2015    7       30    17   5    5.5639   496.2    5.736      48.029
2015    7       30    17  11    5.5618   496.3    5.731      48.029
2015    7       30    17  17    5.5596   496.5    5.727      48.030
2015    7       30    17  23    5.5575   496.6    5.722      48.030
2015    7       30    17  29    5.5553   496.7    5.718      48.031
2015    7       30    17  35    5.5532   496.8    5.714      48.032
2015    7       30    17  41    5.5511   496.9    5.709      48.032
2015    7       30    17  47    5.5490   497.0    5.705      48.033
2015    7       30    17  53    5.5469   497.1    5.701      48.034
2015    7       30    17  59    5.5447   497.2    5.696      48.036
2015    7       30    18   5    5.5427   497.3    5.692      48.037
2015    7       30    18  11    5.5406   497.4    5.688      48.039
2015    7       30    18  17    5.5385   497.6    5.684      48.040
2015    7       30    18  22    5.5364   497.7    5.679      48.042
2015    7       30    18  28    5.5344   497.8    5.675      48.044
2015    7       30    18  34    5.5323   497.9    5.671      48.047
2015    7       30    18  40    5.5303   498.0    5.667      48.049
2015    7       30    18  46    5.5283   498.1    5.663      48.052
2015    7       30    18  52    5.5263   498.2    5.659      48.054
2015    7       30    18  58    5.5243   498.3    5.655      48.057
2015    7       30    19   4    5.5223   498.4    5.651      48.060
2015    7       30    19  10    5.5204   498.5    5.647      48.064
2015    7       30    19  16    5.5184   498.7    5.643      48.067
2015    7       30    19  22    5.5165   498.8    5.639      48.071
2015    7       30    19  28    5.5146   498.9    5.635      48.075
2015    7       30    19  34    5.5127   499.0    5.631      48.079
2015    7       30    19  40    5.5108   499.1    5.627      48.084
2015    7       30    19  45    5.5090   499.2    5.623      48.088
2015    7       30    19  51    5.5072   499.3    5.619      48.093
2015    7       30    19  57    5.5054   499.4    5.615      48.097
2015    7       30    20   3    5.5036   499.5    5.612      48.102
2015    7       30    20   9    5.5018   499.6    5.608      48.107
2015    7       30    20  15    5.5000   499.7    5.604      48.113
2015    7       30    20  21    5.4983   499.9    5.601      48.118
2015    7       30    20  27    5.4966   500.0    5.597      48.124
2015    7       30    20  33    5.4949   500.1    5.593      48.129
2015    7       30    20  39    5.4932   500.2    5.590      48.135
2015    7       30    20  45    5.4915   500.3    5.586      48.141
2015    7       30    20  51    5.4898   500.4    5.583      48.147
2015    7       30    20  57    5.4882   500.5    5.579      48.153
2015    7       30    21   2    5.4866   500.6    5.576      48.159
2015    7       30    21   8    5.4850   500.7    5.573      48.165
2015    7       30    21  14    5.4833   500.8    5.569      48.171
2015    7       30    21  20    5.4817   500.9    5.566      48.177
2015    7       30    21  26    5.4802   501.0    5.562      48.183
2015    7       30    21  32    5.4786   501.1    5.559      48.190
2015    7       30    21  38    5.4770   501.3    5.556      48.196
2015    7       30    21  44    5.4754   501.4    5.553      48.202
2015    7       30    21  50    5.4739   501.5    5.549      48.208
2015    7       30    21  56    5.4723   501.6    5.546      48.215
2015    7       30    22   2    5.4707   501.7    5.543      48.221
2015    7       30    22   8    5.4692   501.8    5.540      48.227
2015    7       30    22  14    5.4676   501.9    5.536      48.233
2015    7       30    22  19    5.4661   502.0    5.533      48.239
2015    7       30    22  25    5.4645   502.1    5.530      48.245
2015    7       30    22  31    5.4630   502.2    5.527      48.251
2015    7       30    22  37    5.4614   502.3    5.523      48.257
2015    7       30    22  43    5.4599   502.4    5.520      48.263
2015    7       30    22  49    5.4583   502.5    5.517      48.268
2015    7       30    22  55    5.4568   502.6    5.514      48.274
2015    7       30    23   1    5.4552   502.7    5.510      48.280
2015    7       30    23   7    5.4537   502.9    5.507      48.285
2015    7       30    23  13    5.4521   503.0    5.504      48.291
2015    7       30    23  19    5.4506   503.1    5.501      48.296
2015    7       30    23  25    5.4490   503.2    5.497      48.302
2015    7       30    23  31    5.4475   503.3    5.494      48.307
2015    7       30    23  37    5.4460   503.4    5.491      48.313
2015    7       30    23  42    5.4444   503.5    5.487      48.318
2015    7       30    23  48    5.4429   503.6    5.484      48.324
2015    7       30    23  54    5.4413   503.7    5.481      48.329
2015    7       31     0   0    5.4398   503.8    5.477      48.334
2015    7       31     0   6    5.4383   503.9    5.474      48.340
2015    7       31     0  12    5.4368   504.0    5.471      48.345
2015    7       31     0  18    5.4352   504.1    5.467      48.351
2015    7       31     0  24    5.4337   504.2    5.464      48.356
2015    7       31     0  30    5.4322   504.3    5.461      48.362
2015    7       31     0  36    5.4307   504.5    5.457      48.367
2015    7       31     0  42    5.4292   504.6    5.454      48.373
2015    7       31     0  48    5.4277   504.7    5.451      48.379
2015    7       31     0  54    5.4262   504.8    5.447      48.385
2015    7       31     1   0    5.4247   504.9    5.444      48.391
2015    7       31     1   5    5.4232   505.0    5.440      48.397
2015    7       31     1  11    5.4218   505.1    5.437      48.403
2015    7       31     1  17    5.4203   505.2    5.434      48.409
2015    7       31     1  23    5.4188   505.3    5.430      48.415
2015    7       31     1  29    5.4174   505.4    5.427      48.422
2015    7       31     1  35    5.4159   505.5    5.424      48.429
2015    7       31     1  41    5.4145   505.6    5.420      48.435
2015    7       31     1  47    5.4131   505.7    5.417      48.442
2015    7       31     1  53    5.4116   505.9    5.414      48.450
2015    7       31     1  59    5.4102   506.0    5.410      48.457
2015    7       31     2   5    5.4088   506.1    5.407      48.465
2015    7       31     2  11    5.4074   506.2    5.404      48.472
2015    7       31     2  17    5.4061   506.3    5.401      48.480
2015    7       31     2  23    5.4047   506.4    5.398      48.488
2015    7       31     2  28    5.4033   506.5    5.395      48.497
2015    7       31     2  34    5.4020   506.6    5.391      48.505
2015    7       31     2  40    5.4006   506.7    5.388      48.514
2015    7       31     2  46    5.3993   506.8    5.385      48.523
2015    7       31     2  52    5.3979   506.9    5.382      48.532
2015    7       31     2  58    5.3966   507.1    5.379      48.541
2015    7       31     3   4    5.3953   507.2    5.376      48.551
2015    7       31     3  10    5.3940   507.3    5.373      48.560
2015    7       31     3  16    5.3927   507.4    5.370      48.570
2015    7       31     3  22    5.3914   507.5    5.368      48.580
2015    7       31     3  28    5.3901   507.6    5.365      48.590
2015    7       31     3  34    5.3889   507.7    5.362      48.600
2015    7       31     3  40    5.3876   507.8    5.359      48.610
2015    7       31     3  46    5.3863   507.9    5.356      48.621
2015    7       31     3  51    5.3851   508.0    5.353      48.631
2015    7       31     3  57    5.3838   508.2    5.351      48.641
2015    7       31     4   3    5.3826   508.3    5.348      48.652
2015    7       31     4   9    5.3814   508.4    5.345      48.662
2015    7       31     4  15    5.3801   508.5    5.342      48.673
2015    7       31     4  21    5.3789   508.6    5.340      48.683
2015    7       31     4  27    5.3777   508.7    5.337      48.694
2015    7       31     4  33    5.3765   508.8    5.334      48.704
2015    7       31     4  39    5.3752   508.9    5.331      48.715
2015    7       31     4  45    5.3740   509.0    5.329      48.725
2015    7       31     4  51    5.3728   509.2    5.326      48.736
2015    7       31     4  57    5.3716   509.3    5.323      48.746
2015    7       31     5   2    5.3704   509.4    5.321      48.757
2015    7       31     5   8    5.3692   509.5    5.318      48.767
2015    7       31     5  14    5.3680   509.6    5.315      48.777
2015    7       31     5  20    5.3668   509.7    5.312      48.787
2015    7       31     5  26    5.3656   509.8    5.310      48.797
2015    7       31     5  32    5.3644   509.9    5.307      48.807
2015    7       31     5  38    5.3632   510.0    5.304      48.817
2015    7       31     5  44    5.3620   510.2    5.301      48.827
2015    7       31     5  50    5.3608   510.3    5.298      48.837
2015    7       31     5  56    5.3596   510.4    5.296      48.846
2015    7       31     6   2    5.3584   510.5    5.293      48.856
2015    7       31     6   8    5.3572   510.6    5.290      48.865
2015    7       31     6  14    5.3560   510.7    5.287      48.875
2015    7       31     6  20    5.3548   510.8    5.284      48.884
2015    7       31     6  25    5.3537   510.9    5.282      48.894
2015    7       31     6  31    5.3525   511.1    5.279      48.903
2015    7       31     6  37    5.3513   511.2    5.276      48.912
2015    7       31     6  43    5.3501   511.3    5.273      48.921
2015    7       31     6  49    5.3489   511.4    5.270      48.931
2015    7       31     6  55    5.3477   511.5    5.267      48.940
2015    7       31     7   1    5.3465   511.6    5.264      48.949
2015    7       31     7   7    5.3453   511.7    5.262      48.958
2015    7       31     7  13    5.3441   511.8    5.259      48.967
2015    7       31     7  19    5.3429   512.0    5.256      48.976
2015    7       31     7  25    5.3418   512.1    5.253      48.985
2015    7       31     7  31    5.3406   512.2    5.250      48.995
2015    7       31     7  37    5.3394   512.3    5.247      49.004
2015    7       31     7  43    5.3382   512.4    5.244      49.013
2015    7       31     7  48    5.3370   512.5    5.242      49.022
2015    7       31     7  54    5.3358   512.6    5.239      49.032
2015    7       31     8   0    5.3347   512.7    5.236      49.041
2015    7       31     8   6    5.3335   512.9    5.233      49.051
2015    7       31     8  12    5.3323   513.0    5.230      49.060
2015    7       31     8  18    5.3311   513.1    5.228      49.070
2015    7       31     8  24    5.3300   513.2    5.225      49.080
2015    7       31     8  30    5.3288   513.3    5.222      49.090
2015    7       31     8  36    5.3276   513.4    5.219      49.100
2015    7       31     8  42    5.3265   513.5    5.217      49.111
2015    7       31     8  48    5.3253   513.7    5.214      49.122
2015    7       31     8  54    5.3241   513.8    5.211      49.133
2015    7       31     9   0    5.3229   513.9    5.209      49.145
2015    7       31     9   6    5.3217   514.0    5.206      49.157
2015    7       31     9  11    5.3206   514.1    5.203      49.169
2015    7       31     9  17    5.3194   514.2    5.200      49.182
2015    7       31     9  23    5.3182   514.4    5.198      49.194
2015    7       31     9  29    5.3170   514.5    5.195      49.207
2015    7       31     9  35    5.3158   514.6    5.192      49.220
2015    7       31     9  41    5.3146   514.7    5.189      49.233
2015    7       31     9  47    5.3134   514.8    5.186      49.246
2015    7       31     9  53    5.3122   514.9    5.184      49.259
2015    7       31     9  59    5.3110   515.1    5.181      49.271
2015    7       31    10   5    5.3098   515.2    5.178      49.284
2015    7       31    10  11    5.3086   515.3    5.175      49.296
2015    7       31    10  17    5.3074   515.4    5.172      49.309
2015    7       31    10  23    5.3062   515.5    5.169      49.321
2015    7       31    10  29    5.3050   515.6    5.166      49.333
2015    7       31    10  34    5.3038   515.8    5.163      49.345
2015    7       31    10  40    5.3026   515.9    5.160      49.357
2015    7       31    10  46    5.3015   516.0    5.157      49.368
2015    7       31    10  52    5.3003   516.1    5.154      49.380
2015    7       31    10  58    5.2991   516.2    5.151      49.391
2015    7       31    11   4    5.2979   516.3    5.149      49.403
2015    7       31    11  10    5.2968   516.5    5.146      49.414
2015    7       31    11  16    5.2956   516.6    5.143      49.425
2015    7       31    11  22    5.2944   516.7    5.140      49.436
2015    7       31    11  28    5.2933   516.8    5.137      49.447
2015    7       31    11  34    5.2921   516.9    5.134      49.457
2015    7       31    11  40    5.2910   517.0    5.131      49.468
2015    7       31    11  46    5.2899   517.2    5.128      49.478
2015    7       31    11  51    5.2888   517.3    5.125      49.489
2015    7       31    11  57    5.2876   517.4    5.122      49.499
2015    7       31    12   3    5.2865   517.5    5.119      49.510
2015    7       31    12   9    5.2854   517.6    5.116      49.520
2015    7       31    12  15    5.2843   517.7    5.113      49.530
2015    7       31    12  21    5.2832   517.9    5.110      49.540
2015    7       31    12  27    5.2821   518.0    5.107      49.550
2015    7       31    12  33    5.2810   518.1    5.104      49.560
2015    7       31    12  39    5.2800   518.2    5.101      49.570
2015    7       31    12  45    5.2789   518.3    5.098      49.580
2015    7       31    12  51    5.2778   518.5    5.095      49.590
2015    7       31    12  57    5.2767   518.6    5.092      49.599
2015    7       31    13   3    5.2756   518.7    5.090      49.609
2015    7       31    13   8    5.2745   518.8    5.087      49.619
2015    7       31    13  14    5.2734   518.9    5.084      49.628
2015    7       31    13  20    5.2724   519.1    5.081      49.638
2015    7       31    13  26    5.2713   519.2    5.078      49.647
2015    7       31    13  32    5.2702   519.3    5.075      49.656
2015    7       31    13  38    5.2691   519.4    5.073      49.666
2015    7       31    13  44    5.2679   519.5    5.070      49.675
2015    7       31    13  50    5.2668   519.7    5.067      49.684
2015    7       31    13  56    5.2657   519.8    5.065      49.694
2015    7       31    14   2    5.2646   519.9    5.062      49.703
2015    7       31    14   8    5.2635   520.0    5.060      49.712
2015    7       31    14  14    5.2623   520.1    5.057      49.722
2015    7       31    14  20    5.2612   520.2    5.055      49.731
2015    7       31    14  26    5.2601   520.4    5.052      49.741
2015    7       31    14  31    5.2590   520.5    5.050      49.751
2015    7       31    14  37    5.2579   520.6    5.048      49.761
2015    7       31    14  43    5.2567   520.7    5.045      49.772
2015    7       31    14  49    5.2556   520.8    5.043      49.783
2015    7       31    14  55    5.2545   520.9    5.041      49.794
2015    7       31    15   1    5.2534   521.1    5.039      49.806
2015    7       31    15   7    5.2523   521.2    5.037      49.819
2015    7       31    15  13    5.2511   521.3    5.036      49.833
2015    7       31    15  19    5.2500   521.4    5.034      49.848
2015    7       31    15  25    5.2489   521.5    5.032      49.863
2015    7       31    15  31    5.2477   521.7    5.030      49.880
2015    7       31    15  37    5.2466   521.8    5.028      49.897
2015    7       31    15  43    5.2454   521.9    5.026      49.914
2015    7       31    15  49    5.2443   522.0    5.024      49.931
2015    7       31    15  55    5.2431   522.2    5.022      49.950
2015    7       31    16   0    5.2419   522.3    5.020      49.968
2015    7       31    16   6    5.2406   522.4    5.018      49.987
2015    7       31    16  12    5.2394   522.5    5.016      50.006
2015    7       31    16  18    5.2382   522.7    5.013      50.024
2015    7       31    16  24    5.2369   522.8    5.011      50.042
2015    7       31    16  30    5.2357   522.9    5.008      50.059
2015    7       31    16  36    5.2344   523.0    5.005      50.076
2015    7       31    16  42    5.2331   523.2    5.002      50.093
2015    7       31    16  48    5.2318   523.3    4.999      50.108
2015    7       31    16  54    5.2305   523.4    4.996      50.124
2015    7       31    17   0    5.2292   523.5    4.993      50.139
2015    7       31    17   6    5.2279   523.7    4.990      50.153
2015    7       31    17  12    5.2266   523.8    4.986      50.166
2015    7       31    17  18    5.2253   523.9    4.983      50.179
2015    7       31    17  23    5.2241   524.1    4.979      50.191
2015    7       31    17  29    5.2228   524.2    4.976      50.202
2015    7       31    17  35    5.2215   524.3    4.972      50.214
2015    7       31    17  41    5.2202   524.4    4.969      50.224
2015    7       31    17  47    5.2189   524.6    4.965      50.234
2015    7       31    17  53    5.2176   524.7    4.961      50.243
2015    7       31    17  59    5.2164   524.8    4.957      50.252
2015    7       31    18   5    5.2151   524.9    4.954      50.261
2015    7       31    18  11    5.2138   525.1    4.950      50.269
2015    7       31    18  17    5.2125   525.2    4.946      50.277
2015    7       31    18  23    5.2112   525.3    4.942      50.284
2015    7       31    18  29    5.2100   525.4    4.938      50.291
2015    7       31    18  35    5.2087   525.6    4.934      50.297
2015    7       31    18  40    5.2074   525.7    4.930      50.304
2015    7       31    18  46    5.2061   525.8    4.926      50.309
2015    7       31    18  52    5.2048   525.9    4.922      50.315
2015    7       31    18  58    5.2035   526.1    4.918      50.321
2015    7       31    19   4    5.2022   526.2    4.914      50.326
2015    7       31    19  10    5.2009   526.3    4.910      50.331
2015    7       31    19  16    5.1996   526.4    4.906      50.335
2015    7       31    19  22    5.1983   526.5    4.903      50.340
2015    7       31    19  28    5.1970   526.7    4.899      50.344
2015    7       31    19  34    5.1957   526.8    4.895      50.348
2015    7       31    19  40    5.1944   526.9    4.891      50.352
2015    7       31    19  46    5.1931   527.0    4.887      50.355
2015    7       31    19  51    5.1917   527.2    4.883      50.359
2015    7       31    19  57    5.1904   527.3    4.880      50.362
2015    7       31    20   3    5.1891   527.4    4.876      50.365
2015    7       31    20   9    5.1877   527.5    4.872      50.368
2015    7       31    20  15    5.1864   527.6    4.869      50.371
2015    7       31    20  21    5.1850   527.8    4.866      50.374
2015    7       31    20  27    5.1837   527.9    4.862      50.377
2015    7       31    20  33    5.1823   528.0    4.859      50.380
2015    7       31    20  39    5.1810   528.1    4.856      50.383
2015    7       31    20  45    5.1796   528.2    4.853      50.387
2015    7       31    20  51    5.1783   528.3    4.850      50.391
2015    7       31    20  57    5.1769   528.5    4.848      50.395
2015    7       31    21   3    5.1755   528.6    4.845      50.400
2015    7       31    21   9    5.1742   528.7    4.843      50.406
2015    7       31    21  14    5.1729   528.8    4.841      50.412
2015    7       31    21  20    5.1715   528.9    4.839      50.418
2015    7       31    21  26    5.1702   529.0    4.837      50.426
2015    7       31    21  32    5.1689   529.2    4.835      50.434
2015    7       31    21  38    5.1676   529.3    4.834      50.445
2015    7       31    21  44    5.1662   529.4    4.833      50.457
2015    7       31    21  50    5.1649   529.5    4.831      50.470
2015    7       31    21  56    5.1636   529.6    4.830      50.485
2015    7       31    22   2    5.1623   529.7    4.829      50.501
2015    7       31    22   8    5.1609   529.9    4.828      50.517
2015    7       31    22  14    5.1596   530.0    4.827      50.535
2015    7       31    22  20    5.1582   530.1    4.826      50.555
2015    7       31    22  26    5.1568   530.2    4.824      50.575
2015    7       31    22  32    5.1554   530.3    4.823      50.597
2015    7       31    22  38    5.1540   530.5    4.822      50.620
2015    7       31    22  43    5.1525   530.6    4.820      50.643
2015    7       31    22  49    5.1511   530.7    4.818      50.665
2015    7       31    22  55    5.1496   530.8    4.817      50.687
2015    7       31    23   1    5.1481   531.0    4.815      50.709
2015    7       31    23   7    5.1466   531.1    4.812      50.730
2015    7       31    23  13    5.1450   531.2    4.810      50.751
2015    7       31    23  19    5.1435   531.3    4.808      50.771
2015    7       31    23  25    5.1419   531.5    4.805      50.790
2015    7       31    23  31    5.1404   531.6    4.802      50.808
2015    7       31    23  37    5.1388   531.7    4.799      50.825
2015    7       31    23  43    5.1372   531.8    4.796      50.840
2015    7       31    23  49    5.1357   532.0    4.793      50.854
2015    7       31    23  55    5.1341   532.1    4.789      50.867
2015    8        1     0   1    5.1326   532.2    4.786      50.880
2015    8        1     0   6    5.1313   532.3    4.782      50.893
2015    8        1     0  12    5.1300   532.5    4.779      50.906
2015    8        1     0  18    5.1287   532.6    4.775      50.917
2015    8        1     0  24    5.1274   532.7    4.771      50.927
2015    8        1     0  30    5.1261   532.9    4.767      50.937
2015    8        1     0  36    5.1249   533.0    4.763      50.945
2015    8        1     0  42    5.1235   533.1    4.759      50.953
2015    8        1     0  48    5.1223   533.2    4.755      50.960
2015    8        1     0  54    5.1209   533.4    4.751      50.966
2015    8        1     1   0    5.1196   533.5    4.747      50.971
2015    8        1     1   6    5.1183   533.6    4.743      50.976
2015    8        1     1  12    5.1169   533.8    4.738      50.980
2015    8        1     1  18    5.1156   533.9    4.734      50.983
2015    8        1     1  23    5.1142   534.0    4.730      50.986
2015    8        1     1  29    5.1128   534.1    4.725      50.988
2015    8        1     1  35    5.1114   534.3    4.721      50.989
2015    8        1     1  41    5.1100   534.4    4.716      50.990
2015    8        1     1  47    5.1086   534.5    4.712      50.991
2015    8        1     1  53    5.1071   534.6    4.707      50.991
2015    8        1     1  59    5.1056   534.8    4.703      50.991
2015    8        1     2   5    5.1041   534.9    4.699      50.990
2015    8        1     2  11    5.1026   535.0    4.694      50.989
2015    8        1     2  17    5.1011   535.1    4.690      50.988
2015    8        1     2  23    5.0996   535.2    4.685      50.986
2015    8        1     2  29    5.0980   535.4    4.681      50.983
2015    8        1     2  35    5.0965   535.5    4.677      50.981
2015    8        1     2  40    5.0949   535.6    4.672      50.978
2015    8        1     2  46    5.0933   535.7    4.668      50.975
2015    8        1     2  52    5.0917   535.8    4.664      50.972
2015    8        1     2  58    5.0902   535.9    4.660      50.968
2015    8        1     3   4    5.0885   536.0    4.656      50.965
2015    8        1     3  10    5.0869   536.2    4.653      50.962
2015    8        1     3  16    5.0853   536.3    4.649      50.959
2015    8        1     3  22    5.0837   536.4    4.646      50.956
2015    8        1     3  28    5.0821   536.5    4.643      50.954
2015    8        1     3  34    5.0805   536.6    4.640      50.953
2015    8        1     3  40    5.0789   536.7    4.637      50.952
2015    8        1     3  46    5.0774   536.8    4.635      50.952
2015    8        1     3  52    5.0758   536.9    4.632      50.953
2015    8        1     3  57    5.0743   537.0    4.630      50.956
2015    8        1     4   3    5.0728   537.1    4.629      50.959
2015    8        1     4   9    5.0713   537.2    4.627      50.963
2015    8        1     4  15    5.0698   537.3    4.626      50.969
2015    8        1     4  21    5.0683   537.4    4.625      50.978
2015    8        1     4  27    5.0669   537.5    4.625      50.989
2015    8        1     4  33    5.0655   537.6    4.624      51.002
2015    8        1     4  39    5.0640   537.8    4.624      51.016
2015    8        1     4  45    5.0626   537.9    4.623      51.033
2015    8        1     4  51    5.0611   538.0    4.623      51.053
2015    8        1     4  57    5.0596   538.1    4.623      51.074
2015    8        1     5   3    5.0580   538.2    4.622      51.097
2015    8        1     5   9    5.0565   538.3    4.621      51.120
2015    8        1     5  15    5.0549   538.4    4.620      51.145
2015    8        1     5  21    5.0533   538.5    4.619      51.169
2015    8        1     5  26    5.0517   538.6    4.618      51.192
2015    8        1     5  32    5.0501   538.8    4.616      51.214
2015    8        1     5  38    5.0484   538.9    4.614      51.234
2015    8        1     5  44    5.0467   539.0    4.612      51.253
2015    8        1     5  50    5.0450   539.1    4.610      51.271
2015    8        1     5  56    5.0433   539.2    4.608      51.287
2015    8        1     6   2    5.0416   539.3    4.605      51.302
2015    8        1     6   8    5.0399   539.4    4.602      51.316
2015    8        1     6  14    5.0382   539.5    4.600      51.328
2015    8        1     6  20    5.0365   539.6    4.597      51.339
2015    8        1     6  26    5.0348   539.7    4.593      51.348
2015    8        1     6  32    5.0331   539.8    4.590      51.357
2015    8        1     6  38    5.0314   539.9    4.587      51.364
2015    8        1     6  44    5.0297   540.0    4.583      51.370
2015    8        1     6  49    5.0280   540.2    4.580      51.375
2015    8        1     6  55    5.0264   540.3    4.576      51.379
2015    8        1     7   1    5.0248   540.4    4.573      51.382
2015    8        1     7   7    5.0231   540.5    4.569      51.385
2015    8        1     7  13    5.0215   540.6    4.565      51.386
2015    8        1     7  19    5.0199   540.7    4.561      51.387
2015    8        1     7  25    5.0183   540.8    4.557      51.387
2015    8        1     7  31    5.0166   540.9    4.553      51.386
2015    8        1     7  37    5.0149   541.0    4.549      51.384
2015    8        1     7  43    5.0133   541.1    4.545      51.382
2015    8        1     7  49    5.0115   541.2    4.541      51.379
2015    8        1     7  55    5.0098   541.3    4.536      51.375
2015    8        1     8   1    5.0081   541.4    4.532      51.371
2015    8        1     8   7    5.0063   541.5    4.528      51.367
2015    8        1     8  12    5.0045   541.6    4.524      51.361
2015    8        1     8  18    5.0027   541.7    4.519      51.355
2015    8        1     8  24    5.0009   541.8    4.515      51.349
2015    8        1     8  30    4.9991   541.9    4.511      51.343
2015    8        1     8  36    4.9972   542.0    4.506      51.336
2015    8        1     8  42    4.9954   542.1    4.502      51.328
2015    8        1     8  48    4.9935   542.2    4.498      51.320
2015    8        1     8  54    4.9916   542.2    4.493      51.312
2015    8        1     9   0    4.9897   542.3    4.489      51.304
2015    8        1     9   6    4.9877   542.4    4.485      51.295
2015    8        1     9  12    4.9858   542.5    4.480      51.286
2015    8        1     9  18    4.9838   542.6    4.476      51.276
2015    8        1     9  24    4.9819   542.7    4.472      51.267
2015    8        1     9  29    4.9799   542.8    4.468      51.257
2015    8        1     9  35    4.9779   542.9    4.464      51.248
2015    8        1     9  41    4.9760   542.9    4.461      51.238
2015    8        1     9  47    4.9740   543.0    4.457      51.229
2015    8        1     9  53    4.9720   543.1    4.453      51.220
2015    8        1     9  59    4.9701   543.2    4.450      51.211
2015    8        1    10   5    4.9681   543.3    4.447      51.203
2015    8        1    10  11    4.9662   543.3    4.444      51.196
2015    8        1    10  17    4.9643   543.4    4.441      51.189
2015    8        1    10  23    4.9624   543.5    4.439      51.183
2015    8        1    10  29    4.9606   543.6    4.437      51.178
2015    8        1    10  35    4.9587   543.7    4.435      51.175
2015    8        1    10  41    4.9569   543.7    4.433      51.172
2015    8        1    10  46    4.9551   543.8    4.431      51.171
2015    8        1    10  52    4.9533   543.9    4.430      51.170
2015    8        1    10  58    4.9516   544.0    4.429      51.172
2015    8        1    11   4    4.9498   544.0    4.428      51.174
2015    8        1    11  10    4.9481   544.1    4.427      51.179
2015    8        1    11  16    4.9463   544.2    4.427      51.184
2015    8        1    11  22    4.9446   544.3    4.426      51.190
2015    8        1    11  28    4.9428   544.4    4.426      51.198
2015    8        1    11  34    4.9410   544.4    4.426      51.209
2015    8        1    11  40    4.9393   544.5    4.425      51.221
2015    8        1    11  46    4.9374   544.6    4.425      51.235
2015    8        1    11  52    4.9356   544.7    4.424      51.250
2015    8        1    11  58    4.9337   544.8    4.423      51.267
2015    8        1    12   4    4.9318   544.8    4.422      51.283
2015    8        1    12   9    4.9299   544.9    4.421      51.297
2015    8        1    12  15    4.9280   545.0    4.419      51.310
2015    8        1    12  21    4.9261   545.1    4.418      51.321
2015    8        1    12  27    4.9242   545.1    4.416      51.331
2015    8        1    12  33    4.9222   545.2    4.414      51.340
2015    8        1    12  39    4.9203   545.3    4.412      51.347
2015    8        1    12  45    4.9184   545.4    4.409      51.353
2015    8        1    12  51    4.9164   545.4    4.407      51.358
2015    8        1    12  57    4.9145   545.5    4.404      51.361
2015    8        1    13   3    4.9125   545.6    4.402      51.364
2015    8        1    13   9    4.9106   545.7    4.399      51.365
2015    8        1    13  15    4.9087   545.7    4.396      51.365
2015    8        1    13  21    4.9067   545.8    4.393      51.364
2015    8        1    13  27    4.9048   545.9    4.390      51.363
2015    8        1    13  32    4.9029   545.9    4.387      51.360
2015    8        1    13  38    4.9010   546.0    4.384      51.357
2015    8        1    13  44    4.8992   546.1    4.381      51.352
2015    8        1    13  50    4.8973   546.1    4.377      51.347
2015    8        1    13  56    4.8954   546.2    4.374      51.342
2015    8        1    14   2    4.8935   546.3    4.370      51.336
2015    8        1    14   8    4.8916   546.3    4.367      51.329
2015    8        1    14  14    4.8898   546.4    4.364      51.321
2015    8        1    14  20    4.8879   546.4    4.360      51.313
2015    8        1    14  26    4.8860   546.5    4.356      51.305
2015    8        1    14  32    4.8841   546.6    4.353      51.296
2015    8        1    14  38    4.8822   546.6    4.349      51.286
2015    8        1    14  44    4.8803   546.7    4.345      51.276
2015    8        1    14  50    4.8783   546.7    4.342      51.266
2015    8        1    14  55    4.8764   546.8    4.338      51.255
2015    8        1    15   1    4.8745   546.9    4.334      51.244
2015    8        1    15   7    4.8725   546.9    4.331      51.232
2015    8        1    15  13    4.8705   547.0    4.327      51.220
2015    8        1    15  19    4.8686   547.0    4.323      51.207
2015    8        1    15  25    4.8666   547.1    4.319      51.194
2015    8        1    15  31    4.8646   547.1    4.316      51.181
2015    8        1    15  37    4.8626   547.2    4.312      51.168
2015    8        1    15  43    4.8606   547.2    4.308      51.154
2015    8        1    15  49    4.8586   547.3    4.304      51.140
2015    8        1    15  55    4.8566   547.3    4.301      51.125
2015    8        1    16   1    4.8546   547.4    4.297      51.111
2015    8        1    16   7    4.8526   547.4    4.293      51.096
2015    8        1    16  12    4.8506   547.5    4.290      51.081
2015    8        1    16  18    4.8486   547.5    4.287      51.066
2015    8        1    16  24    4.8466   547.6    4.283      51.051
2015    8        1    16  30    4.8446   547.6    4.280      51.036
2015    8        1    16  36    4.8426   547.6    4.277      51.021
2015    8        1    16  42    4.8407   547.7    4.274      51.007
2015    8        1    16  48    4.8387   547.7    4.271      50.993
2015    8        1    16  54    4.8368   547.7    4.269      50.980
2015    8        1    17   0    4.8349   547.8    4.266      50.967
2015    8        1    17   6    4.8331   547.8    4.264      50.954
2015    8        1    17  12    4.8313   547.9    4.262      50.943
2015    8        1    17  18    4.8294   547.9    4.260      50.932
2015    8        1    17  24    4.8277   547.9    4.258      50.922
2015    8        1    17  29    4.8259   548.0    4.257      50.912
2015    8        1    17  35    4.8242   548.0    4.255      50.904
2015    8        1    17  41    4.8225   548.1    4.254      50.896
2015    8        1    17  47    4.8207   548.1    4.253      50.889
2015    8        1    17  53    4.8190   548.1    4.253      50.882
2015    8        1    17  59    4.8173   548.2    4.252      50.876
2015    8        1    18   5    4.8155   548.2    4.252      50.871
2015    8        1    18  11    4.8138   548.3    4.252      50.867
2015    8        1    18  17    4.8120   548.3    4.251      50.864
2015    8        1    18  23    4.8102   548.4    4.251      50.863
2015    8        1    18  29    4.8084   548.4    4.251      50.863
2015    8        1    18  35    4.8065   548.4    4.251      50.864
2015    8        1    18  41    4.8046   548.5    4.250      50.867
2015    8        1    18  47    4.8027   548.5    4.250      50.870
2015    8        1    18  52    4.8008   548.5    4.249      50.873
2015    8        1    18  58    4.7989   548.6    4.248      50.878
2015    8        1    19   4    4.7970   548.6    4.248      50.882
2015    8        1    19  10    4.7951   548.6    4.247      50.886
2015    8        1    19  16    4.7931   548.7    4.245      50.890
2015    8        1    19  22    4.7912   548.7    4.244      50.893
2015    8        1    19  28    4.7892   548.7    4.243      50.895
2015    8        1    19  34    4.7873   548.8    4.241      50.897
2015    8        1    19  40    4.7853   548.8    4.240      50.897
2015    8        1    19  46    4.7833   548.8    4.238      50.896
2015    8        1    19  52    4.7814   548.9    4.236      50.895
2015    8        1    19  58    4.7794   548.9    4.234      50.892
2015    8        1    20   4    4.7775   548.9    4.232      50.889
2015    8        1    20  10    4.7756   548.9    4.230      50.885
2015    8        1    20  15    4.7736   549.0    4.227      50.880
2015    8        1    20  21    4.7717   549.0    4.225      50.874
2015    8        1    20  27    4.7698   549.0    4.222      50.868
2015    8        1    20  33    4.7679   549.0    4.220      50.861
2015    8        1    20  39    4.7660   549.1    4.217      50.852
2015    8        1    20  45    4.7642   549.1    4.215      50.844
2015    8        1    20  51    4.7623   549.1    4.212      50.834
2015    8        1    20  57    4.7604   549.1    4.209      50.824
2015    8        1    21   3    4.7586   549.2    4.206      50.814
2015    8        1    21   9    4.7567   549.2    4.203      50.803
2015    8        1    21  15    4.7549   549.2    4.200      50.791
2015    8        1    21  21    4.7531   549.2    4.197      50.779
2015    8        1    21  27    4.7512   549.3    4.194      50.766
2015    8        1    21  33    4.7494   549.3    4.191      50.753
2015    8        1    21  38    4.7476   549.3    4.188      50.739
2015    8        1    21  44    4.7458   549.3    4.185      50.725
2015    8        1    21  50    4.7440   549.3    4.182      50.711
2015    8        1    21  56    4.7422   549.3    4.179      50.696
2015    8        1    22   2    4.7404   549.4    4.176      50.680
2015    8        1    22   8    4.7386   549.4    4.173      50.665
2015    8        1    22  14    4.7368   549.4    4.170      50.648
2015    8        1    22  20    4.7350   549.4    4.166      50.632
2015    8        1    22  26    4.7332   549.4    4.163      50.615
2015    8        1    22  32    4.7315   549.4    4.160      50.597
2015    8        1    22  38    4.7297   549.4    4.157      50.579
2015    8        1    22  44    4.7279   549.5    4.154      50.561
2015    8        1    22  50    4.7261   549.5    4.151      50.542
2015    8        1    22  56    4.7244   549.5    4.148      50.523
2015    8        1    23   1    4.7226   549.5    4.145      50.504
2015    8        1    23   7    4.7209   549.5    4.142      50.484
2015    8        1    23  13    4.7192   549.5    4.139      50.465
2015    8        1    23  19    4.7175   549.5    4.137      50.445
2015    8        1    23  25    4.7158   549.5    4.134      50.426
2015    8        1    23  31    4.7141   549.5    4.132      50.406
2015    8        1    23  37    4.7125   549.5    4.129      50.387
2015    8        1    23  43    4.7109   549.5    4.127      50.368
2015    8        1    23  49    4.7093   549.5    4.125      50.350
2015    8        1    23  55    4.7078   549.5    4.124      50.333
2015    8        2     0   1    4.7063   549.5    4.122      50.315
