year    month   day   hour  minute  B_enl V_enl   n_enl       T_enl
[year] [month] [day] [hour][minute] [nT]  [km/s]  [cm-3]      [kK]
2015    7       18     0   5    5.0022   346.6   10.717      32.908
2015    7       18     0  11    5.0040   346.6   10.719      32.913
2015    7       18     0  17    5.0058   346.6   10.720      32.919
2015    7       18     0  23    5.0077   346.6   10.721      32.924
2015    7       18     0  30    5.0096   346.7   10.722      32.930
2015    7       18     0  36    5.0115   346.7   10.724      32.935
2015    7       18     0  42    5.0135   346.7   10.726      32.941
2015    7       18     0  48    5.0155   346.7   10.727      32.946
2015    7       18     0  54    5.0175   346.7   10.729      32.952
2015    7       18     1   0    5.0196   346.7   10.731      32.958
2015    7       18     1   7    5.0218   346.8   10.733      32.964
2015    7       18     1  13    5.0240   346.8   10.735      32.969
2015    7       18     1  19    5.0262   346.8   10.738      32.975
2015    7       18     1  25    5.0285   346.8   10.740      32.981
2015    7       18     1  31    5.0309   346.8   10.743      32.988
2015    7       18     1  37    5.0333   346.9   10.746      32.994
2015    7       18     1  44    5.0358   346.9   10.749      33.001
2015    7       18     1  50    5.0383   346.9   10.752      33.007
2015    7       18     1  56    5.0409   346.9   10.755      33.014
2015    7       18     2   2    5.0436   346.9   10.759      33.021
2015    7       18     2   8    5.0463   346.9   10.763      33.028
2015    7       18     2  14    5.0491   347.0   10.767      33.036
2015    7       18     2  21    5.0520   347.0   10.771      33.044
2015    7       18     2  27    5.0550   347.0   10.776      33.052
2015    7       18     2  33    5.0580   347.0   10.780      33.060
2015    7       18     2  39    5.0611   347.0   10.785      33.068
2015    7       18     2  45    5.0643   347.1   10.790      33.077
2015    7       18     2  51    5.0675   347.1   10.796      33.086
2015    7       18     2  58    5.0708   347.1   10.801      33.096
2015    7       18     3   4    5.0742   347.1   10.807      33.105
2015    7       18     3  10    5.0775   347.2   10.813      33.116
2015    7       18     3  16    5.0809   347.2   10.819      33.126
2015    7       18     3  22    5.0843   347.2   10.826      33.137
2015    7       18     3  28    5.0878   347.2   10.832      33.148
2015    7       18     3  35    5.0913   347.2   10.839      33.160
2015    7       18     3  41    5.0947   347.3   10.846      33.172
2015    7       18     3  47    5.0982   347.3   10.853      33.185
2015    7       18     3  53    5.1017   347.3   10.860      33.198
2015    7       18     3  59    5.1052   347.4   10.867      33.212
2015    7       18     4   5    5.1087   347.4   10.874      33.226
2015    7       18     4  11    5.1121   347.4   10.882      33.240
2015    7       18     4  18    5.1156   347.4   10.889      33.256
2015    7       18     4  24    5.1190   347.5   10.897      33.271
2015    7       18     4  30    5.1224   347.5   10.904      33.288
2015    7       18     4  36    5.1258   347.5   10.911      33.304
2015    7       18     4  42    5.1291   347.6   10.918      33.321
2015    7       18     4  48    5.1325   347.6   10.925      33.338
2015    7       18     4  55    5.1358   347.6   10.932      33.355
2015    7       18     5   1    5.1391   347.7   10.939      33.372
2015    7       18     5   7    5.1424   347.7   10.946      33.390
2015    7       18     5  13    5.1457   347.7   10.953      33.407
2015    7       18     5  19    5.1490   347.8   10.959      33.425
2015    7       18     5  25    5.1523   347.8   10.966      33.443
2015    7       18     5  32    5.1555   347.8   10.972      33.460
2015    7       18     5  38    5.1588   347.9   10.978      33.478
2015    7       18     5  44    5.1621   347.9   10.985      33.495
2015    7       18     5  50    5.1654   347.9   10.991      33.512
2015    7       18     5  56    5.1687   348.0   10.997      33.529
2015    7       18     6   2    5.1720   348.0   11.002      33.546
2015    7       18     6   9    5.1753   348.0   11.008      33.563
2015    7       18     6  15    5.1787   348.0   11.014      33.579
2015    7       18     6  21    5.1820   348.1   11.020      33.595
2015    7       18     6  27    5.1854   348.1   11.026      33.611
2015    7       18     6  33    5.1888   348.1   11.031      33.627
2015    7       18     6  39    5.1922   348.2   11.037      33.643
2015    7       18     6  46    5.1957   348.2   11.043      33.659
2015    7       18     6  52    5.1992   348.2   11.048      33.674
2015    7       18     6  58    5.2027   348.3   11.054      33.690
2015    7       18     7   4    5.2063   348.3   11.060      33.705
2015    7       18     7  10    5.2099   348.3   11.066      33.720
2015    7       18     7  16    5.2135   348.3   11.072      33.735
2015    7       18     7  23    5.2173   348.4   11.077      33.750
2015    7       18     7  29    5.2211   348.4   11.084      33.765
2015    7       18     7  35    5.2249   348.4   11.090      33.780
2015    7       18     7  41    5.2288   348.5   11.096      33.795
2015    7       18     7  47    5.2328   348.5   11.103      33.810
2015    7       18     7  53    5.2369   348.5   11.109      33.825
2015    7       18     8   0    5.2411   348.5   11.116      33.840
2015    7       18     8   6    5.2454   348.6   11.124      33.855
2015    7       18     8  12    5.2497   348.6   11.131      33.871
2015    7       18     8  18    5.2542   348.6   11.139      33.886
2015    7       18     8  24    5.2588   348.7   11.147      33.902
2015    7       18     8  30    5.2635   348.7   11.155      33.918
2015    7       18     8  37    5.2683   348.7   11.164      33.935
2015    7       18     8  43    5.2733   348.7   11.174      33.952
2015    7       18     8  49    5.2785   348.8   11.183      33.969
2015    7       18     8  55    5.2837   348.8   11.194      33.987
2015    7       18     9   1    5.2892   348.8   11.205      34.005
2015    7       18     9   7    5.2948   348.9   11.216      34.024
2015    7       18     9  14    5.3006   348.9   11.229      34.043
2015    7       18     9  20    5.3067   348.9   11.241      34.064
2015    7       18     9  26    5.3128   349.0   11.255      34.086
2015    7       18     9  32    5.3191   349.0   11.269      34.110
2015    7       18     9  38    5.3256   349.0   11.283      34.135
2015    7       18     9  44    5.3323   349.1   11.298      34.162
2015    7       18     9  51    5.3390   349.1   11.314      34.190
2015    7       18     9  57    5.3459   349.2   11.329      34.219
2015    7       18    10   3    5.3529   349.2   11.345      34.250
2015    7       18    10   9    5.3600   349.3   11.362      34.282
2015    7       18    10  15    5.3671   349.4   11.378      34.315
2015    7       18    10  21    5.3744   349.4   11.395      34.349
2015    7       18    10  28    5.3816   349.5   11.412      34.384
2015    7       18    10  34    5.3889   349.5   11.429      34.419
2015    7       18    10  40    5.3962   349.6   11.445      34.456
2015    7       18    10  46    5.4035   349.7   11.462      34.494
2015    7       18    10  52    5.4106   349.7   11.478      34.532
2015    7       18    10  58    5.4178   349.8   11.494      34.572
2015    7       18    11   5    5.4248   349.9   11.510      34.610
2015    7       18    11  11    5.4319   350.0   11.526      34.649
2015    7       18    11  17    5.4388   350.0   11.541      34.688
2015    7       18    11  23    5.4457   350.1   11.556      34.727
2015    7       18    11  29    5.4524   350.2   11.571      34.766
2015    7       18    11  35    5.4592   350.3   11.585      34.804
2015    7       18    11  42    5.4657   350.4   11.598      34.843
2015    7       18    11  48    5.4722   350.4   11.612      34.881
2015    7       18    11  54    5.4786   350.5   11.625      34.919
2015    7       18    12   0    5.4850   350.6   11.637      34.957
2015    7       18    12   6    5.4912   350.7   11.649      34.995
2015    7       18    12  12    5.4974   350.7   11.661      35.033
2015    7       18    12  18    5.5035   350.8   11.673      35.069
2015    7       18    12  25    5.5096   350.9   11.684      35.106
2015    7       18    12  31    5.5156   351.0   11.694      35.142
2015    7       18    12  37    5.5216   351.1   11.705      35.178
2015    7       18    12  43    5.5275   351.1   11.715      35.214
2015    7       18    12  49    5.5335   351.2   11.725      35.249
2015    7       18    12  55    5.5393   351.3   11.734      35.284
2015    7       18    13   2    5.5452   351.4   11.744      35.318
2015    7       18    13   8    5.5510   351.4   11.753      35.352
2015    7       18    13  14    5.5569   351.5   11.762      35.385
2015    7       18    13  20    5.5627   351.6   11.771      35.418
2015    7       18    13  26    5.5685   351.7   11.779      35.451
2015    7       18    13  32    5.5744   351.7   11.788      35.483
2015    7       18    13  39    5.5802   351.8   11.796      35.516
2015    7       18    13  45    5.5861   351.9   11.805      35.548
2015    7       18    13  51    5.5920   351.9   11.813      35.579
2015    7       18    13  57    5.5979   352.0   11.822      35.611
2015    7       18    14   3    5.6038   352.1   11.830      35.642
2015    7       18    14   9    5.6097   352.2   11.838      35.673
2015    7       18    14  16    5.6157   352.2   11.847      35.705
2015    7       18    14  22    5.6217   352.3   11.855      35.736
2015    7       18    14  28    5.6278   352.4   11.863      35.767
2015    7       18    14  34    5.6339   352.4   11.872      35.798
2015    7       18    14  40    5.6401   352.5   11.881      35.829
2015    7       18    14  46    5.6463   352.6   11.889      35.860
2015    7       18    14  53    5.6525   352.7   11.898      35.892
2015    7       18    14  59    5.6589   352.7   11.907      35.923
2015    7       18    15   5    5.6653   352.8   11.917      35.955
2015    7       18    15  11    5.6718   352.9   11.926      35.987
2015    7       18    15  17    5.6783   353.0   11.936      36.019
2015    7       18    15  23    5.6850   353.1   11.946      36.052
2015    7       18    15  30    5.6918   353.1   11.957      36.086
2015    7       18    15  36    5.6986   353.2   11.968      36.120
2015    7       18    15  42    5.7056   353.3   11.979      36.154
2015    7       18    15  48    5.7127   353.4   11.991      36.190
2015    7       18    15  54    5.7199   353.4   12.004      36.225
2015    7       18    16   0    5.7273   353.5   12.017      36.262
2015    7       18    16   7    5.7348   353.6   12.031      36.300
2015    7       18    16  13    5.7424   353.7   12.046      36.339
2015    7       18    16  19    5.7503   353.8   12.061      36.379
2015    7       18    16  25    5.7583   353.9   12.078      36.420
2015    7       18    16  31    5.7665   354.0   12.095      36.462
2015    7       18    16  37    5.7749   354.0   12.114      36.505
2015    7       18    16  44    5.7835   354.1   12.133      36.551
2015    7       18    16  50    5.7923   354.2   12.154      36.599
2015    7       18    16  56    5.8012   354.3   12.175      36.649
2015    7       18    17   2    5.8103   354.4   12.198      36.701
2015    7       18    17   8    5.8197   354.5   12.221      36.756
2015    7       18    17  14    5.8292   354.7   12.245      36.813
2015    7       18    17  21    5.8389   354.8   12.270      36.873
2015    7       18    17  27    5.8487   354.9   12.296      36.937
2015    7       18    17  33    5.8587   355.0   12.322      37.004
2015    7       18    17  39    5.8688   355.2   12.349      37.074
2015    7       18    17  45    5.8789   355.3   12.376      37.147
2015    7       18    17  51    5.8891   355.4   12.403      37.222
2015    7       18    17  58    5.8993   355.6   12.430      37.301
2015    7       18    18   4    5.9095   355.7   12.457      37.382
2015    7       18    18  10    5.9196   355.9   12.483      37.467
2015    7       18    18  16    5.9297   356.1   12.509      37.553
2015    7       18    18  22    5.9397   356.2   12.535      37.640
2015    7       18    18  28    5.9496   356.4   12.559      37.728
2015    7       18    18  35    5.9594   356.6   12.583      37.818
2015    7       18    18  41    5.9691   356.8   12.606      37.907
2015    7       18    18  47    5.9786   356.9   12.628      37.998
2015    7       18    18  53    5.9880   357.1   12.650      38.089
2015    7       18    18  59    5.9972   357.3   12.670      38.179
2015    7       18    19   5    6.0061   357.5   12.689      38.267
2015    7       18    19  12    6.0150   357.7   12.707      38.356
2015    7       18    19  18    6.0237   357.9   12.724      38.443
2015    7       18    19  24    6.0322   358.0   12.741      38.529
2015    7       18    19  30    6.0405   358.2   12.756      38.614
2015    7       18    19  36    6.0487   358.4   12.770      38.697
2015    7       18    19  42    6.0568   358.6   12.784      38.779
2015    7       18    19  49    6.0647   358.8   12.796      38.860
2015    7       18    19  55    6.0725   359.0   12.808      38.939
2015    7       18    20   1    6.0802   359.1   12.819      39.017
2015    7       18    20   7    6.0877   359.3   12.829      39.093
2015    7       18    20  13    6.0952   359.5   12.839      39.168
2015    7       18    20  19    6.1025   359.7   12.847      39.242
2015    7       18    20  25    6.1097   359.9   12.855      39.314
2015    7       18    20  32    6.1169   360.1   12.863      39.386
2015    7       18    20  38    6.1239   360.2   12.870      39.456
2015    7       18    20  44    6.1308   360.4   12.876      39.525
2015    7       18    20  50    6.1377   360.6   12.882      39.592
2015    7       18    20  56    6.1445   360.8   12.887      39.659
2015    7       18    21   2    6.1512   361.0   12.892      39.724
2015    7       18    21   9    6.1578   361.1   12.897      39.789
2015    7       18    21  15    6.1643   361.3   12.900      39.852
2015    7       18    21  21    6.1708   361.5   12.904      39.914
2015    7       18    21  27    6.1772   361.7   12.907      39.976
2015    7       18    21  33    6.1836   361.8   12.910      40.036
2015    7       18    21  39    6.1899   362.0   12.912      40.096
2015    7       18    21  46    6.1962   362.2   12.914      40.154
2015    7       18    21  52    6.2024   362.4   12.916      40.212
2015    7       18    21  58    6.2086   362.5   12.917      40.269
2015    7       18    22   4    6.2147   362.7   12.919      40.325
2015    7       18    22  10    6.2208   362.9   12.920      40.381
2015    7       18    22  16    6.2269   363.1   12.921      40.436
2015    7       18    22  23    6.2330   363.2   12.922      40.490
2015    7       18    22  29    6.2391   363.4   12.922      40.544
2015    7       18    22  35    6.2451   363.6   12.923      40.598
2015    7       18    22  41    6.2511   363.8   12.924      40.651
2015    7       18    22  47    6.2572   363.9   12.924      40.704
2015    7       18    22  53    6.2632   364.1   12.925      40.757
2015    7       18    23   0    6.2693   364.3   12.926      40.809
2015    7       18    23   6    6.2754   364.5   12.927      40.862
2015    7       18    23  12    6.2814   364.6   12.928      40.914
2015    7       18    23  18    6.2875   364.8   12.929      40.966
2015    7       18    23  24    6.2936   365.0   12.930      41.019
2015    7       18    23  30    6.2998   365.2   12.932      41.071
2015    7       18    23  37    6.3059   365.3   12.934      41.124
2015    7       18    23  43    6.3121   365.5   12.936      41.177
2015    7       18    23  49    6.3184   365.7   12.939      41.231
2015    7       18    23  55    6.3247   365.9   12.942      41.285
2015    7       19     0   1    6.3310   366.0   12.946      41.339
2015    7       19     0   7    6.3374   366.2   12.950      41.394
2015    7       19     0  14    6.3438   366.4   12.955      41.449
2015    7       19     0  20    6.3503   366.6   12.960      41.504
2015    7       19     0  26    6.3570   366.8   12.966      41.561
2015    7       19     0  32    6.3637   366.9   12.973      41.618
2015    7       19     0  38    6.3704   367.1   12.980      41.677
2015    7       19     0  44    6.3773   367.3   12.988      41.739
2015    7       19     0  51    6.3842   367.5   12.997      41.802
2015    7       19     0  57    6.3912   367.7   13.006      41.868
2015    7       19     1   3    6.3983   367.9   13.015      41.935
2015    7       19     1   9    6.4054   368.1   13.025      42.005
2015    7       19     1  15    6.4126   368.3   13.036      42.078
2015    7       19     1  21    6.4198   368.5   13.046      42.152
2015    7       19     1  28    6.4271   368.7   13.058      42.229
2015    7       19     1  34    6.4343   368.9   13.069      42.307
2015    7       19     1  40    6.4417   369.1   13.081      42.388
2015    7       19     1  46    6.4490   369.3   13.093      42.471
2015    7       19     1  52    6.4564   369.5   13.105      42.556
2015    7       19     1  58    6.4638   369.7   13.117      42.643
2015    7       19     2   5    6.4712   369.9   13.129      42.732
2015    7       19     2  11    6.4786   370.2   13.142      42.824
2015    7       19     2  17    6.4860   370.4   13.155      42.917
2015    7       19     2  23    6.4936   370.6   13.168      43.012
2015    7       19     2  29    6.5012   370.8   13.182      43.106
2015    7       19     2  35    6.5089   371.1   13.196      43.203
2015    7       19     2  42    6.5167   371.3   13.211      43.303
2015    7       19     2  48    6.5244   371.5   13.226      43.406
2015    7       19     2  54    6.5322   371.8   13.241      43.512
2015    7       19     3   0    6.5399   372.0   13.256      43.620
2015    7       19     3   6    6.5476   372.3   13.271      43.730
2015    7       19     3  12    6.5553   372.6   13.286      43.842
2015    7       19     3  19    6.5628   372.8   13.301      43.955
2015    7       19     3  25    6.5703   373.1   13.315      44.070
2015    7       19     3  31    6.5776   373.4   13.328      44.184
2015    7       19     3  37    6.5847   373.7   13.341      44.299
2015    7       19     3  43    6.5917   374.0   13.352      44.413
2015    7       19     3  49    6.5984   374.3   13.363      44.527
2015    7       19     3  55    6.6048   374.6   13.373      44.641
2015    7       19     4   2    6.6110   374.9   13.381      44.754
2015    7       19     4   8    6.6169   375.1   13.388      44.866
2015    7       19     4  14    6.6226   375.4   13.394      44.974
2015    7       19     4  20    6.6281   375.7   13.399      45.080
2015    7       19     4  26    6.6333   376.0   13.403      45.183
2015    7       19     4  32    6.6384   376.3   13.406      45.283
2015    7       19     4  39    6.6433   376.6   13.408      45.382
2015    7       19     4  45    6.6480   376.9   13.409      45.480
2015    7       19     4  51    6.6527   377.2   13.409      45.576
2015    7       19     4  57    6.6571   377.5   13.408      45.671
2015    7       19     5   3    6.6615   377.8   13.407      45.765
2015    7       19     5   9    6.6658   378.1   13.405      45.858
2015    7       19     5  16    6.6700   378.4   13.402      45.950
2015    7       19     5  22    6.6741   378.7   13.398      46.041
2015    7       19     5  28    6.6781   379.0   13.394      46.130
2015    7       19     5  34    6.6820   379.3   13.389      46.219
2015    7       19     5  40    6.6858   379.6   13.383      46.307
2015    7       19     5  46    6.6895   379.9   13.377      46.393
2015    7       19     5  53    6.6931   380.2   13.370      46.479
2015    7       19     5  59    6.6965   380.5   13.361      46.563
2015    7       19     6   5    6.6999   380.8   13.352      46.647
2015    7       19     6  11    6.7031   381.1   13.342      46.729
2015    7       19     6  17    6.7062   381.4   13.332      46.810
2015    7       19     6  23    6.7091   381.7   13.320      46.888
2015    7       19     6  30    6.7120   382.0   13.308      46.966
2015    7       19     6  36    6.7148   382.3   13.296      47.042
2015    7       19     6  42    6.7175   382.6   13.282      47.117
2015    7       19     6  48    6.7202   382.9   13.268      47.191
2015    7       19     6  54    6.7227   383.2   13.254      47.264
2015    7       19     7   0    6.7253   383.5   13.239      47.336
2015    7       19     7   7    6.7278   383.8   13.224      47.408
2015    7       19     7  13    6.7303   384.1   13.208      47.478
2015    7       19     7  19    6.7327   384.4   13.192      47.548
2015    7       19     7  25    6.7351   384.7   13.176      47.617
2015    7       19     7  31    6.7375   385.0   13.160      47.686
2015    7       19     7  37    6.7399   385.3   13.143      47.754
2015    7       19     7  44    6.7423   385.6   13.126      47.822
2015    7       19     7  50    6.7447   385.9   13.110      47.889
2015    7       19     7  56    6.7470   386.2   13.093      47.956
2015    7       19     8   2    6.7493   386.5   13.076      48.023
2015    7       19     8   8    6.7517   386.7   13.059      48.089
2015    7       19     8  14    6.7540   387.0   13.042      48.155
2015    7       19     8  21    6.7564   387.3   13.026      48.221
2015    7       19     8  27    6.7587   387.6   13.009      48.287
2015    7       19     8  33    6.7611   387.9   12.993      48.352
2015    7       19     8  39    6.7635   388.2   12.976      48.418
2015    7       19     8  45    6.7659   388.5   12.960      48.483
2015    7       19     8  51    6.7684   388.8   12.945      48.549
2015    7       19     8  58    6.7709   389.1   12.930      48.614
2015    7       19     9   4    6.7735   389.4   12.915      48.680
2015    7       19     9  10    6.7761   389.6   12.901      48.745
2015    7       19     9  16    6.7788   389.9   12.887      48.811
2015    7       19     9  22    6.7816   390.2   12.874      48.878
2015    7       19     9  28    6.7844   390.5   12.861      48.945
2015    7       19     9  35    6.7873   390.8   12.849      49.013
2015    7       19     9  41    6.7905   391.1   12.839      49.081
2015    7       19     9  47    6.7937   391.4   12.829      49.148
2015    7       19     9  53    6.7970   391.7   12.821      49.217
2015    7       19     9  59    6.8003   392.0   12.813      49.290
2015    7       19    10   5    6.8037   392.3   12.806      49.365
2015    7       19    10  12    6.8071   392.6   12.799      49.444
2015    7       19    10  18    6.8105   392.9   12.793      49.525
2015    7       19    10  24    6.8137   393.2   12.787      49.608
2015    7       19    10  30    6.8169   393.6   12.781      49.694
2015    7       19    10  36    6.8199   393.9   12.776      49.781
2015    7       19    10  42    6.8227   394.2   12.770      49.869
2015    7       19    10  49    6.8252   394.6   12.764      49.958
2015    7       19    10  55    6.8276   394.9   12.758      50.046
2015    7       19    11   1    6.8297   395.3   12.752      50.135
2015    7       19    11   7    6.8316   395.6   12.745      50.224
2015    7       19    11  13    6.8331   396.0   12.737      50.314
2015    7       19    11  19    6.8344   396.3   12.729      50.404
2015    7       19    11  26    6.8354   396.7   12.719      50.492
2015    7       19    11  32    6.8362   397.0   12.710      50.579
2015    7       19    11  38    6.8368   397.4   12.700      50.663
2015    7       19    11  44    6.8372   397.7   12.690      50.745
2015    7       19    11  50    6.8375   398.0   12.679      50.827
2015    7       19    11  56    6.8378   398.4   12.668      50.909
2015    7       19    12   2    6.8380   398.7   12.657      50.991
2015    7       19    12   9    6.8382   399.1   12.645      51.075
2015    7       19    12  15    6.8384   399.4   12.634      51.160
2015    7       19    12  21    6.8385   399.8   12.622      51.246
2015    7       19    12  27    6.8386   400.2   12.610      51.334
2015    7       19    12  33    6.8387   400.6   12.597      51.423
2015    7       19    12  39    6.8388   400.9   12.585      51.513
2015    7       19    12  46    6.8388   401.3   12.571      51.603
2015    7       19    12  52    6.8387   401.7   12.558      51.694
2015    7       19    12  58    6.8385   402.1   12.543      51.784
2015    7       19    13   4    6.8383   402.5   12.529      51.875
2015    7       19    13  10    6.8379   402.9   12.513      51.965
2015    7       19    13  16    6.8374   403.3   12.497      52.054
2015    7       19    13  23    6.8367   403.7   12.480      52.142
2015    7       19    13  29    6.8358   404.1   12.462      52.229
2015    7       19    13  35    6.8348   404.5   12.444      52.314
2015    7       19    13  41    6.8336   404.9   12.425      52.397
2015    7       19    13  47    6.8324   405.2   12.405      52.477
2015    7       19    13  53    6.8309   405.6   12.385      52.556
2015    7       19    14   0    6.8294   406.0   12.363      52.633
2015    7       19    14   6    6.8278   406.4   12.342      52.709
2015    7       19    14  12    6.8261   406.8   12.319      52.784
2015    7       19    14  18    6.8243   407.2   12.296      52.858
2015    7       19    14  24    6.8224   407.6   12.273      52.931
2015    7       19    14  30    6.8205   408.0   12.249      53.004
2015    7       19    14  37    6.8185   408.4   12.225      53.076
2015    7       19    14  43    6.8165   408.8   12.200      53.148
2015    7       19    14  49    6.8144   409.2   12.175      53.219
2015    7       19    14  55    6.8122   409.6   12.149      53.290
2015    7       19    15   1    6.8100   410.0   12.122      53.360
2015    7       19    15   7    6.8077   410.4   12.095      53.429
2015    7       19    15  14    6.8054   410.8   12.068      53.497
2015    7       19    15  20    6.8029   411.1   12.040      53.565
2015    7       19    15  26    6.8004   411.5   12.011      53.631
2015    7       19    15  32    6.7977   411.9   11.982      53.695
2015    7       19    15  38    6.7949   412.3   11.952      53.759
2015    7       19    15  44    6.7920   412.7   11.921      53.821
2015    7       19    15  51    6.7889   413.1   11.889      53.880
2015    7       19    15  57    6.7857   413.5   11.857      53.938
2015    7       19    16   3    6.7823   413.9   11.823      53.992
2015    7       19    16   9    6.7786   414.3   11.789      54.045
2015    7       19    16  15    6.7748   414.7   11.754      54.095
2015    7       19    16  21    6.7708   415.2   11.718      54.144
2015    7       19    16  28    6.7665   415.6   11.680      54.188
2015    7       19    16  34    6.7620   416.0   11.642      54.228
2015    7       19    16  40    6.7572   416.4   11.603      54.263
2015    7       19    16  46    6.7521   416.8   11.563      54.294
2015    7       19    16  52    6.7469   417.2   11.522      54.322
2015    7       19    16  58    6.7413   417.6   11.481      54.345
2015    7       19    17   5    6.7356   418.0   11.440      54.365
2015    7       19    17  11    6.7297   418.4   11.398      54.382
2015    7       19    17  17    6.7235   418.8   11.355      54.396
2015    7       19    17  23    6.7170   419.3   11.312      54.408
2015    7       19    17  29    6.7103   419.7   11.269      54.418
2015    7       19    17  35    6.7033   420.1   11.225      54.425
2015    7       19    17  42    6.6960   420.5   11.181      54.430
2015    7       19    17  48    6.6884   420.9   11.137      54.432
2015    7       19    17  54    6.6805   421.3   11.093      54.431
2015    7       19    18   0    6.6722   421.7   11.048      54.426
2015    7       19    18   6    6.6638   422.1   11.004      54.418
2015    7       19    18  12    6.6551   422.5   10.960      54.410
2015    7       19    18  18    6.6462   422.9   10.916      54.399
2015    7       19    18  25    6.6371   423.3   10.872      54.386
2015    7       19    18  31    6.6279   423.7   10.828      54.372
2015    7       19    18  37    6.6185   424.0   10.785      54.356
2015    7       19    18  43    6.6090   424.4   10.743      54.339
2015    7       19    18  49    6.5994   424.7   10.701      54.321
2015    7       19    18  55    6.5898   425.1   10.659      54.302
2015    7       19    19   2    6.5800   425.4   10.618      54.283
2015    7       19    19   8    6.5704   425.8   10.578      54.265
2015    7       19    19  14    6.5608   426.1   10.539      54.247
2015    7       19    19  20    6.5513   426.4   10.501      54.231
2015    7       19    19  26    6.5418   426.8   10.463      54.217
2015    7       19    19  32    6.5324   427.1   10.426      54.207
2015    7       19    19  39    6.5230   427.5   10.390      54.199
2015    7       19    19  45    6.5138   427.8   10.354      54.193
2015    7       19    19  51    6.5045   428.2   10.319      54.189
2015    7       19    19  57    6.4953   428.5   10.285      54.187
2015    7       19    20   3    6.4860   428.9   10.250      54.186
2015    7       19    20   9    6.4768   429.2   10.216      54.186
2015    7       19    20  16    6.4675   429.6   10.183      54.185
2015    7       19    20  22    6.4582   429.9   10.149      54.185
2015    7       19    20  28    6.4488   430.3   10.116      54.184
2015    7       19    20  34    6.4395   430.7   10.084      54.184
2015    7       19    20  40    6.4300   431.0   10.051      54.182
2015    7       19    20  46    6.4205   431.4   10.018      54.179
2015    7       19    20  53    6.4109   431.7    9.986      54.175
2015    7       19    20  59    6.4013   432.0    9.954      54.169
2015    7       19    21   5    6.3915   432.4    9.921      54.161
2015    7       19    21  11    6.3818   432.7    9.889      54.152
2015    7       19    21  17    6.3719   433.1    9.857      54.143
2015    7       19    21  23    6.3621   433.4    9.825      54.132
2015    7       19    21  30    6.3521   433.7    9.793      54.122
2015    7       19    21  36    6.3422   434.1    9.762      54.111
2015    7       19    21  42    6.3322   434.4    9.730      54.099
2015    7       19    21  48    6.3222   434.7    9.698      54.088
2015    7       19    21  54    6.3121   435.1    9.667      54.076
2015    7       19    22   0    6.3020   435.4    9.635      54.064
2015    7       19    22   7    6.2918   435.7    9.603      54.052
2015    7       19    22  13    6.2817   436.1    9.571      54.039
2015    7       19    22  19    6.2714   436.4    9.539      54.026
2015    7       19    22  25    6.2612   436.7    9.507      54.013
2015    7       19    22  31    6.2508   437.1    9.475      53.998
2015    7       19    22  37    6.2405   437.4    9.443      53.983
2015    7       19    22  44    6.2300   437.7    9.410      53.967
2015    7       19    22  50    6.2195   438.0    9.377      53.949
2015    7       19    22  56    6.2088   438.4    9.344      53.930
2015    7       19    23   2    6.1982   438.7    9.311      53.909
2015    7       19    23   8    6.1873   439.0    9.277      53.887
2015    7       19    23  14    6.1764   439.3    9.243      53.862
2015    7       19    23  21    6.1654   439.7    9.209      53.834
2015    7       19    23  27    6.1542   440.0    9.174      53.804
2015    7       19    23  33    6.1429   440.3    9.138      53.772
2015    7       19    23  39    6.1314   440.7    9.102      53.738
2015    7       19    23  45    6.1197   441.0    9.065      53.701
2015    7       19    23  51    6.1079   441.3    9.028      53.658
2015    7       19    23  58    6.0959   441.7    8.990      53.610
2015    7       20     0   4    6.0838   442.0    8.952      53.557
2015    7       20     0  10    6.0714   442.3    8.914      53.500
2015    7       20     0  16    6.0590   442.6    8.876      53.440
2015    7       20     0  22    6.0465   442.9    8.837      53.376
2015    7       20     0  28    6.0339   443.2    8.799      53.308
2015    7       20     0  35    6.0211   443.6    8.760      53.238
2015    7       20     0  41    6.0084   443.9    8.722      53.166
2015    7       20     0  47    5.9955   444.2    8.684      53.090
2015    7       20     0  53    5.9826   444.5    8.645      53.014
2015    7       20     0  59    5.9696   444.8    8.607      52.934
2015    7       20     1   5    5.9565   445.0    8.569      52.852
2015    7       20     1  12    5.9433   445.3    8.532      52.768
2015    7       20     1  18    5.9301   445.6    8.494      52.679
2015    7       20     1  24    5.9168   445.9    8.457      52.588
2015    7       20     1  30    5.9035   446.2    8.421      52.495
2015    7       20     1  36    5.8902   446.4    8.385      52.400
2015    7       20     1  42    5.8769   446.7    8.349      52.303
2015    7       20     1  48    5.8635   446.9    8.313      52.205
2015    7       20     1  55    5.8502   447.2    8.278      52.105
2015    7       20     2   1    5.8369   447.4    8.244      52.003
2015    7       20     2   7    5.8236   447.7    8.210      51.900
2015    7       20     2  13    5.8103   447.9    8.176      51.797
2015    7       20     2  19    5.7971   448.2    8.143      51.693
2015    7       20     2  25    5.7840   448.4    8.110      51.589
2015    7       20     2  32    5.7709   448.6    8.078      51.484
2015    7       20     2  38    5.7578   448.8    8.046      51.379
2015    7       20     2  44    5.7449   449.0    8.016      51.274
2015    7       20     2  50    5.7320   449.2    7.985      51.170
2015    7       20     2  56    5.7193   449.5    7.955      51.067
2015    7       20     3   2    5.7065   449.7    7.926      50.966
2015    7       20     3   9    5.6939   449.9    7.897      50.866
2015    7       20     3  15    5.6812   450.1    7.868      50.766
2015    7       20     3  21    5.6686   450.2    7.840      50.666
2015    7       20     3  27    5.6560   450.4    7.812      50.566
2015    7       20     3  33    5.6435   450.6    7.785      50.465
2015    7       20     3  39    5.6310   450.8    7.758      50.364
2015    7       20     3  46    5.6186   451.0    7.731      50.263
2015    7       20     3  52    5.6061   451.1    7.704      50.161
2015    7       20     3  58    5.5937   451.3    7.678      50.060
2015    7       20     4   4    5.5813   451.5    7.652      49.957
2015    7       20     4  10    5.5690   451.6    7.627      49.855
2015    7       20     4  16    5.5567   451.8    7.602      49.753
2015    7       20     4  23    5.5445   452.0    7.577      49.650
2015    7       20     4  29    5.5323   452.1    7.552      49.548
2015    7       20     4  35    5.5201   452.3    7.528      49.446
2015    7       20     4  41    5.5080   452.4    7.503      49.343
2015    7       20     4  47    5.4959   452.6    7.479      49.242
2015    7       20     4  53    5.4839   452.7    7.455      49.141
2015    7       20     5   0    5.4719   452.8    7.432      49.041
2015    7       20     5   6    5.4600   453.0    7.408      48.941
2015    7       20     5  12    5.4481   453.1    7.385      48.842
2015    7       20     5  18    5.4363   453.2    7.363      48.742
2015    7       20     5  24    5.4245   453.3    7.340      48.644
2015    7       20     5  30    5.4128   453.4    7.318      48.546
2015    7       20     5  37    5.4011   453.6    7.295      48.449
2015    7       20     5  43    5.3895   453.7    7.274      48.352
2015    7       20     5  49    5.3780   453.8    7.252      48.255
2015    7       20     5  55    5.3666   453.9    7.231      48.160
2015    7       20     6   1    5.3552   454.0    7.210      48.065
2015    7       20     6   7    5.3439   454.0    7.190      47.971
2015    7       20     6  14    5.3327   454.1    7.169      47.877
2015    7       20     6  20    5.3216   454.2    7.150      47.785
2015    7       20     6  26    5.3106   454.3    7.130      47.694
2015    7       20     6  32    5.2997   454.4    7.111      47.603
2015    7       20     6  38    5.2889   454.4    7.092      47.514
2015    7       20     6  44    5.2781   454.5    7.074      47.425
2015    7       20     6  51    5.2675   454.6    7.056      47.337
2015    7       20     6  57    5.2570   454.6    7.038      47.250
2015    7       20     7   3    5.2465   454.7    7.021      47.164
2015    7       20     7   9    5.2362   454.7    7.004      47.078
2015    7       20     7  15    5.2260   454.8    6.988      46.993
2015    7       20     7  21    5.2158   454.8    6.972      46.909
2015    7       20     7  28    5.2058   454.8    6.956      46.826
2015    7       20     7  34    5.1959   454.9    6.941      46.743
2015    7       20     7  40    5.1861   454.9    6.927      46.662
2015    7       20     7  46    5.1764   454.9    6.912      46.581
2015    7       20     7  52    5.1668   455.0    6.898      46.501
2015    7       20     7  58    5.1574   455.0    6.885      46.422
2015    7       20     8   5    5.1480   455.0    6.872      46.345
2015    7       20     8  11    5.1388   455.0    6.859      46.269
2015    7       20     8  17    5.1297   455.0    6.847      46.194
2015    7       20     8  23    5.1207   455.0    6.835      46.119
2015    7       20     8  29    5.1118   455.0    6.823      46.046
2015    7       20     8  35    5.1031   455.0    6.812      45.974
2015    7       20     8  42    5.0944   455.0    6.802      45.902
2015    7       20     8  48    5.0859   455.0    6.792      45.831
2015    7       20     8  54    5.0774   455.0    6.782      45.761
2015    7       20     9   0    5.0691   455.0    6.772      45.692
2015    7       20     9   6    5.0608   455.0    6.763      45.624
2015    7       20     9  12    5.0527   455.0    6.754      45.558
2015    7       20     9  19    5.0446   455.1    6.746      45.493
2015    7       20     9  25    5.0366   455.1    6.737      45.430
2015    7       20     9  31    5.0287   455.1    6.729      45.368
2015    7       20     9  37    5.0209   455.1    6.721      45.307
2015    7       20     9  43    5.0131   455.1    6.713      45.248
2015    7       20     9  49    5.0054   455.1    6.705      45.190
2015    7       20     9  56    4.9977   455.1    6.698      45.132
2015    7       20    10   2    4.9901   455.1    6.690      45.075
2015    7       20    10   8    4.9825   455.2    6.682      45.020
2015    7       20    10  14    4.9750   455.2    6.674      44.964
2015    7       20    10  20    4.9674   455.2    6.666      44.909
2015    7       20    10  26    4.9600   455.2    6.658      44.855
2015    7       20    10  33    4.9525   455.2    6.651      44.800
2015    7       20    10  39    4.9451   455.2    6.643      44.745
2015    7       20    10  45    4.9377   455.2    6.635      44.689
2015    7       20    10  51    4.9303   455.3    6.627      44.632
2015    7       20    10  57    4.9230   455.3    6.619      44.575
2015    7       20    11   3    4.9157   455.3    6.611      44.517
2015    7       20    11  10    4.9084   455.3    6.603      44.459
2015    7       20    11  16    4.9012   455.3    6.595      44.399
2015    7       20    11  22    4.8940   455.3    6.587      44.340
2015    7       20    11  28    4.8868   455.3    6.579      44.280
2015    7       20    11  34    4.8797   455.3    6.571      44.221
2015    7       20    11  40    4.8727   455.3    6.563      44.161
2015    7       20    11  47    4.8657   455.3    6.555      44.101
2015    7       20    11  53    4.8588   455.4    6.547      44.041
2015    7       20    11  59    4.8519   455.4    6.539      43.983
2015    7       20    12   5    4.8451   455.4    6.531      43.924
2015    7       20    12  11    4.8383   455.4    6.523      43.866
2015    7       20    12  17    4.8316   455.4    6.515      43.808
2015    7       20    12  24    4.8249   455.4    6.507      43.751
2015    7       20    12  30    4.8183   455.4    6.499      43.694
2015    7       20    12  36    4.8117   455.4    6.491      43.637
2015    7       20    12  42    4.8052   455.4    6.483      43.581
2015    7       20    12  48    4.7987   455.4    6.475      43.525
2015    7       20    12  54    4.7923   455.4    6.467      43.469
2015    7       20    13   0    4.7860   455.4    6.459      43.414
2015    7       20    13   7    4.7798   455.4    6.451      43.359
2015    7       20    13  13    4.7736   455.4    6.443      43.305
2015    7       20    13  19    4.7675   455.3    6.435      43.251
2015    7       20    13  25    4.7614   455.3    6.427      43.198
2015    7       20    13  31    4.7554   455.3    6.420      43.146
2015    7       20    13  37    4.7495   455.3    6.412      43.094
2015    7       20    13  44    4.7437   455.3    6.405      43.043
2015    7       20    13  50    4.7380   455.3    6.397      42.992
2015    7       20    13  56    4.7323   455.3    6.390      42.942
2015    7       20    14   2    4.7267   455.3    6.383      42.892
2015    7       20    14   8    4.7212   455.2    6.376      42.843
2015    7       20    14  14    4.7158   455.2    6.369      42.795
2015    7       20    14  21    4.7104   455.2    6.363      42.746
2015    7       20    14  27    4.7051   455.2    6.356      42.699
2015    7       20    14  33    4.6999   455.2    6.350      42.651
2015    7       20    14  39    4.6948   455.1    6.344      42.603
2015    7       20    14  45    4.6898   455.1    6.338      42.556
2015    7       20    14  51    4.6848   455.1    6.332      42.509
2015    7       20    14  58    4.6799   455.1    6.326      42.462
2015    7       20    15   4    4.6751   455.0    6.320      42.415
2015    7       20    15  10    4.6704   455.0    6.315      42.368
2015    7       20    15  16    4.6657   455.0    6.310      42.322
2015    7       20    15  22    4.6611   455.0    6.305      42.276
2015    7       20    15  28    4.6566   454.9    6.300      42.230
2015    7       20    15  35    4.6521   454.9    6.296      42.185
2015    7       20    15  41    4.6477   454.9    6.291      42.140
2015    7       20    15  47    4.6434   454.8    6.287      42.096
2015    7       20    15  53    4.6392   454.8    6.283      42.052
2015    7       20    15  59    4.6350   454.7    6.279      42.008
2015    7       20    16   5    4.6309   454.7    6.275      41.965
2015    7       20    16  12    4.6268   454.7    6.272      41.923
2015    7       20    16  18    4.6228   454.6    6.268      41.882
2015    7       20    16  24    4.6188   454.6    6.265      41.842
2015    7       20    16  30    4.6149   454.5    6.262      41.803
2015    7       20    16  36    4.6110   454.5    6.259      41.765
2015    7       20    16  42    4.6072   454.5    6.256      41.728
2015    7       20    16  49    4.6034   454.4    6.253      41.692
2015    7       20    16  55    4.5997   454.4    6.250      41.657
2015    7       20    17   1    4.5960   454.3    6.248      41.623
2015    7       20    17   7    4.5923   454.3    6.245      41.589
2015    7       20    17  13    4.5887   454.3    6.242      41.557
2015    7       20    17  19    4.5851   454.2    6.240      41.525
2015    7       20    17  26    4.5815   454.2    6.237      41.493
2015    7       20    17  32    4.5780   454.1    6.235      41.463
2015    7       20    17  38    4.5745   454.1    6.232      41.432
2015    7       20    17  44    4.5711   454.1    6.230      41.403
2015    7       20    17  50    4.5677   454.0    6.227      41.373
2015    7       20    17  56    4.5643   454.0    6.225      41.345
2015    7       20    18   3    4.5609   453.9    6.222      41.316
2015    7       20    18   9    4.5576   453.9    6.220      41.288
2015    7       20    18  15    4.5543   453.9    6.217      41.260
2015    7       20    18  21    4.5510   453.8    6.215      41.232
2015    7       20    18  27    4.5478   453.8    6.212      41.203
2015    7       20    18  33    4.5446   453.7    6.210      41.175
2015    7       20    18  40    4.5414   453.7    6.207      41.148
2015    7       20    18  46    4.5382   453.7    6.205      41.120
2015    7       20    18  52    4.5351   453.6    6.202      41.092
2015    7       20    18  58    4.5320   453.6    6.200      41.064
2015    7       20    19   4    4.5290   453.6    6.197      41.036
2015    7       20    19  10    4.5259   453.5    6.194      41.009
2015    7       20    19  17    4.5229   453.5    6.192      40.981
2015    7       20    19  23    4.5199   453.4    6.189      40.954
2015    7       20    19  29    4.5170   453.4    6.187      40.927
2015    7       20    19  35    4.5141   453.4    6.184      40.900
2015    7       20    19  41    4.5112   453.3    6.181      40.872
2015    7       20    19  47    4.5083   453.3    6.179      40.845
2015    7       20    19  54    4.5054   453.2    6.176      40.818
2015    7       20    20   0    4.5026   453.2    6.174      40.791
2015    7       20    20   6    4.4998   453.2    6.171      40.764
2015    7       20    20  12    4.4971   453.1    6.169      40.738
2015    7       20    20  18    4.4943   453.1    6.166      40.711
2015    7       20    20  24    4.4916   453.1    6.164      40.685
2015    7       20    20  31    4.4890   453.0    6.161      40.659
2015    7       20    20  37    4.4863   453.0    6.159      40.633
2015    7       20    20  43    4.4837   452.9    6.157      40.607
2015    7       20    20  49    4.4811   452.9    6.155      40.582
2015    7       20    20  55    4.4786   452.9    6.152      40.556
2015    7       20    21   1    4.4760   452.8    6.150      40.532
2015    7       20    21   8    4.4736   452.8    6.148      40.507
2015    7       20    21  14    4.4711   452.7    6.146      40.483
2015    7       20    21  20    4.4687   452.7    6.144      40.459
2015    7       20    21  26    4.4664   452.6    6.143      40.436
2015    7       20    21  32    4.4641   452.6    6.141      40.413
2015    7       20    21  38    4.4618   452.6    6.139      40.390
2015    7       20    21  44    4.4595   452.5    6.138      40.367
2015    7       20    21  51    4.4573   452.5    6.136      40.346
2015    7       20    21  57    4.4551   452.4    6.135      40.324
2015    7       20    22   3    4.4530   452.4    6.134      40.303
2015    7       20    22   9    4.4509   452.4    6.132      40.282
2015    7       20    22  15    4.4489   452.3    6.131      40.262
2015    7       20    22  21    4.4469   452.3    6.130      40.242
2015    7       20    22  28    4.4449   452.2    6.129      40.222
2015    7       20    22  34    4.4430   452.2    6.128      40.203
2015    7       20    22  40    4.4411   452.1    6.128      40.184
2015    7       20    22  46    4.4393   452.1    6.127      40.165
2015    7       20    22  52    4.4375   452.0    6.126      40.146
2015    7       20    22  58    4.4357   452.0    6.126      40.128
2015    7       20    23   5    4.4340   452.0    6.125      40.110
2015    7       20    23  11    4.4323   451.9    6.125      40.093
2015    7       20    23  17    4.4306   451.9    6.124      40.075
2015    7       20    23  23    4.4290   451.8    6.124      40.058
2015    7       20    23  29    4.4274   451.8    6.124      40.041
2015    7       20    23  35    4.4258   451.7    6.123      40.024
2015    7       20    23  42    4.4243   451.7    6.123      40.008
2015    7       20    23  48    4.4228   451.6    6.123      39.991
2015    7       20    23  54    4.4213   451.6    6.123      39.975
2015    7       21     0   0    4.4198   451.5    6.123      39.959
2015    7       21     0   6    4.4184   451.5    6.123      39.943
2015    7       21     0  12    4.4170   451.5    6.123      39.928
2015    7       21     0  19    4.4157   451.4    6.123      39.912
2015    7       21     0  25    4.4143   451.4    6.123      39.897
2015    7       21     0  31    4.4130   451.3    6.123      39.881
2015    7       21     0  37    4.4117   451.3    6.123      39.866
2015    7       21     0  43    4.4105   451.2    6.123      39.851
2015    7       21     0  49    4.4092   451.2    6.124      39.836
2015    7       21     0  56    4.4080   451.1    6.124      39.821
2015    7       21     1   2    4.4068   451.1    6.124      39.807
2015    7       21     1   8    4.4057   451.0    6.124      39.792
2015    7       21     1  14    4.4045   451.0    6.124      39.778
2015    7       21     1  20    4.4034   450.9    6.125      39.763
2015    7       21     1  26    4.4023   450.9    6.125      39.749
2015    7       21     1  33    4.4013   450.8    6.125      39.735
2015    7       21     1  39    4.4002   450.8    6.126      39.721
2015    7       21     1  45    4.3992   450.8    6.126      39.708
2015    7       21     1  51    4.3982   450.7    6.126      39.694
2015    7       21     1  57    4.3972   450.7    6.127      39.681
2015    7       21     2   3    4.3962   450.6    6.127      39.668
2015    7       21     2  10    4.3953   450.6    6.127      39.655
2015    7       21     2  16    4.3943   450.5    6.128      39.642
2015    7       21     2  22    4.3934   450.5    6.128      39.630
2015    7       21     2  28    4.3925   450.5    6.128      39.617
2015    7       21     2  34    4.3916   450.4    6.129      39.605
2015    7       21     2  40    4.3908   450.4    6.129      39.593
2015    7       21     2  47    4.3899   450.3    6.129      39.581
2015    7       21     2  53    4.3891   450.3    6.129      39.570
2015    7       21     2  59    4.3883   450.2    6.130      39.558
2015    7       21     3   5    4.3875   450.2    6.130      39.547
2015    7       21     3  11    4.3867   450.2    6.130      39.536
2015    7       21     3  17    4.3859   450.1    6.131      39.525
2015    7       21     3  24    4.3852   450.1    6.131      39.514
2015    7       21     3  30    4.3845   450.0    6.131      39.504
2015    7       21     3  36    4.3838   450.0    6.131      39.494
2015    7       21     3  42    4.3831   449.9    6.131      39.483
2015    7       21     3  48    4.3824   449.9    6.132      39.474
2015    7       21     3  54    4.3817   449.9    6.132      39.464
2015    7       21     4   1    4.3811   449.8    6.132      39.455
2015    7       21     4   7    4.3805   449.8    6.132      39.445
2015    7       21     4  13    4.3799   449.7    6.133      39.436
2015    7       21     4  19    4.3793   449.7    6.133      39.428
2015    7       21     4  25    4.3787   449.7    6.133      39.419
2015    7       21     4  31    4.3782   449.6    6.133      39.411
2015    7       21     4  38    4.3776   449.6    6.133      39.403
2015    7       21     4  44    4.3771   449.6    6.134      39.395
2015    7       21     4  50    4.3766   449.5    6.134      39.387
2015    7       21     4  56    4.3762   449.5    6.134      39.380
2015    7       21     5   2    4.3757   449.4    6.135      39.372
2015    7       21     5   8    4.3753   449.4    6.135      39.365
2015    7       21     5  15    4.3749   449.4    6.136      39.358
2015    7       21     5  21    4.3745   449.3    6.136      39.352
2015    7       21     5  27    4.3742   449.3    6.137      39.345
2015    7       21     5  33    4.3738   449.2    6.137      39.339
2015    7       21     5  39    4.3735   449.2    6.138      39.333
2015    7       21     5  45    4.3732   449.2    6.139      39.327
2015    7       21     5  51    4.3730   449.1    6.139      39.321
2015    7       21     5  58    4.3727   449.1    6.140      39.316
2015    7       21     6   4    4.3725   449.1    6.141      39.310
2015    7       21     6  10    4.3723   449.0    6.142      39.305
2015    7       21     6  16    4.3721   449.0    6.143      39.300
2015    7       21     6  22    4.3719   448.9    6.144      39.296
2015    7       21     6  28    4.3718   448.9    6.145      39.291
2015    7       21     6  35    4.3717   448.9    6.146      39.287
2015    7       21     6  41    4.3716   448.8    6.147      39.282
2015    7       21     6  47    4.3715   448.8    6.148      39.278
2015    7       21     6  53    4.3714   448.8    6.150      39.274
2015    7       21     6  59    4.3714   448.7    6.151      39.271
2015    7       21     7   5    4.3713   448.7    6.153      39.267
2015    7       21     7  12    4.3713   448.7    6.154      39.264
2015    7       21     7  18    4.3713   448.6    6.156      39.261
2015    7       21     7  24    4.3713   448.6    6.157      39.257
2015    7       21     7  30    4.3714   448.6    6.159      39.254
2015    7       21     7  36    4.3714   448.5    6.161      39.252
2015    7       21     7  42    4.3715   448.5    6.163      39.249
2015    7       21     7  49    4.3716   448.5    6.165      39.246
2015    7       21     7  55    4.3716   448.4    6.166      39.244
2015    7       21     8   1    4.3717   448.4    6.168      39.242
2015    7       21     8   7    4.3719   448.4    6.170      39.239
2015    7       21     8  13    4.3720   448.3    6.172      39.237
2015    7       21     8  19    4.3721   448.3    6.174      39.235
2015    7       21     8  26    4.3723   448.3    6.177      39.233
2015    7       21     8  32    4.3724   448.2    6.179      39.232
2015    7       21     8  38    4.3726   448.2    6.181      39.230
2015    7       21     8  44    4.3727   448.2    6.183      39.229
2015    7       21     8  50    4.3729   448.2    6.185      39.227
2015    7       21     8  56    4.3731   448.1    6.187      39.226
2015    7       21     9   3    4.3734   448.1    6.190      39.225
2015    7       21     9   9    4.3736   448.1    6.192      39.224
2015    7       21     9  15    4.3738   448.0    6.194      39.223
2015    7       21     9  21    4.3741   448.0    6.197      39.222
2015    7       21     9  27    4.3743   448.0    6.199      39.221
2015    7       21     9  33    4.3746   447.9    6.201      39.221
2015    7       21     9  40    4.3749   447.9    6.204      39.221
2015    7       21     9  46    4.3752   447.9    6.206      39.220
2015    7       21     9  52    4.3755   447.9    6.208      39.220
2015    7       21     9  58    4.3758   447.8    6.211      39.221
2015    7       21    10   4    4.3761   447.8    6.213      39.221
2015    7       21    10  10    4.3765   447.8    6.216      39.221
2015    7       21    10  17    4.3769   447.8    6.218      39.222
2015    7       21    10  23    4.3773   447.7    6.221      39.223
2015    7       21    10  29    4.3777   447.7    6.223      39.224
2015    7       21    10  35    4.3781   447.7    6.226      39.225
2015    7       21    10  41    4.3785   447.7    6.228      39.227
2015    7       21    10  47    4.3789   447.6    6.231      39.229
2015    7       21    10  54    4.3794   447.6    6.233      39.231
2015    7       21    11   0    4.3798   447.6    6.236      39.233
2015    7       21    11   6    4.3803   447.6    6.238      39.236
2015    7       21    11  12    4.3808   447.5    6.241      39.239
2015    7       21    11  18    4.3812   447.5    6.243      39.242
2015    7       21    11  24    4.3817   447.5    6.246      39.246
2015    7       21    11  31    4.3822   447.5    6.248      39.249
2015    7       21    11  37    4.3827   447.5    6.251      39.254
2015    7       21    11  43    4.3832   447.4    6.253      39.258
2015    7       21    11  49    4.3837   447.4    6.256      39.263
2015    7       21    11  55    4.3842   447.4    6.258      39.269
2015    7       21    12   1    4.3848   447.4    6.260      39.274
2015    7       21    12   8    4.3853   447.4    6.263      39.280
2015    7       21    12  14    4.3858   447.4    6.265      39.286
2015    7       21    12  20    4.3864   447.3    6.268      39.292
2015    7       21    12  26    4.3870   447.3    6.270      39.299
2015    7       21    12  32    4.3876   447.3    6.273      39.305
2015    7       21    12  38    4.3882   447.3    6.275      39.312
2015    7       21    12  45    4.3888   447.3    6.277      39.319
2015    7       21    12  51    4.3894   447.3    6.280      39.327
2015    7       21    12  57    4.3900   447.2    6.282      39.334
2015    7       21    13   3    4.3906   447.2    6.285      39.342
2015    7       21    13   9    4.3913   447.2    6.287      39.350
2015    7       21    13  15    4.3919   447.2    6.290      39.359
2015    7       21    13  22    4.3925   447.2    6.292      39.368
2015    7       21    13  28    4.3932   447.2    6.295      39.377
2015    7       21    13  34    4.3939   447.2    6.297      39.386
2015    7       21    13  40    4.3945   447.2    6.300      39.395
2015    7       21    13  46    4.3952   447.2    6.302      39.404
2015    7       21    13  52    4.3959   447.1    6.305      39.413
2015    7       21    13  58    4.3965   447.1    6.307      39.423
2015    7       21    14   5    4.3972   447.1    6.309      39.432
2015    7       21    14  11    4.3979   447.1    6.312      39.441
2015    7       21    14  17    4.3985   447.1    6.314      39.451
2015    7       21    14  23    4.3992   447.1    6.316      39.460
2015    7       21    14  29    4.3999   447.1    6.319      39.469
2015    7       21    14  35    4.4006   447.1    6.321      39.479
2015    7       21    14  42    4.4013   447.1    6.323      39.488
2015    7       21    14  48    4.4019   447.1    6.326      39.497
2015    7       21    14  54    4.4026   447.1    6.328      39.506
2015    7       21    15   0    4.4033   447.1    6.330      39.515
2015    7       21    15   6    4.4040   447.1    6.332      39.524
2015    7       21    15  12    4.4047   447.1    6.334      39.532
2015    7       21    15  19    4.4054   447.1    6.337      39.541
2015    7       21    15  25    4.4061   447.1    6.339      39.550
2015    7       21    15  31    4.4068   447.0    6.341      39.559
2015    7       21    15  37    4.4075   447.0    6.343      39.567
2015    7       21    15  43    4.4082   447.0    6.346      39.576
2015    7       21    15  49    4.4089   447.0    6.348      39.584
2015    7       21    15  56    4.4097   447.0    6.350      39.593
2015    7       21    16   2    4.4104   447.0    6.352      39.602
2015    7       21    16   8    4.4112   447.0    6.355      39.610
2015    7       21    16  14    4.4119   447.0    6.357      39.619
2015    7       21    16  20    4.4127   447.0    6.359      39.627
2015    7       21    16  26    4.4135   447.0    6.362      39.636
2015    7       21    16  33    4.4142   447.0    6.364      39.644
2015    7       21    16  39    4.4150   447.0    6.366      39.653
2015    7       21    16  45    4.4159   447.0    6.369      39.661
2015    7       21    16  51    4.4167   447.0    6.371      39.670
2015    7       21    16  57    4.4176   447.0    6.374      39.679
2015    7       21    17   3    4.4184   447.0    6.377      39.687
2015    7       21    17  10    4.4193   447.0    6.379      39.696
2015    7       21    17  16    4.4202   447.0    6.382      39.706
2015    7       21    17  22    4.4211   447.0    6.385      39.715
2015    7       21    17  28    4.4220   447.0    6.387      39.725
2015    7       21    17  34    4.4229   447.1    6.390      39.736
2015    7       21    17  40    4.4238   447.1    6.393      39.746
2015    7       21    17  47    4.4247   447.1    6.396      39.757
2015    7       21    17  53    4.4256   447.1    6.398      39.768
2015    7       21    17  59    4.4265   447.1    6.401      39.779
2015    7       21    18   5    4.4274   447.1    6.403      39.790
2015    7       21    18  11    4.4282   447.1    6.406      39.802
2015    7       21    18  17    4.4290   447.1    6.408      39.814
2015    7       21    18  24    4.4298   447.1    6.411      39.825
2015    7       21    18  30    4.4306   447.1    6.413      39.837
2015    7       21    18  36    4.4314   447.2    6.415      39.849
2015    7       21    18  42    4.4322   447.2    6.417      39.860
2015    7       21    18  48    4.4329   447.2    6.419      39.871
2015    7       21    18  54    4.4337   447.2    6.421      39.883
2015    7       21    19   1    4.4344   447.2    6.423      39.894
2015    7       21    19   7    4.4352   447.2    6.425      39.905
2015    7       21    19  13    4.4359   447.2    6.427      39.916
2015    7       21    19  19    4.4366   447.3    6.428      39.926
2015    7       21    19  25    4.4373   447.3    6.430      39.937
2015    7       21    19  31    4.4380   447.3    6.432      39.948
2015    7       21    19  38    4.4387   447.3    6.433      39.958
2015    7       21    19  44    4.4394   447.3    6.435      39.968
2015    7       21    19  50    4.4401   447.3    6.437      39.978
2015    7       21    19  56    4.4407   447.3    6.438      39.989
2015    7       21    20   2    4.4414   447.4    6.440      39.999
2015    7       21    20   8    4.4420   447.4    6.441      40.009
2015    7       21    20  15    4.4427   447.4    6.443      40.019
2015    7       21    20  21    4.4433   447.4    6.444      40.029
2015    7       21    20  27    4.4439   447.4    6.445      40.038
2015    7       21    20  33    4.4445   447.4    6.446      40.048
2015    7       21    20  39    4.4451   447.4    6.447      40.057
2015    7       21    20  45    4.4457   447.5    6.449      40.067
2015    7       21    20  51    4.4462   447.5    6.450      40.076
2015    7       21    20  58    4.4468   447.5    6.451      40.085
2015    7       21    21   4    4.4474   447.5    6.451      40.094
2015    7       21    21  10    4.4479   447.5    6.452      40.103
2015    7       21    21  16    4.4484   447.6    6.453      40.112
2015    7       21    21  22    4.4489   447.6    6.454      40.120
2015    7       21    21  28    4.4495   447.6    6.455      40.129
2015    7       21    21  35    4.4500   447.6    6.455      40.137
2015    7       21    21  41    4.4505   447.6    6.456      40.145
2015    7       21    21  47    4.4510   447.6    6.456      40.152
2015    7       21    21  53    4.4515   447.7    6.457      40.160
2015    7       21    21  59    4.4520   447.7    6.457      40.167
2015    7       21    22   5    4.4525   447.7    6.458      40.174
2015    7       21    22  12    4.4529   447.7    6.458      40.181
2015    7       21    22  18    4.4534   447.7    6.458      40.188
2015    7       21    22  24    4.4539   447.8    6.459      40.195
2015    7       21    22  30    4.4544   447.8    6.459      40.202
2015    7       21    22  36    4.4548   447.8    6.459      40.208
2015    7       21    22  42    4.4553   447.8    6.460      40.215
2015    7       21    22  49    4.4558   447.8    6.460      40.221
2015    7       21    22  55    4.4562   447.8    6.460      40.228
2015    7       21    23   1    4.4567   447.9    6.461      40.234
2015    7       21    23   7    4.4572   447.9    6.461      40.241
2015    7       21    23  13    4.4577   447.9    6.461      40.247
2015    7       21    23  19    4.4581   447.9    6.461      40.254
2015    7       21    23  26    4.4586   447.9    6.462      40.260
2015    7       21    23  32    4.4591   448.0    6.462      40.267
2015    7       21    23  38    4.4596   448.0    6.463      40.273
2015    7       21    23  44    4.4601   448.0    6.463      40.280
2015    7       21    23  50    4.4607   448.0    6.464      40.287
2015    7       21    23  56    4.4612   448.0    6.464      40.294
2015    7       22     0   3    4.4617   448.1    6.465      40.301
2015    7       22     0   9    4.4623   448.1    6.465      40.308
2015    7       22     0  15    4.4629   448.1    6.466      40.316
2015    7       22     0  21    4.4635   448.1    6.467      40.324
2015    7       22     0  27    4.4641   448.2    6.467      40.332
2015    7       22     0  33    4.4647   448.2    6.468      40.341
2015    7       22     0  40    4.4653   448.2    6.469      40.350
2015    7       22     0  46    4.4659   448.2    6.470      40.360
2015    7       22     0  52    4.4665   448.3    6.471      40.369
2015    7       22     0  58    4.4672   448.3    6.472      40.379
2015    7       22     1   4    4.4678   448.3    6.473      40.389
2015    7       22     1  10    4.4684   448.4    6.474      40.400
2015    7       22     1  17    4.4691   448.4    6.475      40.410
2015    7       22     1  23    4.4697   448.4    6.476      40.421
2015    7       22     1  29    4.4703   448.4    6.477      40.432
2015    7       22     1  35    4.4710   448.5    6.478      40.443
2015    7       22     1  41    4.4715   448.5    6.479      40.455
2015    7       22     1  47    4.4722   448.5    6.480      40.467
2015    7       22     1  54    4.4727   448.6    6.481      40.478
2015    7       22     2   0    4.4733   448.6    6.483      40.491
2015    7       22     2   6    4.4738   448.6    6.484      40.503
2015    7       22     2  12    4.4743   448.7    6.485      40.516
2015    7       22     2  18    4.4748   448.7    6.486      40.528
2015    7       22     2  24    4.4753   448.8    6.487      40.541
2015    7       22     2  31    4.4757   448.8    6.487      40.554
2015    7       22     2  37    4.4761   448.8    6.488      40.566
2015    7       22     2  43    4.4765   448.9    6.489      40.579
2015    7       22     2  49    4.4768   448.9    6.489      40.591
2015    7       22     2  55    4.4771   449.0    6.489      40.603
2015    7       22     3   1    4.4774   449.0    6.490      40.615
2015    7       22     3   8    4.4777   449.0    6.490      40.626
2015    7       22     3  14    4.4779   449.1    6.490      40.636
2015    7       22     3  20    4.4781   449.1    6.490      40.646
2015    7       22     3  26    4.4783   449.2    6.489      40.656
2015    7       22     3  32    4.4785   449.2    6.489      40.665
2015    7       22     3  38    4.4786   449.2    6.489      40.674
2015    7       22     3  45    4.4787   449.3    6.488      40.682
2015    7       22     3  51    4.4788   449.3    6.488      40.690
2015    7       22     3  57    4.4789   449.4    6.487      40.697
2015    7       22     4   3    4.4790   449.4    6.486      40.704
2015    7       22     4   9    4.4790   449.4    6.485      40.710
2015    7       22     4  15    4.4791   449.5    6.484      40.716
2015    7       22     4  21    4.4791   449.5    6.484      40.722
2015    7       22     4  28    4.4791   449.6    6.482      40.727
2015    7       22     4  34    4.4791   449.6    6.481      40.732
2015    7       22     4  40    4.4791   449.6    6.480      40.737
2015    7       22     4  46    4.4791   449.7    6.479      40.742
2015    7       22     4  52    4.4790   449.7    6.478      40.747
2015    7       22     4  58    4.4790   449.8    6.476      40.751
2015    7       22     5   5    4.4789   449.8    6.475      40.755
2015    7       22     5  11    4.4789   449.8    6.474      40.759
2015    7       22     5  17    4.4787   449.9    6.472      40.763
2015    7       22     5  23    4.4786   449.9    6.470      40.766
2015    7       22     5  29    4.4785   449.9    6.469      40.770
2015    7       22     5  35    4.4784   450.0    6.467      40.773
2015    7       22     5  42    4.4782   450.0    6.465      40.776
2015    7       22     5  48    4.4780   450.1    6.463      40.779
2015    7       22     5  54    4.4779   450.1    6.461      40.782
2015    7       22     6   0    4.4777   450.1    6.460      40.784
2015    7       22     6   6    4.4774   450.2    6.458      40.786
2015    7       22     6  12    4.4772   450.2    6.455      40.788
2015    7       22     6  19    4.4770   450.3    6.453      40.790
2015    7       22     6  25    4.4767   450.3    6.451      40.791
2015    7       22     6  31    4.4765   450.4    6.449      40.793
2015    7       22     6  37    4.4762   450.4    6.447      40.794
2015    7       22     6  43    4.4759   450.4    6.445      40.795
2015    7       22     6  49    4.4756   450.5    6.442      40.796
2015    7       22     6  56    4.4753   450.5    6.440      40.797
2015    7       22     7   2    4.4750   450.6    6.438      40.797
2015    7       22     7   8    4.4747   450.6    6.435      40.798
2015    7       22     7  14    4.4743   450.6    6.433      40.798
2015    7       22     7  20    4.4740   450.7    6.431      40.799
2015    7       22     7  26    4.4736   450.7    6.429      40.799
2015    7       22     7  33    4.4733   450.8    6.426      40.799
2015    7       22     7  39    4.4729   450.8    6.424      40.800
2015    7       22     7  45    4.4726   450.9    6.422      40.800
2015    7       22     7  51    4.4722   450.9    6.419      40.800
2015    7       22     7  57    4.4718   450.9    6.417      40.801
2015    7       22     8   3    4.4714   451.0    6.415      40.801
2015    7       22     8  10    4.4711   451.0    6.413      40.802
2015    7       22     8  16    4.4707   451.1    6.411      40.802
2015    7       22     8  22    4.4703   451.1    6.409      40.803
2015    7       22     8  28    4.4699   451.1    6.407      40.804
2015    7       22     8  34    4.4695   451.2    6.405      40.805
2015    7       22     8  40    4.4691   451.2    6.403      40.805
2015    7       22     8  47    4.4687   451.3    6.401      40.806
2015    7       22     8  53    4.4683   451.3    6.399      40.808
2015    7       22     8  59    4.4679   451.4    6.397      40.810
2015    7       22     9   5    4.4675   451.4    6.396      40.812
2015    7       22     9  11    4.4671   451.4    6.394      40.814
2015    7       22     9  17    4.4667   451.5    6.392      40.817
2015    7       22     9  24    4.4663   451.5    6.390      40.819
2015    7       22     9  30    4.4658   451.6    6.389      40.822
2015    7       22     9  36    4.4654   451.6    6.387      40.825
2015    7       22     9  42    4.4649   451.7    6.385      40.828
2015    7       22     9  48    4.4644   451.7    6.384      40.831
2015    7       22     9  54    4.4639   451.8    6.382      40.834
2015    7       22    10   1    4.4634   451.8    6.380      40.837
2015    7       22    10   7    4.4628   451.9    6.378      40.839
2015    7       22    10  13    4.4623   451.9    6.376      40.842
2015    7       22    10  19    4.4617   451.9    6.374      40.843
2015    7       22    10  25    4.4611   452.0    6.372      40.845
2015    7       22    10  31    4.4604   452.0    6.369      40.846
2015    7       22    10  38    4.4598   452.1    6.367      40.847
2015    7       22    10  44    4.4591   452.1    6.365      40.847
2015    7       22    10  50    4.4585   452.2    6.363      40.847
2015    7       22    10  56    4.4578   452.2    6.360      40.847
2015    7       22    11   2    4.4571   452.3    6.358      40.847
2015    7       22    11   8    4.4564   452.3    6.356      40.847
2015    7       22    11  15    4.4556   452.3    6.353      40.846
2015    7       22    11  21    4.4549   452.4    6.351      40.845
2015    7       22    11  27    4.4541   452.4    6.348      40.844
2015    7       22    11  33    4.4532   452.5    6.346      40.843
2015    7       22    11  39    4.4524   452.5    6.343      40.842
2015    7       22    11  45    4.4515   452.5    6.341      40.841
2015    7       22    11  51    4.4506   452.6    6.338      40.840
2015    7       22    11  58    4.4496   452.6    6.336      40.839
2015    7       22    12   4    4.4486   452.7    6.333      40.837
2015    7       22    12  10    4.4476   452.7    6.330      40.836
2015    7       22    12  16    4.4465   452.7    6.327      40.834
2015    7       22    12  22    4.4453   452.8    6.324      40.833
2015    7       22    12  28    4.4441   452.8    6.321      40.831
2015    7       22    12  35    4.4428   452.9    6.318      40.829
2015    7       22    12  41    4.4415   452.9    6.315      40.827
2015    7       22    12  47    4.4402   452.9    6.311      40.824
2015    7       22    12  53    4.4388   453.0    6.308      40.821
2015    7       22    12  59    4.4373   453.0    6.305      40.818
2015    7       22    13   5    4.4358   453.1    6.301      40.815
2015    7       22    13  12    4.4342   453.1    6.297      40.810
2015    7       22    13  18    4.4326   453.1    6.294      40.806
2015    7       22    13  24    4.4310   453.2    6.290      40.802
2015    7       22    13  30    4.4292   453.2    6.286      40.797
2015    7       22    13  36    4.4275   453.3    6.282      40.791
2015    7       22    13  42    4.4257   453.3    6.278      40.786
2015    7       22    13  49    4.4239   453.3    6.274      40.780
2015    7       22    13  55    4.4220   453.4    6.270      40.774
2015    7       22    14   1    4.4202   453.4    6.266      40.767
2015    7       22    14   7    4.4182   453.4    6.262      40.760
2015    7       22    14  13    4.4163   453.5    6.258      40.753
2015    7       22    14  19    4.4143   453.5    6.254      40.746
2015    7       22    14  26    4.4123   453.5    6.250      40.738
2015    7       22    14  32    4.4103   453.6    6.246      40.730
2015    7       22    14  38    4.4083   453.6    6.241      40.722
2015    7       22    14  44    4.4063   453.6    6.237      40.714
2015    7       22    14  50    4.4042   453.7    6.233      40.705
2015    7       22    14  56    4.4022   453.7    6.228      40.697
2015    7       22    15   3    4.4001   453.7    6.224      40.688
2015    7       22    15   9    4.3980   453.8    6.220      40.679
2015    7       22    15  15    4.3960   453.8    6.215      40.669
2015    7       22    15  21    4.3939   453.8    6.211      40.660
2015    7       22    15  27    4.3918   453.9    6.207      40.650
2015    7       22    15  33    4.3898   453.9    6.202      40.640
2015    7       22    15  40    4.3877   453.9    6.198      40.630
2015    7       22    15  46    4.3857   454.0    6.193      40.620
2015    7       22    15  52    4.3836   454.0    6.189      40.610
2015    7       22    15  58    4.3816   454.0    6.185      40.599
2015    7       22    16   4    4.3796   454.1    6.180      40.588
2015    7       22    16  10    4.3777   454.1    6.176      40.578
2015    7       22    16  17    4.3757   454.1    6.171      40.567
2015    7       22    16  23    4.3738   454.1    6.167      40.556
2015    7       22    16  29    4.3719   454.2    6.163      40.544
2015    7       22    16  35    4.3700   454.2    6.159      40.533
2015    7       22    16  41    4.3681   454.2    6.154      40.522
2015    7       22    16  47    4.3663   454.3    6.150      40.510
2015    7       22    16  54    4.3645   454.3    6.146      40.499
2015    7       22    17   0    4.3628   454.3    6.142      40.488
2015    7       22    17   6    4.3611   454.3    6.138      40.476
2015    7       22    17  12    4.3594   454.4    6.134      40.465
2015    7       22    17  18    4.3578   454.4    6.131      40.454
2015    7       22    17  24    4.3562   454.4    6.127      40.443
2015    7       22    17  31    4.3546   454.4    6.123      40.433
2015    7       22    17  37    4.3531   454.5    6.120      40.422
2015    7       22    17  43    4.3517   454.5    6.117      40.412
2015    7       22    17  49    4.3503   454.5    6.114      40.402
2015    7       22    17  55    4.3489   454.5    6.110      40.393
2015    7       22    18   1    4.3476   454.6    6.108      40.384
2015    7       22    18   8    4.3463   454.6    6.105      40.375
2015    7       22    18  14    4.3451   454.6    6.102      40.367
2015    7       22    18  20    4.3439   454.6    6.100      40.359
2015    7       22    18  26    4.3428   454.7    6.097      40.351
2015    7       22    18  32    4.3417   454.7    6.095      40.343
2015    7       22    18  38    4.3407   454.7    6.093      40.336
2015    7       22    18  44    4.3396   454.7    6.091      40.328
2015    7       22    18  51    4.3387   454.8    6.089      40.321
2015    7       22    18  57    4.3378   454.8    6.087      40.313
2015    7       22    19   3    4.3370   454.8    6.085      40.305
2015    7       22    19   9    4.3361   454.8    6.083      40.297
2015    7       22    19  15    4.3354   454.9    6.082      40.289
2015    7       22    19  21    4.3347   454.9    6.080      40.280
2015    7       22    19  28    4.3340   454.9    6.078      40.271
2015    7       22    19  34    4.3334   454.9    6.076      40.261
2015    7       22    19  40    4.3328   455.0    6.074      40.251
2015    7       22    19  46    4.3323   455.0    6.072      40.241
2015    7       22    19  52    4.3318   455.0    6.070      40.230
2015    7       22    19  58    4.3314   455.0    6.068      40.218
2015    7       22    20   5    4.3310   455.0    6.066      40.205
2015    7       22    20  11    4.3307   455.1    6.064      40.191
2015    7       22    20  17    4.3304   455.1    6.061      40.177
2015    7       22    20  23    4.3302   455.1    6.058      40.161
2015    7       22    20  29    4.3301   455.1    6.056      40.146
2015    7       22    20  35    4.3300   455.1    6.053      40.129
2015    7       22    20  42    4.3300   455.1    6.050      40.111
2015    7       22    20  48    4.3300   455.1    6.047      40.093
2015    7       22    20  54    4.3301   455.1    6.044      40.074
2015    7       22    21   0    4.3303   455.2    6.040      40.054
2015    7       22    21   6    4.3305   455.2    6.037      40.034
2015    7       22    21  12    4.3309   455.2    6.033      40.013
2015    7       22    21  19    4.3313   455.2    6.030      39.991
2015    7       22    21  25    4.3318   455.2    6.026      39.969
2015    7       22    21  31    4.3323   455.2    6.022      39.947
2015    7       22    21  37    4.3330   455.2    6.018      39.923
2015    7       22    21  43    4.3337   455.2    6.014      39.900
2015    7       22    21  49    4.3345   455.2    6.010      39.876
2015    7       22    21  56    4.3353   455.1    6.005      39.852
2015    7       22    22   2    4.3361   455.1    6.001      39.827
2015    7       22    22   8    4.3371   455.1    5.997      39.803
2015    7       22    22  14    4.3380   455.1    5.992      39.777
2015    7       22    22  20    4.3389   455.1    5.988      39.752
2015    7       22    22  26    4.3399   455.1    5.983      39.726
2015    7       22    22  33    4.3409   455.1    5.979      39.700
2015    7       22    22  39    4.3418   455.1    5.974      39.674
2015    7       22    22  45    4.3426   455.1    5.969      39.648
2015    7       22    22  51    4.3435   455.1    5.964      39.621
2015    7       22    22  57    4.3443   455.0    5.960      39.595
2015    7       22    23   3    4.3450   455.0    5.955      39.568
2015    7       22    23  10    4.3457   455.0    5.950      39.541
2015    7       22    23  16    4.3463   455.0    5.945      39.514
2015    7       22    23  22    4.3468   455.0    5.940      39.487
2015    7       22    23  28    4.3473   455.0    5.935      39.459
2015    7       22    23  34    4.3477   454.9    5.930      39.432
2015    7       22    23  40    4.3480   454.9    5.925      39.404
2015    7       22    23  47    4.3482   454.9    5.919      39.377
2015    7       22    23  53    4.3484   454.9    5.914      39.349
2015    7       22    23  59    4.3484   454.9    5.909      39.321
2015    7       23     0   5    4.3484   454.8    5.904      39.293
2015    7       23     0  11    4.3484   454.8    5.899      39.265
2015    7       23     0  17    4.3482   454.8    5.893      39.237
2015    7       23     0  24    4.3480   454.8    5.888      39.209
2015    7       23     0  30    4.3477   454.7    5.883      39.181
2015    7       23     0  36    4.3473   454.7    5.878      39.153
2015    7       23     0  42    4.3469   454.7    5.872      39.125
2015    7       23     0  48    4.3464   454.7    5.867      39.096
2015    7       23     0  54    4.3458   454.6    5.862      39.068
2015    7       23     1   0    4.3452   454.6    5.856      39.040
2015    7       23     1   7    4.3445   454.6    5.851      39.012
2015    7       23     1  13    4.3438   454.5    5.846      38.983
2015    7       23     1  19    4.3430   454.5    5.840      38.955
2015    7       23     1  25    4.3422   454.5    5.835      38.927
2015    7       23     1  31    4.3413   454.5    5.830      38.899
2015    7       23     1  37    4.3404   454.4    5.825      38.871
2015    7       23     1  44    4.3394   454.4    5.819      38.843
2015    7       23     1  50    4.3384   454.4    5.814      38.815
2015    7       23     1  56    4.3373   454.3    5.809      38.787
2015    7       23     2   2    4.3362   454.3    5.804      38.759
2015    7       23     2   8    4.3350   454.3    5.799      38.731
2015    7       23     2  14    4.3338   454.2    5.794      38.704
2015    7       23     2  21    4.3326   454.2    5.789      38.677
2015    7       23     2  27    4.3313   454.2    5.784      38.650
2015    7       23     2  33    4.3300   454.1    5.779      38.623
2015    7       23     2  39    4.3287   454.1    5.774      38.596
2015    7       23     2  45    4.3273   454.1    5.769      38.569
2015    7       23     2  51    4.3259   454.0    5.764      38.543
2015    7       23     2  58    4.3245   454.0    5.760      38.517
2015    7       23     3   4    4.3230   454.0    5.755      38.492
2015    7       23     3  10    4.3215   453.9    5.751      38.466
2015    7       23     3  16    4.3200   453.9    5.747      38.441
2015    7       23     3  22    4.3184   453.9    5.742      38.417
2015    7       23     3  28    4.3168   453.8    5.738      38.392
2015    7       23     3  35    4.3152   453.8    5.734      38.369
2015    7       23     3  41    4.3136   453.8    5.730      38.345
2015    7       23     3  47    4.3119   453.7    5.727      38.322
2015    7       23     3  53    4.3102   453.7    5.723      38.300
2015    7       23     3  59    4.3085   453.7    5.719      38.278
2015    7       23     4   5    4.3068   453.6    5.716      38.257
2015    7       23     4  12    4.3051   453.6    5.713      38.237
2015    7       23     4  18    4.3033   453.6    5.710      38.217
2015    7       23     4  24    4.3015   453.5    5.707      38.197
2015    7       23     4  30    4.2997   453.5    5.704      38.179
2015    7       23     4  36    4.2979   453.5    5.702      38.161
2015    7       23     4  42    4.2961   453.4    5.700      38.144
2015    7       23     4  49    4.2942   453.4    5.697      38.127
2015    7       23     4  55    4.2923   453.4    5.696      38.112
2015    7       23     5   1    4.2905   453.4    5.694      38.097
2015    7       23     5   7    4.2886   453.3    5.692      38.083
2015    7       23     5  13    4.2867   453.3    5.691      38.070
2015    7       23     5  19    4.2847   453.3    5.690      38.057
2015    7       23     5  26    4.2828   453.2    5.689      38.046
2015    7       23     5  32    4.2809   453.2    5.688      38.036
2015    7       23     5  38    4.2789   453.2    5.687      38.026
2015    7       23     5  44    4.2770   453.1    5.687      38.017
2015    7       23     5  50    4.2750   453.1    5.686      38.009
2015    7       23     5  56    4.2730   453.1    5.686      38.002
2015    7       23     6   3    4.2710   453.1    5.686      37.996
2015    7       23     6   9    4.2690   453.0    5.686      37.991
2015    7       23     6  15    4.2670   453.0    5.686      37.986
2015    7       23     6  21    4.2649   453.0    5.687      37.982
2015    7       23     6  27    4.2629   453.0    5.687      37.978
2015    7       23     6  33    4.2608   452.9    5.688      37.975
2015    7       23     6  40    4.2588   452.9    5.688      37.972
2015    7       23     6  46    4.2567   452.9    5.689      37.969
2015    7       23     6  52    4.2546   452.9    5.689      37.967
2015    7       23     6  58    4.2526   452.9    5.690      37.964
2015    7       23     7   4    4.2505   452.8    5.690      37.962
2015    7       23     7  10    4.2484   452.8    5.691      37.959
2015    7       23     7  17    4.2463   452.8    5.691      37.957
2015    7       23     7  23    4.2442   452.8    5.692      37.954
2015    7       23     7  29    4.2420   452.7    5.692      37.950
2015    7       23     7  35    4.2399   452.7    5.693      37.947
2015    7       23     7  41    4.2378   452.7    5.693      37.943
2015    7       23     7  47    4.2357   452.7    5.694      37.939
2015    7       23     7  53    4.2335   452.6    5.694      37.935
2015    7       23     8   0    4.2314   452.6    5.694      37.931
2015    7       23     8   6    4.2293   452.6    5.695      37.926
2015    7       23     8  12    4.2271   452.6    5.695      37.921
2015    7       23     8  18    4.2250   452.5    5.695      37.915
2015    7       23     8  24    4.2229   452.5    5.695      37.910
2015    7       23     8  30    4.2208   452.5    5.696      37.904
2015    7       23     8  37    4.2187   452.4    5.696      37.897
2015    7       23     8  43    4.2165   452.4    5.696      37.891
2015    7       23     8  49    4.2144   452.4    5.696      37.884
2015    7       23     8  55    4.2123   452.4    5.696      37.877
2015    7       23     9   1    4.2103   452.3    5.696      37.869
2015    7       23     9   7    4.2082   452.3    5.696      37.862
2015    7       23     9  14    4.2061   452.3    5.696      37.854
2015    7       23     9  20    4.2041   452.3    5.696      37.846
2015    7       23     9  26    4.2020   452.2    5.696      37.837
2015    7       23     9  32    4.2000   452.2    5.696      37.829
2015    7       23     9  38    4.1980   452.2    5.696      37.820
2015    7       23     9  44    4.1960   452.1    5.696      37.811
2015    7       23     9  51    4.1940   452.1    5.696      37.802
2015    7       23     9  57    4.1920   452.1    5.695      37.793
2015    7       23    10   3    4.1900   452.0    5.695      37.783
2015    7       23    10   9    4.1881   452.0    5.695      37.774
2015    7       23    10  15    4.1861   452.0    5.695      37.764
2015    7       23    10  21    4.1842   452.0    5.695      37.754
2015    7       23    10  28    4.1823   451.9    5.695      37.745
2015    7       23    10  34    4.1804   451.9    5.695      37.734
2015    7       23    10  40    4.1785   451.9    5.695      37.724
2015    7       23    10  46    4.1766   451.8    5.695      37.714
2015    7       23    10  52    4.1747   451.8    5.695      37.704
2015    7       23    10  58    4.1728   451.8    5.694      37.694
2015    7       23    11   5    4.1709   451.8    5.694      37.684
2015    7       23    11  11    4.1690   451.7    5.694      37.674
2015    7       23    11  17    4.1671   451.7    5.694      37.664
2015    7       23    11  23    4.1652   451.7    5.693      37.654
2015    7       23    11  29    4.1634   451.6    5.693      37.644
2015    7       23    11  35    4.1615   451.6    5.693      37.633
2015    7       23    11  42    4.1596   451.6    5.692      37.623
2015    7       23    11  48    4.1577   451.6    5.692      37.612
2015    7       23    11  54    4.1559   451.5    5.691      37.602
2015    7       23    12   0    4.1540   451.5    5.690      37.591
2015    7       23    12   6    4.1522   451.5    5.690      37.580
2015    7       23    12  12    4.1503   451.4    5.689      37.569
2015    7       23    12  19    4.1485   451.4    5.688      37.557
2015    7       23    12  25    4.1466   451.4    5.687      37.545
2015    7       23    12  31    4.1448   451.4    5.687      37.534
2015    7       23    12  37    4.1430   451.3    5.686      37.522
2015    7       23    12  43    4.1412   451.3    5.685      37.510
2015    7       23    12  49    4.1394   451.3    5.684      37.498
2015    7       23    12  56    4.1376   451.2    5.683      37.486
2015    7       23    13   2    4.1358   451.2    5.682      37.473
2015    7       23    13   8    4.1340   451.2    5.681      37.461
2015    7       23    13  14    4.1322   451.1    5.681      37.449
2015    7       23    13  20    4.1305   451.1    5.680      37.436
2015    7       23    13  26    4.1287   451.1    5.679      37.423
2015    7       23    13  33    4.1269   451.0    5.678      37.411
2015    7       23    13  39    4.1252   451.0    5.677      37.398
2015    7       23    13  45    4.1235   451.0    5.676      37.386
2015    7       23    13  51    4.1217   451.0    5.675      37.373
2015    7       23    13  57    4.1200   450.9    5.675      37.360
2015    7       23    14   3    4.1183   450.9    5.674      37.348
2015    7       23    14   9    4.1165   450.9    5.673      37.335
2015    7       23    14  16    4.1148   450.8    5.672      37.322
2015    7       23    14  22    4.1131   450.8    5.671      37.310
2015    7       23    14  28    4.1114   450.8    5.670      37.297
2015    7       23    14  34    4.1097   450.8    5.669      37.285
2015    7       23    14  40    4.1080   450.7    5.669      37.272
2015    7       23    14  46    4.1063   450.7    5.668      37.260
2015    7       23    14  53    4.1046   450.7    5.667      37.248
2015    7       23    14  59    4.1029   450.6    5.666      37.235
2015    7       23    15   5    4.1012   450.6    5.665      37.223
2015    7       23    15  11    4.0995   450.6    5.664      37.211
2015    7       23    15  17    4.0979   450.6    5.663      37.198
2015    7       23    15  23    4.0962   450.5    5.662      37.186
2015    7       23    15  30    4.0946   450.5    5.660      37.173
2015    7       23    15  36    4.0929   450.5    5.659      37.161
2015    7       23    15  42    4.0913   450.4    5.658      37.148
2015    7       23    15  48    4.0897   450.4    5.657      37.135
2015    7       23    15  54    4.0881   450.4    5.656      37.123
2015    7       23    16   0    4.0865   450.4    5.654      37.110
2015    7       23    16   7    4.0849   450.3    5.653      37.097
2015    7       23    16  13    4.0833   450.3    5.652      37.084
2015    7       23    16  19    4.0817   450.3    5.651      37.071
2015    7       23    16  25    4.0802   450.2    5.650      37.058
2015    7       23    16  31    4.0786   450.2    5.648      37.045
2015    7       23    16  37    4.0771   450.2    5.647      37.032
2015    7       23    16  44    4.0756   450.1    5.646      37.019
2015    7       23    16  50    4.0741   450.1    5.645      37.006
2015    7       23    16  56    4.0726   450.1    5.644      36.993
2015    7       23    17   2    4.0712   450.0    5.643      36.980
2015    7       23    17   8    4.0697   450.0    5.642      36.968
2015    7       23    17  14    4.0683   450.0    5.641      36.956
2015    7       23    17  21    4.0669   450.0    5.640      36.943
2015    7       23    17  27    4.0656   449.9    5.639      36.931
2015    7       23    17  33    4.0642   449.9    5.638      36.919
2015    7       23    17  39    4.0629   449.9    5.638      36.908
2015    7       23    17  45    4.0616   449.8    5.637      36.896
2015    7       23    17  51    4.0602   449.8    5.636      36.885
2015    7       23    17  58    4.0590   449.8    5.636      36.874
2015    7       23    18   4    4.0577   449.7    5.635      36.863
2015    7       23    18  10    4.0565   449.7    5.635      36.853
2015    7       23    18  16    4.0553   449.7    5.634      36.843
2015    7       23    18  22    4.0541   449.7    5.634      36.833
2015    7       23    18  28    4.0529   449.6    5.634      36.823
2015    7       23    18  35    4.0518   449.6    5.634      36.814
2015    7       23    18  41    4.0507   449.6    5.634      36.805
2015    7       23    18  47    4.0496   449.5    5.634      36.796
2015    7       23    18  53    4.0485   449.5    5.634      36.788
2015    7       23    18  59    4.0475   449.5    5.634      36.780
2015    7       23    19   5    4.0465   449.5    5.634      36.772
2015    7       23    19  12    4.0455   449.4    5.634      36.765
2015    7       23    19  18    4.0445   449.4    5.634      36.758
2015    7       23    19  24    4.0435   449.4    5.635      36.751
2015    7       23    19  30    4.0426   449.3    5.635      36.744
2015    7       23    19  36    4.0417   449.3    5.635      36.738
2015    7       23    19  42    4.0408   449.3    5.636      36.732
2015    7       23    19  49    4.0400   449.3    5.636      36.726
2015    7       23    19  55    4.0392   449.2    5.637      36.720
2015    7       23    20   1    4.0384   449.2    5.637      36.714
2015    7       23    20   7    4.0376   449.2    5.638      36.709
2015    7       23    20  13    4.0368   449.2    5.638      36.703
2015    7       23    20  19    4.0361   449.1    5.638      36.698
2015    7       23    20  26    4.0354   449.1    5.639      36.693
2015    7       23    20  32    4.0347   449.1    5.639      36.687
2015    7       23    20  38    4.0340   449.1    5.640      36.682
2015    7       23    20  44    4.0333   449.0    5.640      36.676
2015    7       23    20  50    4.0327   449.0    5.641      36.670
2015    7       23    20  56    4.0321   449.0    5.641      36.665
2015    7       23    21   2    4.0315   449.0    5.641      36.659
2015    7       23    21   9    4.0309   448.9    5.642      36.652
2015    7       23    21  15    4.0304   448.9    5.642      36.646
2015    7       23    21  21    4.0298   448.9    5.642      36.639
2015    7       23    21  27    4.0293   448.9    5.642      36.632
2015    7       23    21  33    4.0288   448.9    5.643      36.625
2015    7       23    21  39    4.0283   448.8    5.643      36.618
2015    7       23    21  46    4.0278   448.8    5.643      36.610
2015    7       23    21  52    4.0274   448.8    5.643      36.602
2015    7       23    21  58    4.0270   448.8    5.643      36.594
2015    7       23    22   4    4.0266   448.7    5.643      36.586
2015    7       23    22  10    4.0262   448.7    5.643      36.578
2015    7       23    22  16    4.0258   448.7    5.642      36.569
2015    7       23    22  23    4.0254   448.7    5.642      36.560
2015    7       23    22  29    4.0251   448.7    5.642      36.551
2015    7       23    22  35    4.0248   448.6    5.642      36.542
2015    7       23    22  41    4.0245   448.6    5.642      36.533
2015    7       23    22  47    4.0243   448.6    5.641      36.524
2015    7       23    22  53    4.0240   448.6    5.641      36.515
2015    7       23    23   0    4.0238   448.5    5.641      36.505
2015    7       23    23   6    4.0236   448.5    5.640      36.496
2015    7       23    23  12    4.0235   448.5    5.640      36.487
2015    7       23    23  18    4.0233   448.5    5.640      36.477
2015    7       23    23  24    4.0232   448.5    5.639      36.468
2015    7       23    23  30    4.0232   448.4    5.639      36.459
2015    7       23    23  37    4.0231   448.4    5.638      36.450
2015    7       23    23  43    4.0231   448.4    5.638      36.440
2015    7       23    23  49    4.0231   448.4    5.638      36.431
2015    7       23    23  55    4.0231   448.3    5.637      36.422
2015    7       24     0   1    4.0232   448.3    5.637      36.413
2015    7       24     0   7    4.0232   448.3    5.636      36.405
2015    7       24     0  14    4.0234   448.3    5.636      36.396
2015    7       24     0  20    4.0235   448.3    5.635      36.388
2015    7       24     0  26    4.0237   448.2    5.635      36.380
2015    7       24     0  32    4.0239   448.2    5.635      36.371
2015    7       24     0  38    4.0241   448.2    5.634      36.364
2015    7       24     0  44    4.0243   448.2    5.634      36.356
2015    7       24     0  51    4.0246   448.2    5.634      36.348
2015    7       24     0  57    4.0249   448.1    5.633      36.341
2015    7       24     1   3    4.0252   448.1    5.633      36.334
2015    7       24     1   9    4.0255   448.1    5.633      36.327
2015    7       24     1  15    4.0259   448.1    5.633      36.320
2015    7       24     1  21    4.0263   448.1    5.633      36.314
2015    7       24     1  27    4.0267   448.0    5.632      36.308
2015    7       24     1  34    4.0271   448.0    5.632      36.301
2015    7       24     1  40    4.0276   448.0    5.632      36.296
2015    7       24     1  46    4.0281   448.0    5.632      36.290
2015    7       24     1  52    4.0286   447.9    5.632      36.285
2015    7       24     1  58    4.0291   447.9    5.632      36.280
2015    7       24     2   4    4.0296   447.9    5.632      36.275
2015    7       24     2  11    4.0302   447.9    5.632      36.270
2015    7       24     2  17    4.0307   447.8    5.632      36.266
2015    7       24     2  23    4.0313   447.8    5.633      36.262
2015    7       24     2  29    4.0319   447.8    5.633      36.258
2015    7       24     2  35    4.0325   447.8    5.633      36.254
2015    7       24     2  41    4.0332   447.8    5.633      36.251
2015    7       24     2  48    4.0338   447.7    5.634      36.247
2015    7       24     2  54    4.0345   447.7    5.634      36.244
2015    7       24     3   0    4.0352   447.7    5.634      36.241
2015    7       24     3   6    4.0359   447.7    5.635      36.239
2015    7       24     3  12    4.0366   447.6    5.635      36.236
2015    7       24     3  18    4.0373   447.6    5.636      36.234
2015    7       24     3  25    4.0380   447.6    5.636      36.232
2015    7       24     3  31    4.0388   447.5    5.637      36.230
2015    7       24     3  37    4.0395   447.5    5.638      36.228
2015    7       24     3  43    4.0403   447.5    5.638      36.227
2015    7       24     3  49    4.0410   447.5    5.639      36.226
2015    7       24     3  55    4.0418   447.4    5.640      36.224
2015    7       24     4   2    4.0426   447.4    5.641      36.224
2015    7       24     4   8    4.0433   447.4    5.642      36.223
2015    7       24     4  14    4.0441   447.4    5.642      36.222
2015    7       24     4  20    4.0449   447.3    5.643      36.221
2015    7       24     4  26    4.0457   447.3    5.644      36.221
2015    7       24     4  32    4.0465   447.3    5.645      36.221
2015    7       24     4  39    4.0473   447.2    5.646      36.221
2015    7       24     4  45    4.0481   447.2    5.648      36.221
2015    7       24     4  51    4.0490   447.2    5.649      36.221
2015    7       24     4  57    4.0498   447.1    5.650      36.222
2015    7       24     5   3    4.0506   447.1    5.651      36.222
2015    7       24     5   9    4.0514   447.1    5.652      36.223
2015    7       24     5  16    4.0523   447.1    5.654      36.224
2015    7       24     5  22    4.0531   447.0    5.655      36.225
2015    7       24     5  28    4.0539   447.0    5.657      36.226
2015    7       24     5  34    4.0548   447.0    5.658      36.228
2015    7       24     5  40    4.0556   446.9    5.659      36.229
2015    7       24     5  46    4.0565   446.9    5.661      36.231
2015    7       24     5  53    4.0573   446.9    5.663      36.233
2015    7       24     5  59    4.0582   446.8    5.664      36.235
2015    7       24     6   5    4.0590   446.8    5.666      36.237
2015    7       24     6  11    4.0598   446.8    5.668      36.240
2015    7       24     6  17    4.0607   446.7    5.669      36.242
2015    7       24     6  23    4.0615   446.7    5.671      36.245
2015    7       24     6  30    4.0624   446.7    5.673      36.248
2015    7       24     6  36    4.0632   446.6    5.675      36.251
2015    7       24     6  42    4.0641   446.6    5.677      36.254
2015    7       24     6  48    4.0649   446.6    5.678      36.258
2015    7       24     6  54    4.0658   446.5    5.680      36.261
2015    7       24     7   0    4.0666   446.5    5.682      36.265
2015    7       24     7   6    4.0675   446.5    5.684      36.269
2015    7       24     7  13    4.0683   446.4    5.686      36.273
2015    7       24     7  19    4.0691   446.4    5.689      36.277
2015    7       24     7  25    4.0700   446.4    5.691      36.282
2015    7       24     7  31    4.0709   446.3    5.693      36.286
2015    7       24     7  37    4.0717   446.3    5.695      36.291
2015    7       24     7  43    4.0726   446.3    5.697      36.296
2015    7       24     7  50    4.0734   446.2    5.699      36.301
2015    7       24     7  56    4.0743   446.2    5.702      36.306
2015    7       24     8   2    4.0751   446.2    5.704      36.312
2015    7       24     8   8    4.0760   446.2    5.706      36.318
2015    7       24     8  14    4.0768   446.1    5.708      36.324
2015    7       24     8  20    4.0776   446.1    5.710      36.331
2015    7       24     8  27    4.0785   446.1    5.713      36.338
2015    7       24     8  33    4.0793   446.0    5.715      36.345
2015    7       24     8  39    4.0801   446.0    5.717      36.352
2015    7       24     8  45    4.0809   446.0    5.719      36.359
2015    7       24     8  51    4.0817   445.9    5.721      36.367
2015    7       24     8  57    4.0825   445.9    5.723      36.375
2015    7       24     9   4    4.0832   445.9    5.725      36.383
2015    7       24     9  10    4.0840   445.9    5.727      36.390
2015    7       24     9  16    4.0847   445.8    5.729      36.398
2015    7       24     9  22    4.0854   445.8    5.731      36.406
2015    7       24     9  28    4.0861   445.8    5.733      36.414
2015    7       24     9  34    4.0869   445.8    5.735      36.421
2015    7       24     9  41    4.0875   445.7    5.737      36.429
2015    7       24     9  47    4.0882   445.7    5.739      36.437
2015    7       24     9  53    4.0889   445.7    5.741      36.444
2015    7       24     9  59    4.0895   445.7    5.742      36.451
2015    7       24    10   5    4.0901   445.6    5.744      36.459
2015    7       24    10  11    4.0907   445.6    5.746      36.466
2015    7       24    10  18    4.0913   445.6    5.747      36.473
2015    7       24    10  24    4.0919   445.6    5.749      36.480
2015    7       24    10  30    4.0924   445.5    5.750      36.486
2015    7       24    10  36    4.0929   445.5    5.752      36.493
2015    7       24    10  42    4.0934   445.5    5.753      36.499
2015    7       24    10  48    4.0939   445.5    5.755      36.505
2015    7       24    10  55    4.0944   445.5    5.756      36.512
2015    7       24    11   1    4.0949   445.4    5.757      36.517
2015    7       24    11   7    4.0953   445.4    5.759      36.523
2015    7       24    11  13    4.0957   445.4    5.760      36.528
2015    7       24    11  19    4.0961   445.4    5.761      36.533
2015    7       24    11  25    4.0965   445.4    5.762      36.538
2015    7       24    11  32    4.0968   445.3    5.763      36.543
2015    7       24    11  38    4.0972   445.3    5.764      36.547
2015    7       24    11  44    4.0975   445.3    5.765      36.551
2015    7       24    11  50    4.0978   445.3    5.766      36.555
2015    7       24    11  56    4.0981   445.3    5.767      36.559
2015    7       24    12   2    4.0984   445.2    5.768      36.562
2015    7       24    12   9    4.0987   445.2    5.769      36.565
2015    7       24    12  15    4.0989   445.2    5.769      36.569
2015    7       24    12  21    4.0992   445.2    5.770      36.572
2015    7       24    12  27    4.0994   445.2    5.771      36.574
2015    7       24    12  33    4.0996   445.1    5.771      36.577
2015    7       24    12  39    4.0998   445.1    5.772      36.579
2015    7       24    12  46    4.0999   445.1    5.773      36.581
2015    7       24    12  52    4.1001   445.1    5.773      36.584
2015    7       24    12  58    4.1003   445.1    5.774      36.586
2015    7       24    13   4    4.1004   445.0    5.774      36.587
2015    7       24    13  10    4.1005   445.0    5.775      36.589
2015    7       24    13  16    4.1006   445.0    5.775      36.591
2015    7       24    13  22    4.1007   445.0    5.776      36.592
2015    7       24    13  29    4.1008   445.0    5.776      36.593
2015    7       24    13  35    4.1009   445.0    5.777      36.595
2015    7       24    13  41    4.1009   444.9    5.777      36.596
2015    7       24    13  47    4.1009   444.9    5.777      36.597
2015    7       24    13  53    4.1010   444.9    5.778      36.598
2015    7       24    13  59    4.1010   444.9    5.778      36.599
2015    7       24    14   6    4.1010   444.9    5.779      36.599
2015    7       24    14  12    4.1010   444.8    5.779      36.600
2015    7       24    14  18    4.1010   444.8    5.779      36.601
2015    7       24    14  24    4.1010   444.8    5.780      36.601
2015    7       24    14  30    4.1009   444.8    5.780      36.602
2015    7       24    14  36    4.1009   444.8    5.780      36.602
2015    7       24    14  43    4.1008   444.8    5.781      36.603
2015    7       24    14  49    4.1007   444.7    5.781      36.603
2015    7       24    14  55    4.1007   444.7    5.781      36.603
2015    7       24    15   1    4.1006   444.7    5.781      36.604
2015    7       24    15   7    4.1005   444.7    5.782      36.604
2015    7       24    15  13    4.1004   444.7    5.782      36.604
2015    7       24    15  20    4.1003   444.7    5.782      36.604
2015    7       24    15  26    4.1002   444.6    5.782      36.604
2015    7       24    15  32    4.1000   444.6    5.783      36.605
2015    7       24    15  38    4.0999   444.6    5.783      36.605
2015    7       24    15  44    4.0998   444.6    5.783      36.605
2015    7       24    15  50    4.0996   444.6    5.783      36.605
2015    7       24    15  57    4.0994   444.6    5.784      36.605
2015    7       24    16   3    4.0992   444.6    5.784      36.605
2015    7       24    16   9    4.0991   444.5    5.784      36.605
2015    7       24    16  15    4.0989   444.5    5.784      36.605
2015    7       24    16  21    4.0987   444.5    5.784      36.605
2015    7       24    16  27    4.0984   444.5    5.785      36.605
2015    7       24    16  34    4.0982   444.5    5.785      36.605
2015    7       24    16  40    4.0980   444.5    5.785      36.605
2015    7       24    16  46    4.0977   444.5    5.785      36.605
2015    7       24    16  52    4.0974   444.4    5.785      36.605
2015    7       24    16  58    4.0971   444.4    5.785      36.605
2015    7       24    17   4    4.0968   444.4    5.785      36.605
2015    7       24    17  11    4.0965   444.4    5.785      36.605
2015    7       24    17  17    4.0962   444.4    5.786      36.605
2015    7       24    17  23    4.0959   444.4    5.786      36.605
2015    7       24    17  29    4.0955   444.4    5.786      36.605
2015    7       24    17  35    4.0952   444.4    5.786      36.605
2015    7       24    17  41    4.0948   444.3    5.786      36.605
2015    7       24    17  48    4.0944   444.3    5.786      36.605
2015    7       24    17  54    4.0940   444.3    5.786      36.605
2015    7       24    18   0    4.0936   444.3    5.785      36.604
2015    7       24    18   6    4.0931   444.3    5.785      36.604
2015    7       24    18  12    4.0927   444.3    5.785      36.604
2015    7       24    18  18    4.0922   444.3    5.785      36.603
2015    7       24    18  25    4.0917   444.3    5.785      36.603
2015    7       24    18  31    4.0912   444.3    5.785      36.602
2015    7       24    18  37    4.0907   444.2    5.784      36.602
2015    7       24    18  43    4.0902   444.2    5.784      36.601
2015    7       24    18  49    4.0897   444.2    5.784      36.601
2015    7       24    18  55    4.0891   444.2    5.784      36.600
2015    7       24    19   2    4.0886   444.2    5.783      36.599
2015    7       24    19   8    4.0880   444.2    5.783      36.598
2015    7       24    19  14    4.0874   444.2    5.782      36.597
2015    7       24    19  20    4.0868   444.2    5.782      36.596
2015    7       24    19  26    4.0862   444.1    5.781      36.595
2015    7       24    19  32    4.0855   444.1    5.781      36.593
2015    7       24    19  38    4.0849   444.1    5.780      36.592
2015    7       24    19  45    4.0842   444.1    5.780      36.591
2015    7       24    19  51    4.0836   444.1    5.779      36.589
2015    7       24    19  57    4.0829   444.1    5.779      36.587
2015    7       24    20   3    4.0822   444.1    5.778      36.586
2015    7       24    20   9    4.0815   444.0    5.777      36.584
2015    7       24    20  15    4.0808   444.0    5.777      36.582
2015    7       24    20  22    4.0800   444.0    5.776      36.580
2015    7       24    20  28    4.0793   444.0    5.775      36.578
2015    7       24    20  34    4.0785   444.0    5.775      36.576
2015    7       24    20  40    4.0778   444.0    5.774      36.574
2015    7       24    20  46    4.0770   444.0    5.773      36.572
2015    7       24    20  52    4.0762   443.9    5.772      36.570
2015    7       24    20  59    4.0754   443.9    5.772      36.568
2015    7       24    21   5    4.0746   443.9    5.771      36.565
2015    7       24    21  11    4.0738   443.9    5.770      36.563
2015    7       24    21  17    4.0730   443.9    5.769      36.560
2015    7       24    21  23    4.0722   443.9    5.768      36.558
2015    7       24    21  29    4.0713   443.9    5.768      36.555
2015    7       24    21  36    4.0705   443.8    5.767      36.553
2015    7       24    21  42    4.0696   443.8    5.766      36.550
2015    7       24    21  48    4.0687   443.8    5.765      36.547
2015    7       24    21  54    4.0678   443.8    5.764      36.545
2015    7       24    22   0    4.0669   443.8    5.764      36.542
2015    7       24    22   6    4.0660   443.8    5.763      36.539
2015    7       24    22  13    4.0650   443.8    5.762      36.536
2015    7       24    22  19    4.0641   443.8    5.761      36.533
2015    7       24    22  25    4.0631   443.7    5.760      36.530
2015    7       24    22  31    4.0621   443.7    5.760      36.527
2015    7       24    22  37    4.0612   443.7    5.759      36.524
2015    7       24    22  43    4.0602   443.7    5.758      36.521
2015    7       24    22  50    4.0591   443.7    5.757      36.518
2015    7       24    22  56    4.0581   443.7    5.756      36.514
2015    7       24    23   2    4.0571   443.7    5.755      36.511
2015    7       24    23   8    4.0560   443.6    5.754      36.507
2015    7       24    23  14    4.0549   443.6    5.753      36.504
2015    7       24    23  20    4.0538   443.6    5.752      36.500
2015    7       24    23  27    4.0527   443.6    5.751      36.496
2015    7       24    23  33    4.0516   443.6    5.750      36.492
2015    7       24    23  39    4.0504   443.6    5.749      36.488
2015    7       24    23  45    4.0493   443.5    5.748      36.484
2015    7       24    23  51    4.0481   443.5    5.747      36.479
2015    7       24    23  57    4.0469   443.5    5.746      36.474
2015    7       25     0   4    4.0457   443.5    5.745      36.470
2015    7       25     0  10    4.0445   443.5    5.743      36.465
2015    7       25     0  16    4.0432   443.5    5.742      36.460
2015    7       25     0  22    4.0420   443.4    5.741      36.454
2015    7       25     0  28    4.0407   443.4    5.740      36.449
2015    7       25     0  34    4.0394   443.4    5.739      36.443
2015    7       25     0  40    4.0381   443.4    5.737      36.437
2015    7       25     0  47    4.0368   443.4    5.736      36.431
2015    7       25     0  53    4.0354   443.3    5.735      36.425
2015    7       25     0  59    4.0341   443.3    5.733      36.419
2015    7       25     1   5    4.0327   443.3    5.732      36.412
2015    7       25     1  11    4.0313   443.3    5.731      36.405
2015    7       25     1  17    4.0299   443.3    5.729      36.398
2015    7       25     1  24    4.0285   443.3    5.728      36.391
2015    7       25     1  30    4.0271   443.2    5.727      36.384
2015    7       25     1  36    4.0256   443.2    5.725      36.376
2015    7       25     1  42    4.0242   443.2    5.724      36.369
2015    7       25     1  48    4.0227   443.2    5.722      36.361
2015    7       25     1  54    4.0212   443.1    5.721      36.352
2015    7       25     2   1    4.0197   443.1    5.719      36.344
2015    7       25     2   7    4.0183   443.1    5.717      36.336
2015    7       25     2  13    4.0167   443.1    5.716      36.327
2015    7       25     2  19    4.0152   443.0    5.714      36.318
2015    7       25     2  25    4.0137   443.0    5.713      36.309
2015    7       25     2  31    4.0121   443.0    5.711      36.300
2015    7       25     2  38    4.0106   443.0    5.710      36.290
2015    7       25     2  44    4.0090   442.9    5.708      36.281
2015    7       25     2  50    4.0074   442.9    5.706      36.271
2015    7       25     2  56    4.0059   442.9    5.705      36.261
2015    7       25     3   2    4.0043   442.9    5.703      36.251
2015    7       25     3   8    4.0027   442.8    5.701      36.241
2015    7       25     3  15    4.0011   442.8    5.700      36.231
2015    7       25     3  21    3.9995   442.8    5.698      36.220
2015    7       25     3  27    3.9979   442.7    5.697      36.210
2015    7       25     3  33    3.9962   442.7    5.695      36.199
2015    7       25     3  39    3.9946   442.7    5.693      36.188
2015    7       25     3  45    3.9930   442.7    5.692      36.178
2015    7       25     3  52    3.9913   442.6    5.690      36.167
2015    7       25     3  58    3.9897   442.6    5.689      36.156
2015    7       25     4   4    3.9880   442.6    5.687      36.145
2015    7       25     4  10    3.9864   442.5    5.686      36.134
2015    7       25     4  16    3.9847   442.5    5.684      36.123
2015    7       25     4  22    3.9831   442.5    5.683      36.112
2015    7       25     4  29    3.9814   442.4    5.681      36.100
2015    7       25     4  35    3.9797   442.4    5.680      36.089
2015    7       25     4  41    3.9781   442.4    5.678      36.078
2015    7       25     4  47    3.9764   442.3    5.676      36.067
2015    7       25     4  53    3.9747   442.3    5.675      36.055
2015    7       25     4  59    3.9730   442.3    5.673      36.044
2015    7       25     5   6    3.9713   442.2    5.672      36.032
2015    7       25     5  12    3.9696   442.2    5.670      36.021
2015    7       25     5  18    3.9679   442.1    5.669      36.009
2015    7       25     5  24    3.9662   442.1    5.667      35.998
2015    7       25     5  30    3.9645   442.1    5.666      35.986
2015    7       25     5  36    3.9628   442.0    5.664      35.974
2015    7       25     5  42    3.9610   442.0    5.662      35.962
2015    7       25     5  49    3.9593   442.0    5.661      35.950
2015    7       25     5  55    3.9575   441.9    5.659      35.937
2015    7       25     6   1    3.9558   441.9    5.657      35.925
2015    7       25     6   7    3.9540   441.8    5.655      35.912
2015    7       25     6  13    3.9522   441.8    5.654      35.900
2015    7       25     6  19    3.9504   441.7    5.652      35.887
2015    7       25     6  26    3.9487   441.7    5.650      35.874
2015    7       25     6  32    3.9469   441.7    5.648      35.860
2015    7       25     6  38    3.9451   441.6    5.646      35.847
2015    7       25     6  44    3.9433   441.6    5.644      35.833
2015    7       25     6  50    3.9415   441.5    5.642      35.820
2015    7       25     6  56    3.9397   441.5    5.640      35.806
2015    7       25     7   3    3.9379   441.4    5.638      35.791
2015    7       25     7   9    3.9361   441.4    5.636      35.777
2015    7       25     7  15    3.9343   441.3    5.634      35.762
2015    7       25     7  21    3.9325   441.3    5.632      35.747
2015    7       25     7  27    3.9307   441.2    5.630      35.732
2015    7       25     7  33    3.9289   441.2    5.628      35.717
2015    7       25     7  40    3.9272   441.1    5.625      35.701
2015    7       25     7  46    3.9253   441.1    5.623      35.685
2015    7       25     7  52    3.9236   441.0    5.621      35.669
2015    7       25     7  58    3.9217   441.0    5.618      35.652
2015    7       25     8   4    3.9200   440.9    5.616      35.636
2015    7       25     8  10    3.9181   440.9    5.614      35.619
2015    7       25     8  17    3.9163   440.8    5.611      35.601
2015    7       25     8  23    3.9145   440.8    5.609      35.584
2015    7       25     8  29    3.9127   440.7    5.607      35.566
2015    7       25     8  35    3.9109   440.6    5.604      35.548
2015    7       25     8  41    3.9091   440.6    5.602      35.530
2015    7       25     8  47    3.9073   440.5    5.599      35.512
2015    7       25     8  54    3.9054   440.5    5.597      35.493
2015    7       25     9   0    3.9036   440.4    5.594      35.474
2015    7       25     9   6    3.9018   440.4    5.592      35.455
2015    7       25     9  12    3.9000   440.3    5.590      35.436
2015    7       25     9  18    3.8981   440.2    5.587      35.416
2015    7       25     9  24    3.8963   440.2    5.585      35.397
2015    7       25     9  31    3.8945   440.1    5.582      35.377
2015    7       25     9  37    3.8927   440.0    5.580      35.356
2015    7       25     9  43    3.8908   440.0    5.577      35.336
2015    7       25     9  49    3.8890   439.9    5.575      35.316
2015    7       25     9  55    3.8872   439.8    5.573      35.295
2015    7       25    10   1    3.8854   439.8    5.570      35.275
2015    7       25    10   8    3.8836   439.7    5.568      35.254
2015    7       25    10  14    3.8818   439.6    5.566      35.233
2015    7       25    10  20    3.8800   439.6    5.564      35.212
2015    7       25    10  26    3.8782   439.5    5.561      35.191
2015    7       25    10  32    3.8764   439.4    5.559      35.169
2015    7       25    10  38    3.8746   439.4    5.557      35.148
2015    7       25    10  45    3.8728   439.3    5.555      35.127
2015    7       25    10  51    3.8710   439.2    5.553      35.105
2015    7       25    10  57    3.8693   439.2    5.551      35.084
2015    7       25    11   3    3.8675   439.1    5.549      35.063
2015    7       25    11   9    3.8658   439.0    5.548      35.041
2015    7       25    11  15    3.8640   438.9    5.546      35.020
2015    7       25    11  22    3.8623   438.9    5.544      34.999
2015    7       25    11  28    3.8606   438.8    5.543      34.977
2015    7       25    11  34    3.8589   438.7    5.541      34.956
2015    7       25    11  40    3.8572   438.6    5.540      34.935
2015    7       25    11  46    3.8555   438.6    5.538      34.914
2015    7       25    11  52    3.8538   438.5    5.537      34.893
2015    7       25    11  58    3.8521   438.4    5.535      34.872
2015    7       25    12   5    3.8505   438.3    5.534      34.851
2015    7       25    12  11    3.8488   438.3    5.533      34.830
2015    7       25    12  17    3.8472   438.2    5.532      34.809
2015    7       25    12  23    3.8455   438.1    5.531      34.788
2015    7       25    12  29    3.8438   438.0    5.530      34.767
2015    7       25    12  35    3.8422   437.9    5.529      34.746
2015    7       25    12  42    3.8406   437.9    5.528      34.725
2015    7       25    12  48    3.8389   437.8    5.527      34.704
2015    7       25    12  54    3.8373   437.7    5.526      34.683
2015    7       25    13   0    3.8357   437.6    5.525      34.662
2015    7       25    13   6    3.8341   437.5    5.524      34.641
2015    7       25    13  12    3.8325   437.4    5.523      34.620
2015    7       25    13  19    3.8309   437.3    5.523      34.599
2015    7       25    13  25    3.8293   437.3    5.522      34.578
2015    7       25    13  31    3.8277   437.2    5.521      34.558
2015    7       25    13  37    3.8262   437.1    5.520      34.537
2015    7       25    13  43    3.8246   437.0    5.520      34.516
2015    7       25    13  49    3.8231   436.9    5.519      34.495
2015    7       25    13  56    3.8216   436.8    5.518      34.474
2015    7       25    14   2    3.8201   436.7    5.518      34.454
2015    7       25    14   8    3.8187   436.6    5.517      34.433
2015    7       25    14  14    3.8172   436.5    5.517      34.413
2015    7       25    14  20    3.8158   436.4    5.516      34.392
2015    7       25    14  26    3.8144   436.4    5.516      34.371
2015    7       25    14  33    3.8130   436.3    5.515      34.351
2015    7       25    14  39    3.8117   436.2    5.515      34.330
2015    7       25    14  45    3.8103   436.1    5.515      34.309
2015    7       25    14  51    3.8090   436.0    5.514      34.289
2015    7       25    14  57    3.8077   435.9    5.514      34.269
2015    7       25    15   3    3.8064   435.8    5.513      34.248
2015    7       25    15  10    3.8051   435.7    5.513      34.228
2015    7       25    15  16    3.8038   435.6    5.513      34.208
2015    7       25    15  22    3.8026   435.5    5.512      34.188
2015    7       25    15  28    3.8013   435.4    5.512      34.167
2015    7       25    15  34    3.8001   435.3    5.511      34.147
2015    7       25    15  40    3.7988   435.2    5.511      34.127
2015    7       25    15  47    3.7976   435.1    5.510      34.106
2015    7       25    15  53    3.7964   435.0    5.509      34.085
2015    7       25    15  59    3.7952   434.9    5.509      34.065
2015    7       25    16   5    3.7940   434.8    5.508      34.044
2015    7       25    16  11    3.7928   434.7    5.507      34.023
2015    7       25    16  17    3.7916   434.6    5.506      34.001
2015    7       25    16  24    3.7904   434.5    5.505      33.980
2015    7       25    16  30    3.7892   434.4    5.504      33.958
2015    7       25    16  36    3.7880   434.3    5.504      33.936
2015    7       25    16  42    3.7868   434.2    5.503      33.914
2015    7       25    16  48    3.7856   434.1    5.502      33.892
2015    7       25    16  54    3.7844   434.0    5.501      33.869
2015    7       25    17   1    3.7833   433.9    5.499      33.846
2015    7       25    17   7    3.7821   433.8    5.498      33.823
2015    7       25    17  13    3.7809   433.7    5.497      33.800
2015    7       25    17  19    3.7798   433.6    5.496      33.777
2015    7       25    17  25    3.7786   433.5    5.495      33.753
2015    7       25    17  31    3.7775   433.4    5.494      33.729
2015    7       25    17  38    3.7763   433.3    5.493      33.706
2015    7       25    17  44    3.7752   433.2    5.492      33.681
2015    7       25    17  50    3.7740   433.1    5.491      33.657
2015    7       25    17  56    3.7729   433.0    5.489      33.633
2015    7       25    18   2    3.7718   432.9    5.488      33.608
2015    7       25    18   8    3.7707   432.8    5.487      33.584
2015    7       25    18  14    3.7696   432.7    5.486      33.559
2015    7       25    18  21    3.7685   432.6    5.485      33.534
2015    7       25    18  27    3.7675   432.5    5.484      33.509
2015    7       25    18  33    3.7664   432.4    5.483      33.484
2015    7       25    18  39    3.7653   432.3    5.482      33.459
2015    7       25    18  45    3.7643   432.2    5.481      33.434
2015    7       25    18  51    3.7633   432.0    5.480      33.409
2015    7       25    18  58    3.7622   431.9    5.479      33.384
2015    7       25    19   4    3.7612   431.8    5.478      33.359
2015    7       25    19  10    3.7603   431.7    5.478      33.334
2015    7       25    19  16    3.7593   431.6    5.477      33.309
2015    7       25    19  22    3.7583   431.5    5.476      33.284
2015    7       25    19  28    3.7574   431.4    5.475      33.259
2015    7       25    19  35    3.7565   431.3    5.475      33.235
2015    7       25    19  41    3.7555   431.2    5.474      33.210
2015    7       25    19  47    3.7546   431.0    5.474      33.185
2015    7       25    19  53    3.7538   430.9    5.473      33.160
2015    7       25    19  59    3.7529   430.8    5.473      33.136
2015    7       25    20   5    3.7520   430.7    5.473      33.112
2015    7       25    20  12    3.7512   430.6    5.473      33.087
2015    7       25    20  18    3.7504   430.5    5.472      33.063
2015    7       25    20  24    3.7496   430.4    5.472      33.039
2015    7       25    20  30    3.7488   430.2    5.472      33.015
2015    7       25    20  36    3.7480   430.1    5.472      32.992
2015    7       25    20  42    3.7473   430.0    5.472      32.968
2015    7       25    20  49    3.7465   429.9    5.473      32.944
2015    7       25    20  55    3.7458   429.8    5.473      32.921
2015    7       25    21   1    3.7451   429.7    5.473      32.898
2015    7       25    21   7    3.7444   429.5    5.474      32.875
2015    7       25    21  13    3.7438   429.4    5.474      32.852
2015    7       25    21  19    3.7431   429.3    5.475      32.829
2015    7       25    21  26    3.7425   429.2    5.475      32.806
2015    7       25    21  32    3.7418   429.1    5.476      32.784
2015    7       25    21  38    3.7412   429.0    5.476      32.761
2015    7       25    21  44    3.7406   428.8    5.477      32.739
2015    7       25    21  50    3.7400   428.7    5.478      32.717
2015    7       25    21  56    3.7395   428.6    5.479      32.695
2015    7       25    22   3    3.7389   428.5    5.479      32.674
2015    7       25    22   9    3.7384   428.4    5.480      32.652
2015    7       25    22  15    3.7378   428.2    5.481      32.631
2015    7       25    22  21    3.7373   428.1    5.482      32.610
2015    7       25    22  27    3.7368   428.0    5.483      32.589
2015    7       25    22  33    3.7363   427.9    5.484      32.568
2015    7       25    22  40    3.7358   427.7    5.485      32.547
2015    7       25    22  46    3.7353   427.6    5.486      32.527
2015    7       25    22  52    3.7349   427.5    5.487      32.507
2015    7       25    22  58    3.7344   427.4    5.488      32.486
2015    7       25    23   4    3.7340   427.2    5.489      32.467
2015    7       25    23  10    3.7336   427.1    5.490      32.447
2015    7       25    23  17    3.7332   427.0    5.492      32.427
2015    7       25    23  23    3.7329   426.9    5.493      32.407
2015    7       25    23  29    3.7325   426.7    5.494      32.388
2015    7       25    23  35    3.7322   426.6    5.495      32.368
2015    7       25    23  41    3.7319   426.5    5.497      32.348
2015    7       25    23  47    3.7316   426.3    5.498      32.329
2015    7       25    23  54    3.7313   426.2    5.500      32.309
2015    7       26     0   0    3.7311   426.1    5.501      32.290
2015    7       26     0   6    3.7308   425.9    5.503      32.270
2015    7       26     0  12    3.7306   425.8    5.504      32.251
2015    7       26     0  18    3.7304   425.7    5.506      32.232
2015    7       26     0  24    3.7302   425.6    5.508      32.212
2015    7       26     0  30    3.7300   425.4    5.509      32.193
2015    7       26     0  37    3.7298   425.3    5.511      32.174
2015    7       26     0  43    3.7296   425.2    5.513      32.154
2015    7       26     0  49    3.7295   425.0    5.515      32.135
2015    7       26     0  55    3.7293   424.9    5.516      32.116
2015    7       26     1   1    3.7292   424.8    5.518      32.096
2015    7       26     1   7    3.7290   424.6    5.520      32.077
2015    7       26     1  14    3.7289   424.5    5.522      32.057
2015    7       26     1  20    3.7288   424.4    5.524      32.038
2015    7       26     1  26    3.7287   424.2    5.525      32.018
2015    7       26     1  32    3.7286   424.1    5.527      31.998
2015    7       26     1  38    3.7285   423.9    5.529      31.979
2015    7       26     1  44    3.7284   423.8    5.531      31.959
2015    7       26     1  51    3.7283   423.7    5.533      31.939
2015    7       26     1  57    3.7283   423.5    5.535      31.919
2015    7       26     2   3    3.7282   423.4    5.537      31.899
2015    7       26     2   9    3.7282   423.2    5.539      31.879
2015    7       26     2  15    3.7281   423.1    5.540      31.859
2015    7       26     2  21    3.7281   423.0    5.542      31.838
2015    7       26     2  28    3.7281   422.8    5.544      31.818
2015    7       26     2  34    3.7281   422.7    5.546      31.798
2015    7       26     2  40    3.7282   422.5    5.548      31.777
2015    7       26     2  46    3.7282   422.4    5.550      31.757
2015    7       26     2  52    3.7283   422.2    5.552      31.736
2015    7       26     2  58    3.7284   422.1    5.553      31.716
2015    7       26     3   5    3.7286   421.9    5.555      31.695
2015    7       26     3  11    3.7287   421.8    5.557      31.675
2015    7       26     3  17    3.7289   421.6    5.559      31.654
2015    7       26     3  23    3.7291   421.5    5.561      31.633
2015    7       26     3  29    3.7293   421.3    5.563      31.612
2015    7       26     3  35    3.7296   421.2    5.564      31.591
2015    7       26     3  42    3.7299   421.0    5.566      31.570
2015    7       26     3  48    3.7302   420.9    5.568      31.549
2015    7       26     3  54    3.7306   420.7    5.570      31.528
2015    7       26     4   0    3.7310   420.6    5.572      31.507
2015    7       26     4   6    3.7314   420.4    5.574      31.486
2015    7       26     4  12    3.7318   420.3    5.575      31.465
2015    7       26     4  19    3.7323   420.1    5.577      31.443
2015    7       26     4  25    3.7328   419.9    5.579      31.422
2015    7       26     4  31    3.7334   419.8    5.581      31.400
2015    7       26     4  37    3.7340   419.6    5.583      31.379
2015    7       26     4  43    3.7346   419.5    5.585      31.357
2015    7       26     4  49    3.7352   419.3    5.587      31.336
2015    7       26     4  56    3.7359   419.1    5.589      31.314
2015    7       26     5   2    3.7366   419.0    5.591      31.292
2015    7       26     5   8    3.7374   418.8    5.593      31.270
2015    7       26     5  14    3.7382   418.7    5.595      31.248
2015    7       26     5  20    3.7390   418.5    5.597      31.227
2015    7       26     5  26    3.7399   418.3    5.599      31.205
2015    7       26     5  33    3.7408   418.2    5.601      31.183
2015    7       26     5  39    3.7417   418.0    5.604      31.161
2015    7       26     5  45    3.7427   417.8    5.606      31.139
2015    7       26     5  51    3.7437   417.6    5.609      31.117
2015    7       26     5  57    3.7448   417.5    5.611      31.095
2015    7       26     6   3    3.7459   417.3    5.614      31.074
2015    7       26     6  10    3.7471   417.1    5.617      31.052
2015    7       26     6  16    3.7483   417.0    5.620      31.030
2015    7       26     6  22    3.7496   416.8    5.623      31.009
2015    7       26     6  28    3.7509   416.6    5.626      30.988
2015    7       26     6  34    3.7523   416.4    5.629      30.967
2015    7       26     6  40    3.7537   416.2    5.633      30.947
2015    7       26     6  47    3.7552   416.1    5.637      30.926
2015    7       26     6  53    3.7567   415.9    5.641      30.906
2015    7       26     6  59    3.7583   415.7    5.645      30.886
2015    7       26     7   5    3.7600   415.5    5.649      30.866
2015    7       26     7  11    3.7617   415.4    5.653      30.847
2015    7       26     7  17    3.7635   415.2    5.658      30.828
2015    7       26     7  23    3.7653   415.0    5.663      30.809
2015    7       26     7  30    3.7672   414.8    5.668      30.791
2015    7       26     7  36    3.7692   414.6    5.673      30.773
2015    7       26     7  42    3.7712   414.4    5.678      30.755
2015    7       26     7  48    3.7733   414.3    5.684      30.738
2015    7       26     7  54    3.7754   414.1    5.690      30.721
2015    7       26     8   0    3.7776   413.9    5.696      30.705
2015    7       26     8   7    3.7798   413.7    5.702      30.689
2015    7       26     8  13    3.7820   413.5    5.708      30.674
2015    7       26     8  19    3.7843   413.3    5.715      30.659
2015    7       26     8  25    3.7867   413.2    5.722      30.645
2015    7       26     8  31    3.7890   413.0    5.728      30.632
2015    7       26     8  37    3.7915   412.8    5.735      30.619
2015    7       26     8  44    3.7939   412.6    5.742      30.606
2015    7       26     8  50    3.7964   412.4    5.750      30.594
2015    7       26     8  56    3.7989   412.2    5.757      30.583
2015    7       26     9   2    3.8015   412.0    5.765      30.572
2015    7       26     9   8    3.8041   411.8    5.772      30.562
2015    7       26     9  14    3.8068   411.7    5.780      30.552
2015    7       26     9  21    3.8096   411.5    5.788      30.543
2015    7       26     9  27    3.8124   411.3    5.797      30.535
2015    7       26     9  33    3.8152   411.1    5.805      30.527
2015    7       26     9  39    3.8182   410.9    5.814      30.520
2015    7       26     9  45    3.8212   410.7    5.822      30.513
2015    7       26     9  51    3.8243   410.5    5.832      30.508
2015    7       26     9  58    3.8275   410.3    5.841      30.502
2015    7       26    10   4    3.8308   410.1    5.850      30.498
2015    7       26    10  10    3.8341   409.9    5.860      30.494
2015    7       26    10  16    3.8375   409.8    5.870      30.491
2015    7       26    10  22    3.8411   409.6    5.880      30.489
2015    7       26    10  28    3.8447   409.4    5.891      30.488
2015    7       26    10  35    3.8484   409.2    5.902      30.487
2015    7       26    10  41    3.8522   409.0    5.912      30.487
2015    7       26    10  47    3.8561   408.9    5.924      30.488
2015    7       26    10  53    3.8601   408.7    5.935      30.490
2015    7       26    10  59    3.8642   408.5    5.946      30.493
2015    7       26    11   5    3.8684   408.3    5.958      30.496
2015    7       26    11  11    3.8726   408.2    5.970      30.500
2015    7       26    11  18    3.8770   408.0    5.982      30.505
2015    7       26    11  24    3.8813   407.8    5.994      30.511
2015    7       26    11  30    3.8859   407.6    6.007      30.517
2015    7       26    11  36    3.8904   407.5    6.019      30.525
2015    7       26    11  42    3.8950   407.3    6.031      30.533
2015    7       26    11  48    3.8997   407.2    6.043      30.542
2015    7       26    11  55    3.9045   407.0    6.056      30.551
2015    7       26    12   1    3.9093   406.8    6.068      30.561
2015    7       26    12   7    3.9142   406.7    6.081      30.572
2015    7       26    12  13    3.9191   406.5    6.093      30.583
2015    7       26    12  19    3.9241   406.4    6.105      30.595
2015    7       26    12  25    3.9291   406.2    6.118      30.606
2015    7       26    12  32    3.9342   406.1    6.130      30.618
2015    7       26    12  38    3.9394   405.9    6.142      30.630
2015    7       26    12  44    3.9446   405.8    6.154      30.643
2015    7       26    12  50    3.9498   405.6    6.167      30.655
2015    7       26    12  56    3.9551   405.5    6.179      30.668
2015    7       26    13   2    3.9605   405.4    6.191      30.680
2015    7       26    13   9    3.9659   405.2    6.203      30.693
2015    7       26    13  15    3.9714   405.1    6.216      30.705
2015    7       26    13  21    3.9770   404.9    6.228      30.718
2015    7       26    13  27    3.9826   404.8    6.240      30.730
2015    7       26    13  33    3.9883   404.6    6.253      30.742
2015    7       26    13  39    3.9941   404.5    6.265      30.754
2015    7       26    13  46    3.9999   404.4    6.278      30.766
2015    7       26    13  52    4.0058   404.2    6.291      30.779
2015    7       26    13  58    4.0119   404.1    6.304      30.791
2015    7       26    14   4    4.0179   403.9    6.317      30.803
2015    7       26    14  10    4.0241   403.8    6.330      30.816
2015    7       26    14  16    4.0304   403.7    6.344      30.828
2015    7       26    14  23    4.0367   403.5    6.357      30.841
2015    7       26    14  29    4.0432   403.4    6.371      30.854
2015    7       26    14  35    4.0498   403.3    6.386      30.867
2015    7       26    14  41    4.0564   403.2    6.400      30.881
2015    7       26    14  47    4.0632   403.0    6.415      30.895
2015    7       26    14  53    4.0700   402.9    6.431      30.910
2015    7       26    15   0    4.0769   402.8    6.447      30.925
2015    7       26    15   6    4.0838   402.6    6.463      30.941
2015    7       26    15  12    4.0908   402.5    6.480      30.957
2015    7       26    15  18    4.0979   402.4    6.497      30.975
2015    7       26    15  24    4.1049   402.3    6.514      30.995
2015    7       26    15  30    4.1120   402.2    6.532      31.016
2015    7       26    15  37    4.1191   402.1    6.549      31.039
2015    7       26    15  43    4.1262   402.0    6.567      31.064
2015    7       26    15  49    4.1334   401.9    6.585      31.092
2015    7       26    15  55    4.1405   401.8    6.603      31.122
2015    7       26    16   1    4.1475   401.7    6.622      31.155
2015    7       26    16   7    4.1546   401.6    6.640      31.190
2015    7       26    16  14    4.1616   401.5    6.658      31.227
2015    7       26    16  20    4.1687   401.4    6.676      31.266
2015    7       26    16  26    4.1757   401.4    6.694      31.307
2015    7       26    16  32    4.1827   401.3    6.712      31.350
2015    7       26    16  38    4.1897   401.2    6.729      31.395
2015    7       26    16  44    4.1967   401.1    6.747      31.441
2015    7       26    16  51    4.2038   401.1    6.764      31.488
2015    7       26    16  57    4.2108   401.0    6.781      31.536
2015    7       26    17   3    4.2179   400.9    6.799      31.585
2015    7       26    17   9    4.2250   400.8    6.816      31.635
2015    7       26    17  15    4.2322   400.8    6.833      31.685
2015    7       26    17  21    4.2394   400.7    6.851      31.735
2015    7       26    17  27    4.2466   400.6    6.868      31.786
2015    7       26    17  34    4.2539   400.6    6.885      31.836
2015    7       26    17  40    4.2613   400.5    6.903      31.887
2015    7       26    17  46    4.2687   400.5    6.920      31.938
2015    7       26    17  52    4.2762   400.4    6.938      31.990
2015    7       26    17  58    4.2837   400.4    6.955      32.041
2015    7       26    18   4    4.2913   400.3    6.973      32.093
2015    7       26    18  11    4.2989   400.3    6.991      32.145
2015    7       26    18  17    4.3066   400.2    7.009      32.198
2015    7       26    18  23    4.3144   400.2    7.027      32.250
2015    7       26    18  29    4.3222   400.1    7.045      32.303
2015    7       26    18  35    4.3300   400.1    7.063      32.356
2015    7       26    18  41    4.3379   400.1    7.081      32.409
2015    7       26    18  48    4.3458   400.0    7.099      32.463
2015    7       26    18  54    4.3538   400.0    7.117      32.517
2015    7       26    19   0    4.3617   400.0    7.135      32.571
2015    7       26    19   6    4.3697   399.9    7.153      32.626
2015    7       26    19  12    4.3777   399.9    7.171      32.680
2015    7       26    19  18    4.3857   399.9    7.189      32.735
2015    7       26    19  25    4.3938   399.9    7.207      32.790
2015    7       26    19  31    4.4018   399.9    7.224      32.845
2015    7       26    19  37    4.4099   399.9    7.242      32.900
2015    7       26    19  43    4.4180   399.8    7.259      32.954
2015    7       26    19  49    4.4260   399.8    7.277      33.009
2015    7       26    19  55    4.4342   399.8    7.294      33.064
2015    7       26    20   2    4.4423   399.8    7.311      33.118
2015    7       26    20   8    4.4504   399.8    7.328      33.173
2015    7       26    20  14    4.4585   399.8    7.345      33.227
2015    7       26    20  20    4.4667   399.8    7.362      33.281
2015    7       26    20  26    4.4749   399.8    7.379      33.335
2015    7       26    20  32    4.4832   399.8    7.396      33.389
2015    7       26    20  39    4.4914   399.8    7.413      33.443
2015    7       26    20  45    4.4998   399.8    7.430      33.496
2015    7       26    20  51    4.5081   399.8    7.447      33.550
2015    7       26    20  57    4.5165   399.8    7.465      33.603
2015    7       26    21   3    4.5250   399.8    7.482      33.656
2015    7       26    21   9    4.5335   399.9    7.500      33.710
2015    7       26    21  16    4.5421   399.9    7.518      33.763
2015    7       26    21  22    4.5507   399.9    7.536      33.817
2015    7       26    21  28    4.5595   399.9    7.554      33.871
2015    7       26    21  34    4.5683   399.9    7.573      33.925
2015    7       26    21  40    4.5772   399.9    7.592      33.980
2015    7       26    21  46    4.5862   399.9    7.611      34.034
2015    7       26    21  53    4.5952   400.0    7.631      34.089
2015    7       26    21  59    4.6044   400.0    7.652      34.145
2015    7       26    22   5    4.6135   400.0    7.673      34.201
2015    7       26    22  11    4.6228   400.0    7.694      34.259
2015    7       26    22  17    4.6320   400.1    7.716      34.319
2015    7       26    22  23    4.6413   400.1    7.738      34.382
2015    7       26    22  30    4.6505   400.2    7.761      34.446
2015    7       26    22  36    4.6597   400.2    7.784      34.514
2015    7       26    22  42    4.6689   400.3    7.807      34.584
2015    7       26    22  48    4.6781   400.3    7.830      34.656
2015    7       26    22  54    4.6871   400.4    7.853      34.731
2015    7       26    23   0    4.6961   400.5    7.876      34.808
2015    7       26    23   7    4.7049   400.5    7.898      34.888
2015    7       26    23  13    4.7136   400.6    7.921      34.971
2015    7       26    23  19    4.7222   400.7    7.943      35.057
2015    7       26    23  25    4.7307   400.8    7.964      35.146
2015    7       26    23  31    4.7390   400.9    7.985      35.236
2015    7       26    23  37    4.7472   401.0    8.005      35.329
2015    7       26    23  43    4.7553   401.1    8.025      35.422
2015    7       26    23  50    4.7633   401.2    8.044      35.516
2015    7       26    23  56    4.7711   401.3    8.063      35.610
2015    7       27     0   2    4.7789   401.4    8.081      35.706
2015    7       27     0   8    4.7865   401.5    8.098      35.802
2015    7       27     0  14    4.7940   401.6    8.115      35.898
2015    7       27     0  20    4.8015   401.7    8.131      35.995
2015    7       27     0  27    4.8088   401.8    8.146      36.092
2015    7       27     0  33    4.8161   401.9    8.161      36.188
2015    7       27     0  39    4.8233   402.0    8.175      36.284
2015    7       27     0  45    4.8304   402.1    8.189      36.379
2015    7       27     0  51    4.8375   402.2    8.202      36.474
2015    7       27     0  57    4.8445   402.3    8.215      36.567
2015    7       27     1   4    4.8514   402.4    8.227      36.659
2015    7       27     1  10    4.8582   402.5    8.238      36.751
2015    7       27     1  16    4.8649   402.6    8.249      36.841
2015    7       27     1  22    4.8716   402.7    8.260      36.930
2015    7       27     1  28    4.8782   402.8    8.270      37.018
2015    7       27     1  34    4.8848   402.9    8.280      37.105
2015    7       27     1  41    4.8912   403.0    8.289      37.190
2015    7       27     1  47    4.8976   403.1    8.298      37.273
2015    7       27     1  53    4.9040   403.3    8.307      37.355
2015    7       27     1  59    4.9102   403.4    8.315      37.436
2015    7       27     2   5    4.9165   403.5    8.323      37.516
2015    7       27     2  11    4.9226   403.6    8.331      37.595
2015    7       27     2  18    4.9287   403.7    8.339      37.672
2015    7       27     2  24    4.9348   403.8    8.346      37.748
2015    7       27     2  30    4.9408   403.9    8.353      37.823
2015    7       27     2  36    4.9467   404.0    8.359      37.897
2015    7       27     2  42    4.9526   404.1    8.366      37.970
2015    7       27     2  48    4.9585   404.2    8.372      38.042
2015    7       27     2  55    4.9643   404.3    8.379      38.113
2015    7       27     3   1    4.9701   404.4    8.385      38.183
2015    7       27     3   7    4.9758   404.5    8.391      38.252
2015    7       27     3  13    4.9816   404.6    8.397      38.321
2015    7       27     3  19    4.9873   404.7    8.402      38.389
2015    7       27     3  25    4.9929   404.8    8.408      38.456
2015    7       27     3  32    4.9986   404.9    8.414      38.523
2015    7       27     3  38    5.0042   405.0    8.419      38.588
2015    7       27     3  44    5.0099   405.1    8.425      38.654
2015    7       27     3  50    5.0155   405.3    8.431      38.719
2015    7       27     3  56    5.0211   405.4    8.436      38.784
2015    7       27     4   2    5.0268   405.5    8.442      38.848
2015    7       27     4   9    5.0325   405.6    8.448      38.912
2015    7       27     4  15    5.0382   405.7    8.454      38.976
2015    7       27     4  21    5.0439   405.8    8.460      39.040
2015    7       27     4  27    5.0497   405.9    8.466      39.104
2015    7       27     4  33    5.0556   406.0    8.473      39.168
2015    7       27     4  39    5.0615   406.1    8.479      39.232
2015    7       27     4  46    5.0674   406.3    8.487      39.296
2015    7       27     4  52    5.0735   406.4    8.494      39.360
2015    7       27     4  58    5.0797   406.5    8.502      39.425
2015    7       27     5   4    5.0860   406.6    8.510      39.490
2015    7       27     5  10    5.0923   406.7    8.519      39.556
2015    7       27     5  16    5.0987   406.9    8.529      39.621
2015    7       27     5  23    5.1052   407.0    8.539      39.688
2015    7       27     5  29    5.1117   407.1    8.550      39.756
2015    7       27     5  35    5.1182   407.3    8.561      39.827
2015    7       27     5  41    5.1248   407.4    8.572      39.899
2015    7       27     5  47    5.1313   407.5    8.584      39.974
2015    7       27     5  53    5.1378   407.7    8.596      40.052
2015    7       27     6   0    5.1442   407.8    8.609      40.134
2015    7       27     6   6    5.1506   408.0    8.621      40.218
2015    7       27     6  12    5.1569   408.2    8.634      40.306
2015    7       27     6  18    5.1631   408.3    8.646      40.397
2015    7       27     6  24    5.1691   408.5    8.658      40.490
2015    7       27     6  30    5.1750   408.7    8.670      40.587
2015    7       27     6  36    5.1807   408.9    8.682      40.686
2015    7       27     6  43    5.1862   409.0    8.693      40.787
2015    7       27     6  49    5.1916   409.2    8.704      40.889
2015    7       27     6  55    5.1969   409.4    8.714      40.994
2015    7       27     7   1    5.2020   409.6    8.724      41.099
2015    7       27     7   7    5.2069   409.8    8.733      41.205
2015    7       27     7  13    5.2117   410.0    8.741      41.311
2015    7       27     7  20    5.2164   410.1    8.749      41.417
2015    7       27     7  26    5.2209   410.3    8.757      41.521
2015    7       27     7  32    5.2253   410.5    8.764      41.626
2015    7       27     7  38    5.2296   410.7    8.770      41.730
2015    7       27     7  44    5.2339   410.9    8.776      41.834
2015    7       27     7  50    5.2379   411.1    8.782      41.938
2015    7       27     7  57    5.2419   411.3    8.787      42.042
2015    7       27     8   3    5.2458   411.5    8.791      42.145
2015    7       27     8   9    5.2496   411.7    8.795      42.247
2015    7       27     8  15    5.2532   411.9    8.798      42.349
2015    7       27     8  21    5.2567   412.1    8.801      42.449
2015    7       27     8  27    5.2601   412.3    8.802      42.549
2015    7       27     8  34    5.2633   412.5    8.804      42.646
2015    7       27     8  40    5.2664   412.7    8.805      42.743
2015    7       27     8  46    5.2694   412.9    8.805      42.837
2015    7       27     8  52    5.2723   413.1    8.804      42.930
2015    7       27     8  58    5.2750   413.3    8.803      43.020
2015    7       27     9   4    5.2776   413.5    8.802      43.109
2015    7       27     9  11    5.2801   413.7    8.800      43.194
2015    7       27     9  17    5.2824   413.8    8.797      43.278
2015    7       27     9  23    5.2847   414.0    8.794      43.359
2015    7       27     9  29    5.2868   414.2    8.790      43.438
2015    7       27     9  35    5.2889   414.4    8.787      43.514
2015    7       27     9  41    5.2909   414.6    8.782      43.589
2015    7       27     9  48    5.2929   414.8    8.778      43.662
2015    7       27     9  54    5.2947   415.0    8.773      43.733
2015    7       27    10   0    5.2965   415.1    8.768      43.803
2015    7       27    10   6    5.2983   415.3    8.763      43.871
2015    7       27    10  12    5.3000   415.5    8.758      43.938
2015    7       27    10  18    5.3017   415.7    8.752      44.004
2015    7       27    10  25    5.3034   415.9    8.746      44.068
2015    7       27    10  31    5.3050   416.0    8.740      44.131
2015    7       27    10  37    5.3066   416.2    8.735      44.193
2015    7       27    10  43    5.3082   416.4    8.729      44.255
2015    7       27    10  49    5.3098   416.6    8.723      44.315
2015    7       27    10  55    5.3114   416.7    8.717      44.374
2015    7       27    11   2    5.3131   416.9    8.711      44.432
2015    7       27    11   8    5.3147   417.1    8.705      44.490
2015    7       27    11  14    5.3164   417.2    8.699      44.548
2015    7       27    11  20    5.3181   417.4    8.693      44.604
2015    7       27    11  26    5.3198   417.6    8.687      44.660
2015    7       27    11  32    5.3216   417.8    8.682      44.716
2015    7       27    11  39    5.3235   417.9    8.677      44.772
2015    7       27    11  45    5.3254   418.1    8.672      44.827
2015    7       27    11  51    5.3275   418.3    8.667      44.883
2015    7       27    11  57    5.3296   418.5    8.663      44.938
2015    7       27    12   3    5.3318   418.6    8.659      44.995
2015    7       27    12   9    5.3342   418.8    8.655      45.051
2015    7       27    12  15    5.3367   419.0    8.652      45.108
2015    7       27    12  22    5.3394   419.2    8.650      45.166
2015    7       27    12  28    5.3422   419.4    8.648      45.225
2015    7       27    12  34    5.3452   419.6    8.647      45.285
2015    7       27    12  40    5.3484   419.8    8.646      45.348
2015    7       27    12  46    5.3517   419.9    8.647      45.412
2015    7       27    12  52    5.3553   420.1    8.648      45.477
2015    7       27    12  59    5.3591   420.3    8.651      45.544
2015    7       27    13   5    5.3630   420.5    8.655      45.612
2015    7       27    13  11    5.3670   420.7    8.659      45.688
2015    7       27    13  17    5.3712   420.9    8.665      45.769
2015    7       27    13  23    5.3754   421.2    8.671      45.856
2015    7       27    13  29    5.3796   421.4    8.677      45.949
2015    7       27    13  36    5.3838   421.7    8.684      46.047
2015    7       27    13  42    5.3879   421.9    8.691      46.149
2015    7       27    13  48    5.3919   422.2    8.698      46.256
2015    7       27    13  54    5.3958   422.4    8.705      46.366
2015    7       27    14   0    5.3995   422.7    8.712      46.478
2015    7       27    14   6    5.4029   423.0    8.718      46.591
2015    7       27    14  13    5.4061   423.3    8.723      46.707
2015    7       27    14  19    5.4089   423.6    8.727      46.824
2015    7       27    14  25    5.4114   423.9    8.731      46.943
2015    7       27    14  31    5.4136   424.2    8.733      47.058
2015    7       27    14  37    5.4156   424.5    8.734      47.171
2015    7       27    14  43    5.4172   424.8    8.734      47.279
2015    7       27    14  50    5.4186   425.1    8.733      47.385
2015    7       27    14  56    5.4198   425.5    8.731      47.487
2015    7       27    15   2    5.4206   425.8    8.729      47.586
2015    7       27    15   8    5.4213   426.1    8.725      47.683
2015    7       27    15  14    5.4217   426.4    8.721      47.777
2015    7       27    15  20    5.4220   426.7    8.716      47.868
2015    7       27    15  27    5.4220   427.0    8.710      47.957
2015    7       27    15  33    5.4220   427.3    8.703      48.043
2015    7       27    15  39    5.4217   427.6    8.696      48.127
2015    7       27    15  45    5.4214   427.9    8.688      48.208
2015    7       27    15  51    5.4208   428.2    8.680      48.287
2015    7       27    15  57    5.4202   428.5    8.671      48.363
2015    7       27    16   4    5.4194   428.8    8.662      48.438
2015    7       27    16  10    5.4185   429.1    8.652      48.510
2015    7       27    16  16    5.4175   429.4    8.642      48.580
2015    7       27    16  22    5.4164   429.7    8.632      48.648
2015    7       27    16  28    5.4151   430.0    8.621      48.714
2015    7       27    16  34    5.4138   430.3    8.610      48.777
2015    7       27    16  41    5.4123   430.5    8.598      48.839
2015    7       27    16  47    5.4108   430.8    8.586      48.898
2015    7       27    16  53    5.4091   431.1    8.574      48.957
2015    7       27    16  59    5.4074   431.4    8.562      49.014
2015    7       27    17   5    5.4056   431.7    8.550      49.069
2015    7       27    17  11    5.4037   432.0    8.537      49.123
2015    7       27    17  18    5.4018   432.2    8.524      49.176
2015    7       27    17  24    5.3998   432.5    8.511      49.228
2015    7       27    17  30    5.3977   432.8    8.498      49.279
2015    7       27    17  36    5.3956   433.1    8.485      49.329
2015    7       27    17  42    5.3933   433.4    8.471      49.378
2015    7       27    17  48    5.3911   433.6    8.457      49.426
2015    7       27    17  55    5.3887   433.9    8.444      49.473
2015    7       27    18   1    5.3863   434.2    8.430      49.519
2015    7       27    18   7    5.3838   434.4    8.416      49.564
2015    7       27    18  13    5.3814   434.7    8.402      49.607
2015    7       27    18  19    5.3788   435.0    8.387      49.650
2015    7       27    18  25    5.3762   435.2    8.373      49.692
2015    7       27    18  31    5.3736   435.5    8.359      49.733
2015    7       27    18  38    5.3710   435.8    8.345      49.773
2015    7       27    18  44    5.3683   436.0    8.330      49.812
2015    7       27    18  50    5.3657   436.3    8.316      49.850
2015    7       27    18  56    5.3630   436.5    8.301      49.887
2015    7       27    19   2    5.3603   436.8    8.287      49.923
2015    7       27    19   8    5.3577   437.1    8.273      49.958
2015    7       27    19  15    5.3551   437.3    8.259      49.992
2015    7       27    19  21    5.3526   437.6    8.245      50.025
2015    7       27    19  27    5.3501   437.8    8.232      50.057
2015    7       27    19  33    5.3477   438.1    8.218      50.089
2015    7       27    19  39    5.3454   438.3    8.205      50.120
2015    7       27    19  45    5.3431   438.6    8.193      50.151
2015    7       27    19  52    5.3410   438.8    8.181      50.182
2015    7       27    19  58    5.3389   439.1    8.169      50.213
2015    7       27    20   4    5.3371   439.3    8.158      50.245
2015    7       27    20  10    5.3354   439.5    8.148      50.277
2015    7       27    20  16    5.3339   439.8    8.139      50.308
2015    7       27    20  22    5.3325   440.0    8.131      50.341
2015    7       27    20  29    5.3312   440.3    8.123      50.379
2015    7       27    20  35    5.3299   440.5    8.116      50.421
2015    7       27    20  41    5.3288   440.8    8.109      50.467
2015    7       27    20  47    5.3275   441.1    8.103      50.517
2015    7       27    20  53    5.3264   441.3    8.097      50.571
2015    7       27    20  59    5.3251   441.6    8.091      50.628
2015    7       27    21   6    5.3238   441.9    8.085      50.687
2015    7       27    21  12    5.3224   442.2    8.079      50.749
2015    7       27    21  18    5.3208   442.6    8.072      50.811
2015    7       27    21  24    5.3189   442.9    8.065      50.875
2015    7       27    21  30    5.3169   443.2    8.058      50.941
2015    7       27    21  36    5.3145   443.6    8.049      51.008
2015    7       27    21  43    5.3118   443.9    8.040      51.075
2015    7       27    21  49    5.3088   444.3    8.029      51.140
2015    7       27    21  55    5.3056   444.6    8.018      51.202
2015    7       27    22   1    5.3020   445.0    8.005      51.261
2015    7       27    22   7    5.2981   445.3    7.992      51.315
2015    7       27    22  13    5.2939   445.7    7.977      51.367
2015    7       27    22  20    5.2894   446.0    7.961      51.414
2015    7       27    22  26    5.2845   446.4    7.944      51.459
2015    7       27    22  32    5.2793   446.8    7.926      51.499
2015    7       27    22  38    5.2739   447.1    7.908      51.534
2015    7       27    22  44    5.2682   447.5    7.888      51.564
2015    7       27    22  50    5.2623   447.8    7.868      51.589
2015    7       27    22  57    5.2562   448.1    7.847      51.609
2015    7       27    23   3    5.2500   448.5    7.826      51.626
2015    7       27    23   9    5.2436   448.8    7.804      51.638
2015    7       27    23  15    5.2371   449.1    7.782      51.647
2015    7       27    23  21    5.2306   449.4    7.761      51.653
2015    7       27    23  27    5.2240   449.7    7.739      51.656
2015    7       27    23  33    5.2173   450.0    7.717      51.658
2015    7       27    23  40    5.2106   450.3    7.695      51.657
2015    7       27    23  46    5.2039   450.6    7.673      51.655
2015    7       27    23  52    5.1971   450.9    7.652      51.651
2015    7       27    23  58    5.1905   451.2    7.631      51.647
2015    7       28     0   4    5.1837   451.5    7.610      51.644
