year    month   day   hour  minute  B_enl V_enl   n_enl       T_enl
[year] [month] [day] [hour][minute] [nT]  [km/s]  [cm-3]      [kK]
2015    7       31     0   0    5.6234   456.3    8.452      48.173
2015    7       31     0   6    5.6248   456.7    8.438      48.221
2015    7       31     0  13    5.6261   457.0    8.425      48.268
2015    7       31     0  20    5.6274   457.4    8.411      48.312
2015    7       31     0  27    5.6287   457.7    8.398      48.356
2015    7       31     0  34    5.6299   458.1    8.384      48.398
2015    7       31     0  40    5.6312   458.4    8.371      48.441
2015    7       31     0  47    5.6324   458.7    8.359      48.483
2015    7       31     0  54    5.6337   459.0    8.347      48.527
2015    7       31     1   1    5.6350   459.3    8.335      48.573
2015    7       31     1   7    5.6365   459.6    8.323      48.623
2015    7       31     1  14    5.6380   460.0    8.313      48.677
2015    7       31     1  21    5.6396   460.3    8.302      48.735
2015    7       31     1  28    5.6413   460.7    8.292      48.797
2015    7       31     1  35    5.6430   461.0    8.282      48.862
2015    7       31     1  41    5.6447   461.4    8.272      48.929
2015    7       31     1  48    5.6463   461.8    8.262      48.998
2015    7       31     1  55    5.6480   462.1    8.253      49.068
2015    7       31     2   2    5.6497   462.5    8.243      49.139
2015    7       31     2   8    5.6514   462.9    8.234      49.210
2015    7       31     2  15    5.6531   463.3    8.225      49.282
2015    7       31     2  22    5.6547   463.6    8.216      49.353
2015    7       31     2  29    5.6564   464.0    8.207      49.424
2015    7       31     2  36    5.6580   464.4    8.198      49.495
2015    7       31     2  42    5.6597   464.8    8.189      49.566
2015    7       31     2  49    5.6613   465.1    8.180      49.638
2015    7       31     2  56    5.6629   465.5    8.170      49.710
2015    7       31     3   3    5.6645   465.9    8.161      49.782
2015    7       31     3   9    5.6660   466.3    8.151      49.855
2015    7       31     3  16    5.6674   466.7    8.141      49.926
2015    7       31     3  23    5.6687   467.1    8.130      49.997
2015    7       31     3  30    5.6699   467.6    8.118      50.068
2015    7       31     3  36    5.6708   468.0    8.106      50.136
2015    7       31     3  43    5.6716   468.4    8.094      50.203
2015    7       31     3  50    5.6722   468.9    8.080      50.267
2015    7       31     3  57    5.6726   469.3    8.066      50.329
2015    7       31     4   4    5.6727   469.8    8.052      50.389
2015    7       31     4  10    5.6727   470.2    8.037      50.447
2015    7       31     4  17    5.6723   470.7    8.021      50.505
2015    7       31     4  24    5.6718   471.2    8.004      50.561
2015    7       31     4  31    5.6710   471.7    7.987      50.616
2015    7       31     4  37    5.6699   472.1    7.970      50.669
2015    7       31     4  44    5.6685   472.6    7.951      50.718
2015    7       31     4  51    5.6668   473.1    7.932      50.766
2015    7       31     4  58    5.6648   473.6    7.913      50.810
2015    7       31     5   5    5.6626   474.0    7.893      50.852
2015    7       31     5  11    5.6601   474.5    7.873      50.890
2015    7       31     5  18    5.6574   474.9    7.852      50.925
2015    7       31     5  25    5.6545   475.4    7.831      50.958
2015    7       31     5  32    5.6514   475.8    7.810      50.988
2015    7       31     5  38    5.6482   476.2    7.789      51.014
2015    7       31     5  45    5.6449   476.6    7.767      51.037
2015    7       31     5  52    5.6416   477.0    7.746      51.057
2015    7       31     5  59    5.6383   477.3    7.725      51.073
2015    7       31     6   6    5.6351   477.7    7.705      51.086
2015    7       31     6  12    5.6321   478.0    7.686      51.099
2015    7       31     6  19    5.6292   478.4    7.666      51.112
2015    7       31     6  26    5.6266   478.7    7.648      51.125
2015    7       31     6  33    5.6240   479.0    7.629      51.139
2015    7       31     6  39    5.6217   479.3    7.611      51.154
2015    7       31     6  46    5.6194   479.6    7.594      51.173
2015    7       31     6  53    5.6172   480.0    7.576      51.195
2015    7       31     7   0    5.6151   480.3    7.559      51.220
2015    7       31     7   6    5.6131   480.7    7.541      51.248
2015    7       31     7  13    5.6110   481.1    7.524      51.277
2015    7       31     7  20    5.6089   481.5    7.507      51.307
2015    7       31     7  27    5.6068   481.9    7.490      51.336
2015    7       31     7  34    5.6046   482.3    7.472      51.364
2015    7       31     7  40    5.6024   482.6    7.455      51.390
2015    7       31     7  47    5.6001   483.0    7.438      51.414
2015    7       31     7  54    5.5977   483.4    7.421      51.436
2015    7       31     8   1    5.5953   483.7    7.404      51.457
2015    7       31     8   7    5.5927   484.1    7.387      51.475
2015    7       31     8  14    5.5901   484.4    7.371      51.492
2015    7       31     8  21    5.5874   484.7    7.354      51.509
2015    7       31     8  28    5.5848   485.0    7.338      51.528
2015    7       31     8  35    5.5821   485.4    7.322      51.550
2015    7       31     8  41    5.5795   485.7    7.307      51.577
2015    7       31     8  48    5.5767   486.1    7.292      51.607
2015    7       31     8  55    5.5741   486.4    7.277      51.640
2015    7       31     9   2    5.5713   486.8    7.262      51.676
2015    7       31     9   8    5.5685   487.2    7.248      51.714
2015    7       31     9  15    5.5657   487.5    7.233      51.753
2015    7       31     9  22    5.5628   487.9    7.219      51.793
2015    7       31     9  29    5.5599   488.3    7.204      51.833
2015    7       31     9  35    5.5571   488.6    7.190      51.873
2015    7       31     9  42    5.5541   489.0    7.176      51.913
2015    7       31     9  49    5.5512   489.4    7.162      51.952
2015    7       31     9  56    5.5481   489.8    7.147      51.988
2015    7       31    10   3    5.5450   490.1    7.133      52.023
2015    7       31    10   9    5.5418   490.5    7.118      52.056
2015    7       31    10  16    5.5386   490.9    7.103      52.089
2015    7       31    10  23    5.5353   491.2    7.088      52.120
2015    7       31    10  30    5.5320   491.6    7.073      52.149
2015    7       31    10  36    5.5286   492.0    7.058      52.177
2015    7       31    10  43    5.5251   492.4    7.042      52.203
2015    7       31    10  50    5.5214   492.8    7.026      52.228
2015    7       31    10  57    5.5177   493.2    7.010      52.252
2015    7       31    11   4    5.5138   493.6    6.993      52.272
2015    7       31    11  10    5.5099   494.0    6.977      52.289
2015    7       31    11  17    5.5057   494.4    6.960      52.306
2015    7       31    11  24    5.5015   494.8    6.943      52.322
2015    7       31    11  31    5.4972   495.2    6.926      52.337
2015    7       31    11  37    5.4928   495.6    6.909      52.353
2015    7       31    11  44    5.4882   496.1    6.891      52.367
2015    7       31    11  51    5.4836   496.5    6.874      52.382
2015    7       31    11  58    5.4787   496.9    6.856      52.396
2015    7       31    12   5    5.4738   497.3    6.838      52.410
2015    7       31    12  11    5.4687   497.7    6.821      52.425
2015    7       31    12  18    5.4635   498.1    6.803      52.441
2015    7       31    12  25    5.4581   498.6    6.785      52.457
2015    7       31    12  32    5.4527   499.0    6.766      52.473
2015    7       31    12  38    5.4470   499.4    6.748      52.489
2015    7       31    12  45    5.4413   499.9    6.730      52.503
2015    7       31    12  52    5.4353   500.3    6.711      52.516
2015    7       31    12  59    5.4293   500.7    6.692      52.528
2015    7       31    13   5    5.4232   501.1    6.673      52.537
2015    7       31    13  12    5.4170   501.5    6.654      52.542
2015    7       31    13  19    5.4108   501.9    6.636      52.544
2015    7       31    13  26    5.4048   502.2    6.618      52.542
2015    7       31    13  33    5.3989   502.6    6.601      52.538
2015    7       31    13  39    5.3932   502.9    6.584      52.533
2015    7       31    13  46    5.3876   503.2    6.567      52.528
2015    7       31    13  53    5.3822   503.4    6.551      52.523
2015    7       31    14   0    5.3770   503.7    6.536      52.520
2015    7       31    14   6    5.3720   504.0    6.521      52.519
2015    7       31    14  13    5.3671   504.3    6.507      52.523
2015    7       31    14  20    5.3624   504.5    6.493      52.532
2015    7       31    14  27    5.3579   504.8    6.479      52.545
2015    7       31    14  34    5.3535   505.1    6.466      52.562
2015    7       31    14  40    5.3491   505.5    6.454      52.582
2015    7       31    14  47    5.3449   505.8    6.441      52.605
2015    7       31    14  54    5.3407   506.1    6.429      52.629
2015    7       31    15   1    5.3364   506.5    6.417      52.655
2015    7       31    15   7    5.3322   506.8    6.404      52.681
2015    7       31    15  14    5.3278   507.1    6.392      52.706
2015    7       31    15  21    5.3235   507.5    6.379      52.731
2015    7       31    15  28    5.3190   507.8    6.367      52.756
2015    7       31    15  35    5.3144   508.2    6.354      52.777
2015    7       31    15  41    5.3098   508.5    6.341      52.796
2015    7       31    15  48    5.3050   508.9    6.328      52.813
2015    7       31    15  55    5.3001   509.2    6.315      52.828
2015    7       31    16   2    5.2951   509.6    6.301      52.841
2015    7       31    16   8    5.2900   509.9    6.288      52.854
2015    7       31    16  15    5.2848   510.2    6.274      52.864
2015    7       31    16  22    5.2796   510.6    6.260      52.873
2015    7       31    16  29    5.2744   510.9    6.246      52.882
2015    7       31    16  35    5.2692   511.2    6.233      52.889
2015    7       31    16  42    5.2640   511.5    6.220      52.896
2015    7       31    16  49    5.2589   511.8    6.206      52.903
2015    7       31    16  56    5.2539   512.1    6.194      52.910
2015    7       31    17   3    5.2489   512.4    6.181      52.917
2015    7       31    17   9    5.2440   512.7    6.169      52.925
2015    7       31    17  16    5.2392   513.0    6.157      52.937
2015    7       31    17  23    5.2345   513.3    6.145      52.950
2015    7       31    17  30    5.2298   513.6    6.134      52.965
2015    7       31    17  36    5.2253   513.9    6.122      52.982
2015    7       31    17  43    5.2207   514.2    6.111      53.001
2015    7       31    17  50    5.2162   514.5    6.100      53.020
2015    7       31    17  57    5.2117   514.9    6.089      53.039
2015    7       31    18   4    5.2071   515.2    6.078      53.057
2015    7       31    18  10    5.2025   515.5    6.067      53.076
2015    7       31    18  17    5.1979   515.8    6.056      53.095
2015    7       31    18  24    5.1932   516.2    6.044      53.114
2015    7       31    18  31    5.1885   516.5    6.033      53.130
2015    7       31    18  37    5.1837   516.8    6.021      53.144
2015    7       31    18  44    5.1789   517.1    6.010      53.157
2015    7       31    18  51    5.1741   517.4    5.998      53.168
2015    7       31    18  58    5.1692   517.8    5.987      53.177
2015    7       31    19   5    5.1643   518.1    5.975      53.186
2015    7       31    19  11    5.1595   518.4    5.963      53.194
2015    7       31    19  18    5.1546   518.7    5.951      53.202
2015    7       31    19  25    5.1498   519.0    5.940      53.209
2015    7       31    19  32    5.1449   519.3    5.928      53.216
2015    7       31    19  38    5.1402   519.5    5.917      53.223
2015    7       31    19  45    5.1354   519.8    5.906      53.230
2015    7       31    19  52    5.1308   520.1    5.894      53.239
2015    7       31    19  59    5.1261   520.4    5.884      53.248
2015    7       31    20   5    5.1216   520.7    5.873      53.258
2015    7       31    20  12    5.1170   521.0    5.862      53.269
2015    7       31    20  19    5.1125   521.3    5.851      53.282
2015    7       31    20  26    5.1079   521.6    5.840      53.294
2015    7       31    20  33    5.1034   522.0    5.829      53.307
2015    7       31    20  39    5.0989   522.3    5.819      53.320
2015    7       31    20  46    5.0945   522.6    5.808      53.333
2015    7       31    20  53    5.0899   522.9    5.797      53.346
2015    7       31    21   0    5.0855   523.2    5.786      53.358
2015    7       31    21   6    5.0810   523.5    5.775      53.369
2015    7       31    21  13    5.0766   523.8    5.764      53.378
2015    7       31    21  20    5.0721   524.1    5.753      53.387
2015    7       31    21  27    5.0677   524.5    5.742      53.395
2015    7       31    21  34    5.0633   524.7    5.732      53.403
2015    7       31    21  40    5.0589   525.0    5.721      53.410
2015    7       31    21  47    5.0546   525.3    5.710      53.418
2015    7       31    21  54    5.0502   525.6    5.699      53.425
2015    7       31    22   1    5.0460   525.9    5.688      53.433
2015    7       31    22   7    5.0417   526.2    5.677      53.440
2015    7       31    22  14    5.0374   526.5    5.667      53.448
2015    7       31    22  21    5.0332   526.8    5.656      53.456
2015    7       31    22  28    5.0289   527.1    5.646      53.464
2015    7       31    22  34    5.0247   527.4    5.635      53.473
2015    7       31    22  41    5.0205   527.7    5.625      53.482
2015    7       31    22  48    5.0163   528.0    5.615      53.492
2015    7       31    22  55    5.0121   528.3    5.605      53.502
2015    7       31    23   2    5.0079   528.6    5.595      53.513
2015    7       31    23   8    5.0038   528.8    5.585      53.523
2015    7       31    23  15    4.9996   529.1    5.575      53.534
2015    7       31    23  22    4.9955   529.4    5.565      53.545
2015    7       31    23  29    4.9914   529.7    5.555      53.556
2015    7       31    23  35    4.9873   530.0    5.546      53.567
2015    7       31    23  42    4.9833   530.3    5.536      53.578
2015    7       31    23  49    4.9792   530.6    5.526      53.590
2015    7       31    23  56    4.9752   530.8    5.517      53.600
2015    8        1     0   3    4.9713   531.1    5.507      53.613
2015    8        1     0   9    4.9676   531.4    5.498      53.626
2015    8        1     0  16    4.9639   531.7    5.489      53.640
2015    8        1     0  23    4.9602   532.0    5.480      53.653
2015    8        1     0  30    4.9566   532.2    5.471      53.667
2015    8        1     0  36    4.9530   532.5    5.462      53.682
2015    8        1     0  43    4.9494   532.8    5.453      53.696
2015    8        1     0  50    4.9458   533.1    5.444      53.711
2015    8        1     0  57    4.9422   533.3    5.436      53.726
2015    8        1     1   3    4.9387   533.6    5.427      53.741
2015    8        1     1  10    4.9351   533.9    5.419      53.757
2015    8        1     1  17    4.9316   534.1    5.410      53.772
2015    8        1     1  24    4.9281   534.4    5.402      53.787
2015    8        1     1  31    4.9245   534.7    5.393      53.803
2015    8        1     1  37    4.9210   535.0    5.385      53.818
2015    8        1     1  44    4.9175   535.2    5.376      53.833
2015    8        1     1  51    4.9139   535.5    5.368      53.847
2015    8        1     1  58    4.9104   535.8    5.360      53.862
2015    8        1     2   4    4.9069   536.0    5.351      53.876
2015    8        1     2  11    4.9033   536.3    5.343      53.890
2015    8        1     2  18    4.8998   536.6    5.335      53.903
2015    8        1     2  25    4.8963   536.8    5.326      53.916
2015    8        1     2  32    4.8928   537.1    5.318      53.929
2015    8        1     2  38    4.8892   537.4    5.309      53.941
2015    8        1     2  45    4.8857   537.7    5.301      53.953
2015    8        1     2  52    4.8821   537.9    5.293      53.965
2015    8        1     2  59    4.8786   538.2    5.284      53.977
2015    8        1     3   5    4.8751   538.5    5.276      53.989
2015    8        1     3  12    4.8715   538.7    5.268      54.000
2015    8        1     3  19    4.8680   539.0    5.260      54.011
2015    8        1     3  26    4.8645   539.3    5.251      54.022
2015    8        1     3  32    4.8609   539.5    5.243      54.033
2015    8        1     3  39    4.8574   539.8    5.235      54.044
2015    8        1     3  46    4.8538   540.1    5.227      54.055
2015    8        1     3  53    4.8503   540.3    5.219      54.066
2015    8        1     4   0    4.8468   540.6    5.210      54.077
2015    8        1     4   6    4.8432   540.9    5.202      54.088
2015    8        1     4  13    4.8397   541.1    5.194      54.098
2015    8        1     4  20    4.8361   541.4    5.186      54.109
2015    8        1     4  27    4.8326   541.6    5.178      54.119
2015    8        1     4  33    4.8290   541.9    5.170      54.130
2015    8        1     4  40    4.8255   542.2    5.162      54.140
2015    8        1     4  47    4.8220   542.4    5.154      54.150
2015    8        1     4  54    4.8185   542.7    5.146      54.160
2015    8        1     5   1    4.8149   542.9    5.138      54.170
2015    8        1     5   7    4.8114   543.2    5.130      54.179
2015    8        1     5  14    4.8079   543.5    5.122      54.189
2015    8        1     5  21    4.8044   543.7    5.114      54.199
2015    8        1     5  28    4.8009   544.0    5.107      54.208
2015    8        1     5  34    4.7974   544.2    5.099      54.217
2015    8        1     5  41    4.7939   544.5    5.091      54.226
2015    8        1     5  48    4.7905   544.7    5.083      54.235
2015    8        1     5  55    4.7870   545.0    5.075      54.244
2015    8        1     6   1    4.7835   545.2    5.067      54.253
2015    8        1     6   8    4.7801   545.5    5.059      54.261
2015    8        1     6  15    4.7767   545.7    5.051      54.270
2015    8        1     6  22    4.7732   546.0    5.044      54.279
2015    8        1     6  29    4.7698   546.2    5.036      54.287
2015    8        1     6  35    4.7664   546.5    5.028      54.296
2015    8        1     6  42    4.7630   546.7    5.021      54.304
2015    8        1     6  49    4.7596   547.0    5.013      54.313
2015    8        1     6  56    4.7562   547.2    5.005      54.321
2015    8        1     7   2    4.7529   547.4    4.998      54.330
2015    8        1     7   9    4.7495   547.7    4.990      54.339
2015    8        1     7  16    4.7462   547.9    4.983      54.347
2015    8        1     7  23    4.7428   548.2    4.975      54.356
2015    8        1     7  30    4.7395   548.4    4.968      54.365
2015    8        1     7  36    4.7362   548.6    4.961      54.373
2015    8        1     7  43    4.7329   548.9    4.953      54.382
2015    8        1     7  50    4.7295   549.1    4.946      54.390
2015    8        1     7  57    4.7262   549.4    4.939      54.399
2015    8        1     8   3    4.7229   549.6    4.931      54.407
2015    8        1     8  10    4.7196   549.8    4.924      54.416
2015    8        1     8  17    4.7163   550.1    4.917      54.424
2015    8        1     8  24    4.7130   550.3    4.910      54.432
2015    8        1     8  30    4.7097   550.5    4.903      54.440
2015    8        1     8  37    4.7064   550.8    4.896      54.448
2015    8        1     8  44    4.7031   551.0    4.889      54.456
2015    8        1     8  51    4.6998   551.2    4.882      54.464
2015    8        1     8  58    4.6964   551.5    4.875      54.471
2015    8        1     9   4    4.6931   551.7    4.868      54.479
2015    8        1     9  11    4.6898   551.9    4.861      54.486
2015    8        1     9  18    4.6865   552.2    4.854      54.493
2015    8        1     9  25    4.6832   552.4    4.847      54.500
2015    8        1     9  31    4.6798   552.6    4.840      54.506
2015    8        1     9  38    4.6765   552.9    4.833      54.513
2015    8        1     9  45    4.6731   553.1    4.826      54.519
2015    8        1     9  52    4.6698   553.3    4.820      54.525
2015    8        1     9  59    4.6665   553.6    4.813      54.532
2015    8        1    10   5    4.6631   553.8    4.806      54.537
2015    8        1    10  12    4.6598   554.0    4.799      54.543
2015    8        1    10  19    4.6564   554.3    4.792      54.549
2015    8        1    10  26    4.6530   554.5    4.786      54.554
2015    8        1    10  32    4.6497   554.7    4.779      54.559
2015    8        1    10  39    4.6463   554.9    4.772      54.565
2015    8        1    10  46    4.6429   555.2    4.766      54.570
2015    8        1    10  53    4.6396   555.4    4.759      54.575
2015    8        1    10  59    4.6362   555.6    4.753      54.579
2015    8        1    11   6    4.6328   555.8    4.746      54.584
2015    8        1    11  13    4.6295   556.1    4.739      54.589
2015    8        1    11  20    4.6261   556.3    4.733      54.593
2015    8        1    11  27    4.6227   556.5    4.726      54.597
2015    8        1    11  33    4.6193   556.7    4.720      54.601
2015    8        1    11  40    4.6159   556.9    4.713      54.605
2015    8        1    11  47    4.6126   557.1    4.707      54.609
2015    8        1    11  54    4.6092   557.4    4.700      54.613
2015    8        1    12   0    4.6058   557.6    4.693      54.616
2015    8        1    12   7    4.6024   557.8    4.687      54.620
2015    8        1    12  14    4.5991   558.0    4.680      54.623
2015    8        1    12  21    4.5957   558.2    4.674      54.626
2015    8        1    12  28    4.5923   558.4    4.667      54.629
2015    8        1    12  34    4.5889   558.6    4.661      54.632
2015    8        1    12  41    4.5856   558.8    4.655      54.635
2015    8        1    12  48    4.5822   559.0    4.648      54.637
2015    8        1    12  55    4.5788   559.3    4.642      54.639
2015    8        1    13   1    4.5754   559.5    4.635      54.642
2015    8        1    13   8    4.5721   559.7    4.629      54.644
2015    8        1    13  15    4.5687   559.9    4.622      54.646
2015    8        1    13  22    4.5653   560.1    4.616      54.648
2015    8        1    13  28    4.5620   560.3    4.610      54.649
2015    8        1    13  35    4.5586   560.5    4.603      54.651
2015    8        1    13  42    4.5552   560.7    4.597      54.652
2015    8        1    13  49    4.5519   560.9    4.591      54.653
2015    8        1    13  56    4.5485   561.1    4.584      54.654
2015    8        1    14   2    4.5452   561.3    4.578      54.655
2015    8        1    14   9    4.5418   561.5    4.572      54.655
2015    8        1    14  16    4.5385   561.7    4.566      54.656
2015    8        1    14  23    4.5351   561.9    4.559      54.656
2015    8        1    14  29    4.5318   562.1    4.553      54.656
2015    8        1    14  36    4.5285   562.3    4.547      54.656
2015    8        1    14  43    4.5251   562.5    4.541      54.656
2015    8        1    14  50    4.5218   562.6    4.535      54.656
2015    8        1    14  57    4.5185   562.8    4.529      54.656
2015    8        1    15   3    4.5151   563.0    4.523      54.655
2015    8        1    15  10    4.5118   563.2    4.517      54.654
2015    8        1    15  17    4.5085   563.4    4.511      54.653
2015    8        1    15  24    4.5052   563.6    4.505      54.652
2015    8        1    15  30    4.5019   563.8    4.499      54.651
2015    8        1    15  37    4.4985   564.0    4.493      54.649
2015    8        1    15  44    4.4952   564.2    4.487      54.648
2015    8        1    15  51    4.4919   564.4    4.481      54.646
2015    8        1    15  58    4.4886   564.5    4.475      54.644
2015    8        1    16   4    4.4853   564.7    4.470      54.642
2015    8        1    16  11    4.4820   564.9    4.464      54.640
2015    8        1    16  18    4.4787   565.1    4.458      54.638
2015    8        1    16  25    4.4754   565.3    4.452      54.635
2015    8        1    16  31    4.4721   565.5    4.447      54.633
2015    8        1    16  38    4.4688   565.6    4.441      54.630
2015    8        1    16  45    4.4655   565.8    4.435      54.627
2015    8        1    16  52    4.4622   566.0    4.430      54.624
2015    8        1    16  58    4.4589   566.2    4.424      54.621
2015    8        1    17   5    4.4556   566.4    4.419      54.617
2015    8        1    17  12    4.4523   566.5    4.413      54.614
2015    8        1    17  19    4.4490   566.7    4.408      54.610
2015    8        1    17  26    4.4457   566.9    4.402      54.606
2015    8        1    17  32    4.4424   567.1    4.397      54.602
2015    8        1    17  39    4.4391   567.2    4.391      54.598
2015    8        1    17  46    4.4358   567.4    4.386      54.594
2015    8        1    17  53    4.4325   567.6    4.380      54.590
2015    8        1    17  59    4.4292   567.8    4.375      54.585
2015    8        1    18   6    4.4259   567.9    4.370      54.580
2015    8        1    18  13    4.4226   568.1    4.364      54.575
2015    8        1    18  20    4.4193   568.3    4.359      54.570
2015    8        1    18  27    4.4159   568.4    4.354      54.565
2015    8        1    18  33    4.4126   568.6    4.348      54.560
2015    8        1    18  40    4.4093   568.7    4.343      54.554
2015    8        1    18  47    4.4060   568.9    4.337      54.548
2015    8        1    18  54    4.4026   569.1    4.332      54.542
2015    8        1    19   0    4.3993   569.2    4.327      54.536
2015    8        1    19   7    4.3959   569.4    4.322      54.530
2015    8        1    19  14    4.3926   569.5    4.316      54.524
2015    8        1    19  21    4.3892   569.7    4.311      54.518
2015    8        1    19  27    4.3858   569.9    4.306      54.511
2015    8        1    19  34    4.3825   570.0    4.300      54.504
2015    8        1    19  41    4.3791   570.2    4.295      54.498
2015    8        1    19  48    4.3757   570.3    4.290      54.491
2015    8        1    19  55    4.3724   570.5    4.285      54.483
2015    8        1    20   1    4.3690   570.6    4.279      54.476
2015    8        1    20   8    4.3656   570.8    4.274      54.469
2015    8        1    20  15    4.3622   570.9    4.269      54.461
2015    8        1    20  22    4.3588   571.1    4.264      54.453
2015    8        1    20  28    4.3555   571.2    4.259      54.445
2015    8        1    20  35    4.3521   571.3    4.253      54.437
2015    8        1    20  42    4.3487   571.5    4.248      54.429
2015    8        1    20  49    4.3453   571.6    4.243      54.421
2015    8        1    20  56    4.3420   571.8    4.238      54.412
2015    8        1    21   2    4.3386   571.9    4.233      54.403
2015    8        1    21   9    4.3352   572.1    4.228      54.394
2015    8        1    21  16    4.3319   572.2    4.223      54.385
2015    8        1    21  23    4.3285   572.3    4.218      54.376
2015    8        1    21  29    4.3252   572.5    4.213      54.366
2015    8        1    21  36    4.3219   572.6    4.208      54.356
2015    8        1    21  43    4.3186   572.7    4.203      54.346
2015    8        1    21  50    4.3152   572.9    4.198      54.336
2015    8        1    21  57    4.3119   573.0    4.193      54.326
2015    8        1    22   3    4.3086   573.1    4.188      54.315
2015    8        1    22  10    4.3053   573.3    4.183      54.305
2015    8        1    22  17    4.3020   573.4    4.179      54.294
2015    8        1    22  24    4.2988   573.5    4.174      54.283
2015    8        1    22  30    4.2955   573.7    4.169      54.271
2015    8        1    22  37    4.2922   573.8    4.164      54.260
2015    8        1    22  44    4.2890   573.9    4.160      54.248
2015    8        1    22  51    4.2858   574.0    4.155      54.237
2015    8        1    22  58    4.2825   574.2    4.151      54.225
2015    8        1    23   4    4.2793   574.3    4.146      54.213
2015    8        1    23  11    4.2761   574.4    4.141      54.201
2015    8        1    23  18    4.2729   574.5    4.137      54.189
2015    8        1    23  25    4.2697   574.7    4.132      54.176
2015    8        1    23  31    4.2664   574.8    4.128      54.164
2015    8        1    23  38    4.2633   574.9    4.124      54.151
2015    8        1    23  45    4.2601   575.0    4.119      54.139
2015    8        1    23  52    4.2569   575.1    4.115      54.126
2015    8        1    23  58    4.2537   575.2    4.110      54.114
2015    8        2     0   5    4.2503   575.4    4.106      54.099
2015    8        2     0  12    4.2469   575.5    4.101      54.084
2015    8        2     0  19    4.2435   575.6    4.097      54.069
2015    8        2     0  26    4.2401   575.7    4.092      54.055
2015    8        2     0  32    4.2367   575.8    4.088      54.040
2015    8        2     0  39    4.2332   575.9    4.083      54.025
2015    8        2     0  46    4.2298   576.0    4.079      54.010
2015    8        2     0  53    4.2264   576.1    4.074      53.995
2015    8        2     0  59    4.2230   576.2    4.070      53.980
2015    8        2     1   6    4.2196   576.3    4.066      53.964
2015    8        2     1  13    4.2161   576.4    4.061      53.949
2015    8        2     1  20    4.2127   576.5    4.057      53.934
2015    8        2     1  27    4.2092   576.6    4.052      53.919
2015    8        2     1  33    4.2058   576.7    4.048      53.903
2015    8        2     1  40    4.2023   576.8    4.044      53.888
2015    8        2     1  47    4.1989   576.9    4.039      53.872
2015    8        2     1  54    4.1954   577.0    4.035      53.857
2015    8        2     2   0    4.1919   577.1    4.031      53.841
2015    8        2     2   7    4.1884   577.2    4.026      53.825
2015    8        2     2  14    4.1849   577.3    4.022      53.809
2015    8        2     2  21    4.1814   577.4    4.018      53.793
2015    8        2     2  27    4.1779   577.5    4.013      53.777
2015    8        2     2  34    4.1743   577.6    4.009      53.760
2015    8        2     2  41    4.1708   577.7    4.005      53.744
2015    8        2     2  48    4.1673   577.8    4.000      53.727
2015    8        2     2  55    4.1637   577.8    3.996      53.710
2015    8        2     3   1    4.1602   577.9    3.992      53.693
2015    8        2     3   8    4.1566   578.0    3.987      53.675
2015    8        2     3  15    4.1531   578.1    3.983      53.657
2015    8        2     3  22    4.1496   578.2    3.979      53.640
2015    8        2     3  28    4.1460   578.3    3.974      53.621
2015    8        2     3  35    4.1425   578.3    3.970      53.603
2015    8        2     3  42    4.1389   578.4    3.966      53.584
2015    8        2     3  49    4.1354   578.5    3.962      53.565
2015    8        2     3  56    4.1319   578.6    3.957      53.546
2015    8        2     4   2    4.1283   578.6    3.953      53.527
2015    8        2     4   9    4.1248   578.7    3.949      53.507
2015    8        2     4  16    4.1213   578.8    3.945      53.487
2015    8        2     4  23    4.1178   578.9    3.941      53.467
2015    8        2     4  29    4.1143   578.9    3.937      53.446
2015    8        2     4  36    4.1108   579.0    3.932      53.425
2015    8        2     4  43    4.1073   579.1    3.928      53.404
2015    8        2     4  50    4.1038   579.1    3.924      53.383
2015    8        2     4  57    4.1004   579.2    3.920      53.362
2015    8        2     5   3    4.0969   579.3    3.916      53.340
2015    8        2     5  10    4.0935   579.3    3.912      53.318
2015    8        2     5  17    4.0900   579.4    3.908      53.296
2015    8        2     5  24    4.0866   579.5    3.904      53.274
2015    8        2     5  30    4.0832   579.5    3.900      53.252
2015    8        2     5  37    4.0798   579.6    3.896      53.230
2015    8        2     5  44    4.0764   579.7    3.892      53.207
2015    8        2     5  51    4.0730   579.7    3.889      53.185
2015    8        2     5  57    4.0697   579.8    3.885      53.162
2015    8        2     6   4    4.0663   579.8    3.881      53.140
2015    8        2     6  11    4.0630   579.9    3.877      53.117
2015    8        2     6  18    4.0596   580.0    3.873      53.095
2015    8        2     6  25    4.0563   580.0    3.870      53.072
2015    8        2     6  31    4.0530   580.1    3.866      53.050
2015    8        2     6  38    4.0497   580.1    3.862      53.028
2015    8        2     6  45    4.0464   580.2    3.859      53.006
2015    8        2     6  52    4.0431   580.2    3.855      52.984
2015    8        2     6  58    4.0399   580.3    3.852      52.962
2015    8        2     7   5    4.0366   580.3    3.848      52.940
2015    8        2     7  12    4.0334   580.4    3.845      52.918
2015    8        2     7  19    4.0301   580.4    3.841      52.897
2015    8        2     7  26    4.0269   580.5    3.838      52.875
2015    8        2     7  32    4.0237   580.5    3.834      52.854
2015    8        2     7  39    4.0205   580.6    3.831      52.833
2015    8        2     7  46    4.0172   580.6    3.827      52.812
2015    8        2     7  53    4.0141   580.7    3.824      52.791
2015    8        2     7  59    4.0108   580.7    3.821      52.771
2015    8        2     8   6    4.0076   580.8    3.817      52.750
2015    8        2     8  13    4.0045   580.8    3.814      52.730
2015    8        2     8  20    4.0012   580.9    3.811      52.709
2015    8        2     8  27    3.9980   580.9    3.807      52.689
2015    8        2     8  33    3.9948   580.9    3.804      52.669
2015    8        2     8  40    3.9916   581.0    3.801      52.649
2015    8        2     8  47    3.9884   581.0    3.798      52.629
2015    8        2     8  54    3.9851   581.1    3.794      52.608
2015    8        2     9   0    3.9819   581.1    3.791      52.588
2015    8        2     9   7    3.9786   581.1    3.788      52.568
2015    8        2     9  14    3.9753   581.2    3.784      52.547
2015    8        2     9  21    3.9721   581.2    3.781      52.527
2015    8        2     9  27    3.9688   581.2    3.778      52.506
2015    8        2     9  34    3.9655   581.3    3.775      52.485
2015    8        2     9  41    3.9622   581.3    3.771      52.464
2015    8        2     9  48    3.9589   581.3    3.768      52.443
2015    8        2     9  55    3.9556   581.4    3.765      52.422
2015    8        2    10   1    3.9523   581.4    3.762      52.400
2015    8        2    10   8    3.9490   581.4    3.758      52.378
2015    8        2    10  15    3.9457   581.5    3.755      52.355
2015    8        2    10  22    3.9424   581.5    3.752      52.333
2015    8        2    10  28    3.9390   581.5    3.749      52.310
2015    8        2    10  35    3.9357   581.5    3.745      52.287
2015    8        2    10  42    3.9324   581.6    3.742      52.263
2015    8        2    10  49    3.9291   581.6    3.739      52.239
2015    8        2    10  56    3.9257   581.6    3.736      52.215
2015    8        2    11   2    3.9224   581.6    3.732      52.190
2015    8        2    11   9    3.9191   581.6    3.729      52.165
2015    8        2    11  16    3.9158   581.6    3.726      52.139
2015    8        2    11  23    3.9125   581.7    3.722      52.113
2015    8        2    11  29    3.9091   581.7    3.719      52.087
2015    8        2    11  36    3.9058   581.7    3.716      52.060
2015    8        2    11  43    3.9025   581.7    3.713      52.033
2015    8        2    11  50    3.8992   581.7    3.709      52.005
2015    8        2    11  56    3.8959   581.7    3.706      51.978
2015    8        2    12   3    3.8926   581.7    3.703      51.950
2015    8        2    12  10    3.8894   581.7    3.699      51.922
2015    8        2    12  17    3.8861   581.7    3.696      51.893
2015    8        2    12  24    3.8828   581.8    3.693      51.864
2015    8        2    12  30    3.8796   581.8    3.690      51.835
2015    8        2    12  37    3.8763   581.8    3.686      51.806
2015    8        2    12  44    3.8731   581.8    3.683      51.777
2015    8        2    12  51    3.8699   581.8    3.680      51.748
2015    8        2    12  57    3.8667   581.8    3.677      51.718
2015    8        2    13   4    3.8635   581.8    3.674      51.689
2015    8        2    13  11    3.8603   581.8    3.671      51.660
2015    8        2    13  18    3.8571   581.8    3.668      51.630
2015    8        2    13  25    3.8540   581.8    3.664      51.601
2015    8        2    13  31    3.8509   581.8    3.661      51.572
2015    8        2    13  38    3.8477   581.8    3.658      51.543
2015    8        2    13  45    3.8446   581.8    3.655      51.514
2015    8        2    13  52    3.8415   581.8    3.652      51.485
2015    8        2    13  58    3.8385   581.8    3.649      51.456
2015    8        2    14   5    3.8354   581.8    3.646      51.428
2015    8        2    14  12    3.8324   581.8    3.644      51.400
2015    8        2    14  19    3.8293   581.8    3.641      51.372
2015    8        2    14  26    3.8263   581.7    3.638      51.345
2015    8        2    14  32    3.8233   581.7    3.635      51.318
2015    8        2    14  39    3.8203   581.7    3.632      51.291
2015    8        2    14  46    3.8174   581.7    3.630      51.264
2015    8        2    14  53    3.8144   581.7    3.627      51.238
2015    8        2    14  59    3.8114   581.7    3.624      51.212
2015    8        2    15   6    3.8085   581.7    3.621      51.186
2015    8        2    15  13    3.8056   581.7    3.619      51.161
2015    8        2    15  20    3.8027   581.7    3.616      51.136
2015    8        2    15  26    3.7998   581.7    3.614      51.111
2015    8        2    15  33    3.7969   581.7    3.611      51.087
2015    8        2    15  40    3.7940   581.7    3.609      51.063
2015    8        2    15  47    3.7911   581.6    3.606      51.039
2015    8        2    15  54    3.7882   581.6    3.604      51.015
2015    8        2    16   0    3.7853   581.6    3.601      50.991
2015    8        2    16   7    3.7824   581.6    3.599      50.968
2015    8        2    16  14    3.7795   581.6    3.597      50.945
2015    8        2    16  21    3.7766   581.6    3.594      50.922
2015    8        2    16  27    3.7737   581.6    3.592      50.898
2015    8        2    16  34    3.7708   581.6    3.590      50.875
2015    8        2    16  41    3.7678   581.5    3.587      50.852
2015    8        2    16  48    3.7649   581.5    3.585      50.829
2015    8        2    16  55    3.7619   581.5    3.583      50.806
2015    8        2    17   1    3.7590   581.5    3.580      50.783
2015    8        2    17   8    3.7560   581.5    3.578      50.760
2015    8        2    17  15    3.7530   581.4    3.576      50.736
2015    8        2    17  22    3.7500   581.4    3.574      50.712
2015    8        2    17  28    3.7470   581.4    3.571      50.688
2015    8        2    17  35    3.7440   581.4    3.569      50.664
2015    8        2    17  42    3.7410   581.3    3.567      50.639
2015    8        2    17  49    3.7380   581.3    3.565      50.614
2015    8        2    17  55    3.7349   581.3    3.562      50.588
2015    8        2    18   2    3.7319   581.3    3.560      50.562
2015    8        2    18   9    3.7288   581.2    3.558      50.535
2015    8        2    18  16    3.7258   581.2    3.556      50.508
2015    8        2    18  23    3.7227   581.2    3.553      50.480
2015    8        2    18  29    3.7197   581.1    3.551      50.451
2015    8        2    18  36    3.7166   581.1    3.548      50.422
2015    8        2    18  43    3.7136   581.1    3.546      50.392
2015    8        2    18  50    3.7105   581.0    3.543      50.362
2015    8        2    18  56    3.7074   581.0    3.541      50.331
2015    8        2    19   3    3.7044   580.9    3.538      50.299
2015    8        2    19  10    3.7013   580.9    3.536      50.267
2015    8        2    19  17    3.6983   580.9    3.533      50.235
2015    8        2    19  24    3.6953   580.8    3.531      50.202
2015    8        2    19  30    3.6923   580.8    3.528      50.169
2015    8        2    19  37    3.6893   580.7    3.525      50.136
2015    8        2    19  44    3.6863   580.7    3.523      50.102
2015    8        2    19  51    3.6833   580.6    3.520      50.067
2015    8        2    19  57    3.6803   580.6    3.517      50.033
2015    8        2    20   4    3.6774   580.5    3.515      49.998
2015    8        2    20  11    3.6745   580.5    3.512      49.963
2015    8        2    20  18    3.6716   580.4    3.509      49.928
2015    8        2    20  25    3.6687   580.4    3.507      49.892
2015    8        2    20  31    3.6658   580.3    3.504      49.857
2015    8        2    20  38    3.6629   580.3    3.501      49.821
2015    8        2    20  45    3.6601   580.2    3.499      49.786
2015    8        2    20  52    3.6572   580.2    3.496      49.750
2015    8        2    20  58    3.6544   580.1    3.493      49.714
2015    8        2    21   5    3.6516   580.0    3.490      49.678
2015    8        2    21  12    3.6489   580.0    3.488      49.643
2015    8        2    21  19    3.6461   579.9    3.485      49.607
2015    8        2    21  25    3.6433   579.9    3.482      49.572
2015    8        2    21  32    3.6406   579.8    3.480      49.536
2015    8        2    21  39    3.6379   579.8    3.477      49.501
2015    8        2    21  46    3.6352   579.7    3.474      49.466
2015    8        2    21  53    3.6325   579.6    3.472      49.432
2015    8        2    21  59    3.6298   579.6    3.469      49.397
2015    8        2    22   6    3.6272   579.5    3.467      49.363
2015    8        2    22  13    3.6245   579.5    3.464      49.329
2015    8        2    22  20    3.6219   579.4    3.462      49.296
2015    8        2    22  26    3.6192   579.3    3.460      49.263
2015    8        2    22  33    3.6166   579.3    3.457      49.231
2015    8        2    22  40    3.6140   579.2    3.455      49.199
2015    8        2    22  47    3.6115   579.2    3.453      49.167
2015    8        2    22  54    3.6089   579.1    3.451      49.136
2015    8        2    23   0    3.6063   579.0    3.449      49.106
2015    8        2    23   7    3.6038   579.0    3.447      49.076
2015    8        2    23  14    3.6012   578.9    3.445      49.047
2015    8        2    23  21    3.5987   578.8    3.443      49.018
2015    8        2    23  27    3.5962   578.8    3.441      48.990
2015    8        2    23  34    3.5937   578.7    3.439      48.963
2015    8        2    23  41    3.5912   578.7    3.438      48.937
2015    8        2    23  48    3.5886   578.6    3.436      48.910
2015    8        2    23  54    3.5861   578.5    3.435      48.885
2015    8        3     0   1    3.5836   578.5    3.433      48.860
2015    8        3     0   8    3.5810   578.4    3.432      48.835
2015    8        3     0  15    3.5785   578.3    3.431      48.811
2015    8        3     0  22    3.5759   578.3    3.430      48.787
2015    8        3     0  28    3.5732   578.2    3.429      48.764
2015    8        3     0  35    3.5706   578.2    3.428      48.740
2015    8        3     0  42    3.5680   578.1    3.427      48.717
2015    8        3     0  49    3.5653   578.0    3.426      48.694
2015    8        3     0  55    3.5626   578.0    3.425      48.671
2015    8        3     1   2    3.5599   577.9    3.424      48.647
2015    8        3     1   9    3.5572   577.8    3.423      48.623
2015    8        3     1  16    3.5545   577.8    3.422      48.599
2015    8        3     1  23    3.5517   577.7    3.421      48.575
2015    8        3     1  29    3.5490   577.6    3.420      48.549
2015    8        3     1  36    3.5462   577.5    3.419      48.523
2015    8        3     1  43    3.5435   577.5    3.418      48.497
2015    8        3     1  50    3.5407   577.4    3.416      48.469
2015    8        3     1  56    3.5380   577.3    3.415      48.441
2015    8        3     2   3    3.5352   577.2    3.414      48.412
2015    8        3     2  10    3.5324   577.1    3.413      48.382
2015    8        3     2  17    3.5297   577.1    3.411      48.352
2015    8        3     2  24    3.5270   577.0    3.410      48.321
2015    8        3     2  30    3.5242   576.9    3.409      48.290
2015    8        3     2  37    3.5215   576.8    3.407      48.258
2015    8        3     2  44    3.5189   576.7    3.406      48.225
2015    8        3     2  51    3.5162   576.6    3.404      48.192
2015    8        3     2  57    3.5136   576.5    3.403      48.159
2015    8        3     3   4    3.5110   576.4    3.401      48.125
2015    8        3     3  11    3.5084   576.4    3.399      48.090
2015    8        3     3  18    3.5058   576.3    3.398      48.055
2015    8        3     3  24    3.5033   576.2    3.396      48.020
2015    8        3     3  31    3.5008   576.1    3.394      47.984
2015    8        3     3  38    3.4984   576.0    3.393      47.948
2015    8        3     3  45    3.4960   575.9    3.391      47.912
2015    8        3     3  52    3.4937   575.8    3.389      47.875
2015    8        3     3  58    3.4913   575.7    3.387      47.838
2015    8        3     4   5    3.4891   575.6    3.386      47.800
2015    8        3     4  12    3.4869   575.5    3.384      47.763
2015    8        3     4  19    3.4847   575.4    3.382      47.725
2015    8        3     4  25    3.4825   575.3    3.380      47.688
2015    8        3     4  32    3.4805   575.2    3.379      47.650
2015    8        3     4  39    3.4784   575.1    3.377      47.612
2015    8        3     4  46    3.4765   575.0    3.375      47.574
2015    8        3     4  53    3.4745   574.9    3.373      47.537
2015    8        3     4  59    3.4727   574.8    3.372      47.500
2015    8        3     5   6    3.4709   574.8    3.370      47.463
2015    8        3     5  13    3.4691   574.7    3.368      47.426
2015    8        3     5  20    3.4674   574.6    3.367      47.391
2015    8        3     5  26    3.4657   574.5    3.365      47.355
2015    8        3     5  33    3.4641   574.4    3.364      47.321
2015    8        3     5  40    3.4626   574.3    3.363      47.286
2015    8        3     5  47    3.4611   574.2    3.362      47.254
2015    8        3     5  53    3.4597   574.1    3.360      47.221
2015    8        3     6   0    3.4583   574.0    3.359      47.190
2015    8        3     6   7    3.4570   573.9    3.359      47.160
2015    8        3     6  14    3.4558   573.8    3.358      47.131
2015    8        3     6  21    3.4547   573.7    3.357      47.103
2015    8        3     6  27    3.4536   573.6    3.357      47.077
2015    8        3     6  34    3.4525   573.6    3.356      47.051
2015    8        3     6  41    3.4516   573.5    3.356      47.027
2015    8        3     6  48    3.4507   573.4    3.356      47.003
2015    8        3     6  54    3.4498   573.3    3.356      46.980
2015    8        3     7   1    3.4491   573.2    3.356      46.958
2015    8        3     7   8    3.4483   573.1    3.356      46.936
2015    8        3     7  15    3.4476   573.1    3.356      46.915
2015    8        3     7  22    3.4470   573.0    3.356      46.894
2015    8        3     7  28    3.4463   572.9    3.356      46.872
2015    8        3     7  35    3.4456   572.8    3.356      46.850
2015    8        3     7  42    3.4449   572.7    3.356      46.827
2015    8        3     7  49    3.4442   572.6    3.356      46.802
2015    8        3     7  55    3.4435   572.5    3.356      46.776
2015    8        3     8   2    3.4428   572.4    3.356      46.750
2015    8        3     8   9    3.4421   572.3    3.356      46.722
2015    8        3     8  16    3.4414   572.2    3.355      46.693
2015    8        3     8  23    3.4406   572.1    3.355      46.664
2015    8        3     8  29    3.4399   572.0    3.354      46.634
2015    8        3     8  36    3.4390   571.9    3.354      46.603
2015    8        3     8  43    3.4382   571.7    3.353      46.571
2015    8        3     8  50    3.4372   571.6    3.353      46.538
2015    8        3     8  56    3.4362   571.5    3.352      46.505
2015    8        3     9   3    3.4351   571.4    3.351      46.471
2015    8        3     9  10    3.4339   571.2    3.350      46.435
2015    8        3     9  17    3.4327   571.1    3.350      46.400
2015    8        3     9  23    3.4314   571.0    3.349      46.363
2015    8        3     9  30    3.4299   570.8    3.348      46.326
2015    8        3     9  37    3.4284   570.7    3.347      46.288
2015    8        3     9  44    3.4268   570.6    3.346      46.249
2015    8        3     9  51    3.4252   570.4    3.345      46.210
2015    8        3     9  57    3.4234   570.3    3.344      46.170
2015    8        3    10   4    3.4216   570.1    3.343      46.130
2015    8        3    10  11    3.4197   570.0    3.342      46.090
2015    8        3    10  18    3.4177   569.9    3.341      46.049
2015    8        3    10  24    3.4156   569.7    3.340      46.007
2015    8        3    10  31    3.4135   569.6    3.338      45.966
2015    8        3    10  38    3.4112   569.4    3.337      45.924
2015    8        3    10  45    3.4090   569.3    3.336      45.882
2015    8        3    10  52    3.4066   569.1    3.335      45.839
2015    8        3    10  58    3.4042   569.0    3.334      45.797
2015    8        3    11   5    3.4018   568.8    3.333      45.754
2015    8        3    11  12    3.3993   568.7    3.332      45.712
2015    8        3    11  19    3.3967   568.5    3.331      45.669
2015    8        3    11  25    3.3941   568.4    3.330      45.626
2015    8        3    11  32    3.3915   568.2    3.329      45.583
2015    8        3    11  39    3.3888   568.1    3.328      45.540
2015    8        3    11  46    3.3861   567.9    3.326      45.497
2015    8        3    11  52    3.3834   567.8    3.325      45.454
2015    8        3    11  59    3.3806   567.6    3.324      45.412
2015    8        3    12   6    3.3778   567.5    3.323      45.369
2015    8        3    12  13    3.3750   567.3    3.322      45.327
2015    8        3    12  20    3.3722   567.2    3.322      45.284
2015    8        3    12  26    3.3693   567.0    3.321      45.242
2015    8        3    12  33    3.3665   566.9    3.320      45.200
2015    8        3    12  40    3.3636   566.7    3.319      45.158
2015    8        3    12  47    3.3607   566.6    3.318      45.117
2015    8        3    12  53    3.3579   566.4    3.317      45.076
2015    8        3    13   0    3.3550   566.3    3.316      45.035
2015    8        3    13   7    3.3521   566.1    3.315      44.994
2015    8        3    13  14    3.3492   566.0    3.314      44.954
2015    8        3    13  21    3.3464   565.8    3.314      44.914
2015    8        3    13  27    3.3435   565.7    3.313      44.874
2015    8        3    13  34    3.3406   565.5    3.312      44.835
2015    8        3    13  41    3.3378   565.4    3.311      44.796
2015    8        3    13  48    3.3350   565.2    3.310      44.758
2015    8        3    13  54    3.3321   565.1    3.310      44.720
2015    8        3    14   1    3.3293   565.0    3.309      44.682
2015    8        3    14   8    3.3266   564.8    3.308      44.645
2015    8        3    14  15    3.3238   564.7    3.307      44.608
2015    8        3    14  21    3.3211   564.5    3.307      44.572
2015    8        3    14  28    3.3184   564.4    3.306      44.536
2015    8        3    14  35    3.3157   564.2    3.305      44.501
2015    8        3    14  42    3.3130   564.1    3.304      44.466
2015    8        3    14  49    3.3104   563.9    3.304      44.432
2015    8        3    14  55    3.3078   563.8    3.303      44.398
2015    8        3    15   2    3.3052   563.7    3.303      44.364
2015    8        3    15   9    3.3027   563.5    3.302      44.331
2015    8        3    15  16    3.3002   563.4    3.301      44.298
2015    8        3    15  22    3.2977   563.2    3.301      44.266
2015    8        3    15  29    3.2953   563.1    3.300      44.233
2015    8        3    15  36    3.2929   562.9    3.300      44.202
2015    8        3    15  43    3.2905   562.8    3.299      44.170
2015    8        3    15  50    3.2881   562.7    3.299      44.138
2015    8        3    15  56    3.2858   562.5    3.299      44.107
2015    8        3    16   3    3.2835   562.4    3.298      44.076
2015    8        3    16  10    3.2812   562.3    3.298      44.045
2015    8        3    16  17    3.2789   562.1    3.298      44.014
2015    8        3    16  23    3.2767   562.0    3.297      43.983
2015    8        3    16  30    3.2744   561.8    3.297      43.952
2015    8        3    16  37    3.2723   561.7    3.297      43.921
2015    8        3    16  44    3.2701   561.5    3.297      43.891
2015    8        3    16  50    3.2679   561.4    3.296      43.860
2015    8        3    16  57    3.2658   561.3    3.296      43.829
2015    8        3    17   4    3.2636   561.1    3.296      43.799
2015    8        3    17  11    3.2615   561.0    3.296      43.769
2015    8        3    17  18    3.2593   560.8    3.296      43.738
2015    8        3    17  24    3.2572   560.7    3.296      43.708
2015    8        3    17  31    3.2551   560.6    3.296      43.679
2015    8        3    17  38    3.2529   560.4    3.297      43.649
2015    8        3    17  45    3.2508   560.3    3.297      43.620
2015    8        3    17  51    3.2486   560.1    3.297      43.590
2015    8        3    17  58    3.2465   560.0    3.297      43.562
2015    8        3    18   5    3.2444   559.9    3.298      43.533
2015    8        3    18  12    3.2422   559.7    3.298      43.504
2015    8        3    18  19    3.2401   559.6    3.298      43.476
2015    8        3    18  25    3.2380   559.4    3.299      43.448
2015    8        3    18  32    3.2359   559.3    3.299      43.420
2015    8        3    18  39    3.2338   559.1    3.300      43.392
2015    8        3    18  46    3.2317   559.0    3.301      43.364
2015    8        3    18  52    3.2297   558.8    3.301      43.337
2015    8        3    18  59    3.2276   558.7    3.302      43.310
2015    8        3    19   6    3.2256   558.5    3.302      43.283
2015    8        3    19  13    3.2236   558.4    3.303      43.256
2015    8        3    19  20    3.2216   558.3    3.304      43.229
2015    8        3    19  26    3.2196   558.1    3.305      43.203
2015    8        3    19  33    3.2176   558.0    3.305      43.177
2015    8        3    19  40    3.2157   557.8    3.306      43.151
2015    8        3    19  47    3.2137   557.7    3.307      43.125
2015    8        3    19  53    3.2118   557.5    3.308      43.099
2015    8        3    20   0    3.2099   557.4    3.308      43.073
2015    8        3    20   7    3.2080   557.2    3.309      43.047
2015    8        3    20  14    3.2061   557.1    3.310      43.022
2015    8        3    20  20    3.2043   556.9    3.311      42.996
2015    8        3    20  27    3.2024   556.8    3.312      42.971
2015    8        3    20  34    3.2005   556.6    3.312      42.946
2015    8        3    20  41    3.1986   556.5    3.313      42.919
2015    8        3    20  48    3.1967   556.4    3.313      42.892
2015    8        3    20  54    3.1948   556.2    3.314      42.864
2015    8        3    21   1    3.1929   556.1    3.314      42.836
2015    8        3    21   8    3.1910   555.9    3.315      42.806
2015    8        3    21  15    3.1891   555.8    3.315      42.776
2015    8        3    21  21    3.1872   555.6    3.315      42.746
2015    8        3    21  28    3.1853   555.5    3.315      42.715
2015    8        3    21  35    3.1834   555.3    3.315      42.683
2015    8        3    21  42    3.1815   555.2    3.315      42.651
2015    8        3    21  49    3.1797   555.0    3.315      42.618
2015    8        3    21  55    3.1778   554.9    3.315      42.585
2015    8        3    22   2    3.1760   554.7    3.315      42.552
2015    8        3    22   9    3.1742   554.6    3.315      42.519
2015    8        3    22  16    3.1724   554.4    3.315      42.486
2015    8        3    22  22    3.1706   554.3    3.315      42.452
2015    8        3    22  29    3.1688   554.1    3.315      42.418
2015    8        3    22  36    3.1671   554.0    3.315      42.385
2015    8        3    22  43    3.1653   553.8    3.315      42.351
2015    8        3    22  49    3.1636   553.7    3.315      42.318
2015    8        3    22  56    3.1619   553.5    3.315      42.284
2015    8        3    23   3    3.1602   553.4    3.315      42.251
2015    8        3    23  10    3.1585   553.2    3.315      42.218
2015    8        3    23  17    3.1568   553.1    3.315      42.184
2015    8        3    23  23    3.1552   552.9    3.315      42.151
2015    8        3    23  30    3.1535   552.8    3.315      42.118
2015    8        3    23  37    3.1518   552.6    3.315      42.084
2015    8        3    23  44    3.1502   552.5    3.315      42.051
2015    8        3    23  50    3.1485   552.3    3.315      42.017
2015    8        3    23  57    3.1467   552.2    3.315      41.983
2015    8        4     0   4    3.1450   552.0    3.315      41.948
2015    8        4     0  11    3.1433   551.9    3.315      41.912
2015    8        4     0  18    3.1416   551.7    3.315      41.876
2015    8        4     0  24    3.1398   551.6    3.315      41.839
2015    8        4     0  31    3.1380   551.4    3.315      41.802
2015    8        4     0  38    3.1362   551.3    3.315      41.764
2015    8        4     0  45    3.1345   551.1    3.315      41.727
2015    8        4     0  51    3.1327   551.0    3.314      41.688
2015    8        4     0  58    3.1309   550.8    3.314      41.649
2015    8        4     1   5    3.1291   550.6    3.314      41.610
2015    8        4     1  12    3.1274   550.5    3.314      41.571
2015    8        4     1  18    3.1256   550.3    3.313      41.532
2015    8        4     1  25    3.1238   550.1    3.313      41.492
2015    8        4     1  32    3.1221   550.0    3.313      41.453
2015    8        4     1  39    3.1203   549.8    3.312      41.413
2015    8        4     1  46    3.1186   549.7    3.312      41.374
2015    8        4     1  52    3.1169   549.5    3.312      41.335
2015    8        4     1  59    3.1152   549.3    3.311      41.296
2015    8        4     2   6    3.1135   549.1    3.311      41.257
2015    8        4     2  13    3.1119   549.0    3.311      41.219
2015    8        4     2  19    3.1102   548.8    3.311      41.181
2015    8        4     2  26    3.1086   548.6    3.311      41.143
2015    8        4     2  33    3.1070   548.5    3.311      41.106
2015    8        4     2  40    3.1055   548.3    3.311      41.070
2015    8        4     2  47    3.1039   548.1    3.311      41.034
2015    8        4     2  53    3.1024   548.0    3.311      40.998
2015    8        4     3   0    3.1009   547.8    3.311      40.963
2015    8        4     3   7    3.0993   547.6    3.311      40.929
2015    8        4     3  14    3.0978   547.5    3.312      40.895
2015    8        4     3  20    3.0963   547.3    3.312      40.862
2015    8        4     3  27    3.0948   547.1    3.312      40.831
2015    8        4     3  34    3.0933   547.0    3.312      40.800
2015    8        4     3  41    3.0918   546.8    3.312      40.769
2015    8        4     3  48    3.0903   546.6    3.313      40.739
2015    8        4     3  54    3.0888   546.4    3.313      40.710
2015    8        4     4   1    3.0873   546.3    3.313      40.680
2015    8        4     4   8    3.0859   546.1    3.313      40.651
2015    8        4     4  15    3.0844   545.9    3.313      40.621
2015    8        4     4  21    3.0829   545.8    3.313      40.592
2015    8        4     4  28    3.0814   545.6    3.313      40.562
2015    8        4     4  35    3.0799   545.4    3.313      40.532
2015    8        4     4  42    3.0785   545.2    3.313      40.502
2015    8        4     4  48    3.0770   545.1    3.313      40.471
2015    8        4     4  55    3.0755   544.9    3.313      40.440
2015    8        4     5   2    3.0740   544.7    3.313      40.408
2015    8        4     5   9    3.0726   544.5    3.313      40.376
2015    8        4     5  16    3.0711   544.4    3.313      40.343
2015    8        4     5  22    3.0697   544.2    3.313      40.309
2015    8        4     5  29    3.0682   544.0    3.313      40.275
2015    8        4     5  36    3.0667   543.8    3.312      40.240
2015    8        4     5  43    3.0653   543.7    3.312      40.205
2015    8        4     5  49    3.0639   543.5    3.312      40.169
2015    8        4     5  56    3.0625   543.3    3.311      40.133
2015    8        4     6   3    3.0611   543.1    3.311      40.097
2015    8        4     6  10    3.0597   543.0    3.311      40.060
2015    8        4     6  17    3.0583   542.8    3.310      40.024
2015    8        4     6  23    3.0570   542.6    3.310      39.986
2015    8        4     6  30    3.0556   542.4    3.309      39.949
2015    8        4     6  37    3.0543   542.3    3.309      39.911
2015    8        4     6  44    3.0530   542.1    3.308      39.873
2015    8        4     6  50    3.0517   541.9    3.307      39.835
2015    8        4     6  57    3.0504   541.7    3.307      39.797
2015    8        4     7   4    3.0492   541.6    3.306      39.758
2015    8        4     7  11    3.0479   541.4    3.305      39.719
2015    8        4     7  17    3.0467   541.2    3.305      39.681
2015    8        4     7  24    3.0455   541.0    3.304      39.642
2015    8        4     7  31    3.0443   540.9    3.303      39.603
2015    8        4     7  38    3.0431   540.7    3.303      39.564
2015    8        4     7  45    3.0420   540.5    3.302      39.525
2015    8        4     7  51    3.0408   540.3    3.301      39.487
2015    8        4     7  58    3.0397   540.2    3.301      39.448
2015    8        4     8   5    3.0386   540.0    3.300      39.410
2015    8        4     8  12    3.0376   539.8    3.300      39.373
2015    8        4     8  18    3.0365   539.6    3.299      39.335
2015    8        4     8  25    3.0355   539.5    3.299      39.298
2015    8        4     8  32    3.0345   539.3    3.299      39.262
2015    8        4     8  39    3.0335   539.1    3.299      39.226
2015    8        4     8  46    3.0326   538.9    3.299      39.191
2015    8        4     8  52    3.0316   538.7    3.299      39.156
2015    8        4     8  59    3.0306   538.6    3.299      39.122
2015    8        4     9   6    3.0297   538.4    3.299      39.088
2015    8        4     9  13    3.0287   538.2    3.299      39.055
2015    8        4     9  19    3.0278   538.0    3.299      39.023
2015    8        4     9  26    3.0268   537.8    3.300      38.991
2015    8        4     9  33    3.0257   537.7    3.300      38.960
2015    8        4     9  40    3.0247   537.5    3.301      38.930
2015    8        4     9  46    3.0237   537.3    3.302      38.900
2015    8        4     9  53    3.0226   537.1    3.302      38.870
2015    8        4    10   0    3.0215   537.0    3.303      38.841
2015    8        4    10   7    3.0204   536.8    3.304      38.812
2015    8        4    10  14    3.0192   536.6    3.304      38.784
2015    8        4    10  20    3.0181   536.4    3.305      38.756
2015    8        4    10  27    3.0169   536.2    3.306      38.728
2015    8        4    10  34    3.0157   536.0    3.306      38.700
2015    8        4    10  41    3.0145   535.9    3.307      38.673
2015    8        4    10  47    3.0133   535.7    3.307      38.646
2015    8        4    10  54    3.0121   535.5    3.308      38.619
2015    8        4    11   1    3.0109   535.3    3.308      38.592
2015    8        4    11   8    3.0097   535.1    3.308      38.565
2015    8        4    11  15    3.0084   534.9    3.309      38.539
2015    8        4    11  21    3.0072   534.7    3.309      38.512
2015    8        4    11  28    3.0060   534.5    3.309      38.486
2015    8        4    11  35    3.0048   534.3    3.309      38.459
2015    8        4    11  42    3.0036   534.1    3.309      38.431
2015    8        4    11  48    3.0024   533.9    3.310      38.404
2015    8        4    11  55    3.0012   533.7    3.310      38.375
2015    8        4    12   2    3.0001   533.5    3.310      38.346
2015    8        4    12   9    2.9989   533.3    3.310      38.317
2015    8        4    12  15    2.9978   533.1    3.310      38.287
2015    8        4    12  22    2.9966   532.9    3.311      38.257
2015    8        4    12  29    2.9955   532.7    3.311      38.226
2015    8        4    12  36    2.9945   532.4    3.311      38.195
2015    8        4    12  43    2.9934   532.2    3.311      38.164
2015    8        4    12  49    2.9923   532.0    3.312      38.133
2015    8        4    12  56    2.9913   531.8    3.312      38.102
2015    8        4    13   3    2.9903   531.6    3.313      38.071
2015    8        4    13  10    2.9893   531.4    3.313      38.040
2015    8        4    13  16    2.9882   531.2    3.314      38.009
2015    8        4    13  23    2.9873   531.0    3.315      37.978
2015    8        4    13  30    2.9863   530.8    3.315      37.947
2015    8        4    13  37    2.9853   530.6    3.316      37.916
2015    8        4    13  44    2.9843   530.4    3.317      37.885
2015    8        4    13  50    2.9833   530.2    3.318      37.854
2015    8        4    13  57    2.9823   530.0    3.319      37.824
2015    8        4    14   4    2.9813   529.8    3.320      37.793
2015    8        4    14  11    2.9803   529.6    3.321      37.762
2015    8        4    14  17    2.9793   529.4    3.322      37.731
2015    8        4    14  24    2.9782   529.2    3.323      37.700
2015    8        4    14  31    2.9772   529.0    3.324      37.669
2015    8        4    14  38    2.9761   528.8    3.324      37.638
2015    8        4    14  44    2.9750   528.6    3.325      37.607
2015    8        4    14  51    2.9739   528.3    3.326      37.575
2015    8        4    14  58    2.9728   528.1    3.327      37.543
2015    8        4    15   5    2.9717   527.9    3.328      37.511
2015    8        4    15  12    2.9706   527.7    3.329      37.479
2015    8        4    15  18    2.9695   527.5    3.330      37.447
2015    8        4    15  25    2.9684   527.2    3.330      37.415
2015    8        4    15  32    2.9673   527.0    3.331      37.384
2015    8        4    15  39    2.9663   526.8    3.332      37.353
2015    8        4    15  45    2.9652   526.5    3.333      37.322
2015    8        4    15  52    2.9642   526.3    3.334      37.293
2015    8        4    15  59    2.9632   526.1    3.336      37.264
2015    8        4    16   6    2.9623   525.8    3.337      37.236
2015    8        4    16  13    2.9614   525.6    3.338      37.209
2015    8        4    16  19    2.9605   525.4    3.340      37.183
2015    8        4    16  26    2.9597   525.1    3.342      37.159
2015    8        4    16  33    2.9590   524.9    3.343      37.136
2015    8        4    16  40    2.9583   524.7    3.346      37.114
2015    8        4    16  46    2.9577   524.5    3.348      37.094
2015    8        4    16  53    2.9570   524.2    3.350      37.076
2015    8        4    17   0    2.9564   524.0    3.353      37.059
2015    8        4    17   7    2.9559   523.8    3.355      37.044
2015    8        4    17  13    2.9553   523.6    3.358      37.030
2015    8        4    17  20    2.9547   523.4    3.361      37.017
2015    8        4    17  27    2.9540   523.2    3.364      37.004
2015    8        4    17  34    2.9534   523.0    3.367      36.991
2015    8        4    17  41    2.9527   522.7    3.369      36.978
2015    8        4    17  47    2.9519   522.5    3.372      36.965
2015    8        4    17  54    2.9512   522.3    3.375      36.951
2015    8        4    18   1    2.9503   522.1    3.378      36.938
2015    8        4    18   8    2.9495   521.9    3.381      36.924
2015    8        4    18  14    2.9486   521.7    3.383      36.910
2015    8        4    18  21    2.9478   521.5    3.386      36.896
2015    8        4    18  28    2.9469   521.3    3.389      36.881
2015    8        4    18  35    2.9459   521.1    3.391      36.866
2015    8        4    18  42    2.9450   520.9    3.393      36.850
2015    8        4    18  48    2.9440   520.7    3.396      36.834
2015    8        4    18  55    2.9431   520.5    3.398      36.818
2015    8        4    19   2    2.9421   520.2    3.400      36.801
2015    8        4    19   9    2.9412   520.0    3.402      36.784
2015    8        4    19  15    2.9402   519.8    3.404      36.767
2015    8        4    19  22    2.9392   519.6    3.406      36.749
2015    8        4    19  29    2.9383   519.4    3.408      36.730
2015    8        4    19  36    2.9373   519.2    3.410      36.711
2015    8        4    19  42    2.9363   519.0    3.412      36.691
2015    8        4    19  49    2.9353   518.8    3.413      36.671
2015    8        4    19  56    2.9344   518.5    3.415      36.650
2015    8        4    20   3    2.9334   518.3    3.417      36.628
2015    8        4    20  10    2.9324   518.1    3.418      36.606
2015    8        4    20  16    2.9314   517.9    3.420      36.583
2015    8        4    20  23    2.9304   517.7    3.421      36.560
2015    8        4    20  30    2.9294   517.5    3.423      36.536
2015    8        4    20  37    2.9284   517.3    3.424      36.511
2015    8        4    20  43    2.9274   517.0    3.426      36.486
2015    8        4    20  50    2.9263   516.8    3.427      36.460
2015    8        4    20  57    2.9253   516.6    3.428      36.434
2015    8        4    21   4    2.9243   516.4    3.429      36.407
2015    8        4    21  11    2.9233   516.2    3.431      36.380
2015    8        4    21  17    2.9223   516.0    3.432      36.353
2015    8        4    21  24    2.9213   515.7    3.433      36.325
2015    8        4    21  31    2.9203   515.5    3.434      36.297
2015    8        4    21  38    2.9193   515.3    3.435      36.268
2015    8        4    21  44    2.9183   515.1    3.437      36.240
2015    8        4    21  51    2.9173   514.8    3.438      36.211
2015    8        4    21  58    2.9163   514.6    3.439      36.182
2015    8        4    22   5    2.9153   514.4    3.440      36.153
2015    8        4    22  11    2.9144   514.2    3.442      36.124
2015    8        4    22  18    2.9135   513.9    3.443      36.095
2015    8        4    22  25    2.9125   513.7    3.444      36.066
2015    8        4    22  32    2.9116   513.5    3.446      36.038
2015    8        4    22  39    2.9107   513.2    3.447      36.009
2015    8        4    22  45    2.9099   513.0    3.449      35.980
2015    8        4    22  52    2.9090   512.8    3.450      35.952
2015    8        4    22  59    2.9082   512.6    3.452      35.923
2015    8        4    23   6    2.9074   512.3    3.454      35.895
2015    8        4    23  12    2.9066   512.1    3.455      35.867
2015    8        4    23  19    2.9058   511.9    3.457      35.840
2015    8        4    23  26    2.9051   511.6    3.459      35.812
2015    8        4    23  33    2.9044   511.4    3.461      35.785
2015    8        4    23  40    2.9037   511.1    3.463      35.758
2015    8        4    23  46    2.9030   510.9    3.465      35.731
2015    8        4    23  53    2.9023   510.7    3.467      35.705
2015    8        5     0   0    2.9017   510.4    3.470      35.679
2015    8        5     0   7    2.9011   510.2    3.472      35.654
2015    8        5     0  13    2.9005   510.0    3.474      35.629
2015    8        5     0  20    2.9000   509.7    3.477      35.605
2015    8        5     0  27    2.8994   509.5    3.480      35.581
2015    8        5     0  34    2.8989   509.3    3.482      35.557
2015    8        5     0  40    2.8985   509.0    3.485      35.535
2015    8        5     0  47    2.8980   508.8    3.488      35.513
2015    8        5     0  54    2.8976   508.6    3.491      35.491
2015    8        5     1   1    2.8972   508.3    3.494      35.470
2015    8        5     1   8    2.8968   508.1    3.497      35.450
2015    8        5     1  14    2.8965   507.9    3.500      35.430
2015    8        5     1  21    2.8961   507.6    3.503      35.411
2015    8        5     1  28    2.8957   507.4    3.507      35.392
2015    8        5     1  35    2.8953   507.2    3.510      35.374
2015    8        5     1  41    2.8949   507.0    3.514      35.357
2015    8        5     1  48    2.8945   506.7    3.517      35.340
2015    8        5     1  55    2.8941   506.5    3.521      35.323
2015    8        5     2   2    2.8937   506.3    3.524      35.307
2015    8        5     2   9    2.8932   506.1    3.528      35.291
2015    8        5     2  15    2.8927   505.9    3.532      35.275
2015    8        5     2  22    2.8923   505.6    3.535      35.259
2015    8        5     2  29    2.8918   505.4    3.539      35.244
2015    8        5     2  36    2.8913   505.2    3.543      35.228
2015    8        5     2  42    2.8908   505.0    3.546      35.213
2015    8        5     2  49    2.8903   504.7    3.550      35.198
2015    8        5     2  56    2.8898   504.5    3.554      35.183
2015    8        5     3   3    2.8893   504.3    3.557      35.168
2015    8        5     3   9    2.8888   504.1    3.561      35.154
2015    8        5     3  16    2.8883   503.8    3.565      35.139
2015    8        5     3  23    2.8878   503.6    3.568      35.124
2015    8        5     3  30    2.8873   503.4    3.572      35.109
2015    8        5     3  37    2.8868   503.2    3.576      35.095
2015    8        5     3  43    2.8862   503.0    3.579      35.080
2015    8        5     3  50    2.8857   502.8    3.583      35.064
2015    8        5     3  57    2.8852   502.5    3.586      35.048
2015    8        5     4   4    2.8846   502.3    3.590      35.032
2015    8        5     4  10    2.8841   502.1    3.593      35.015
2015    8        5     4  17    2.8835   501.9    3.597      34.998
2015    8        5     4  24    2.8830   501.7    3.600      34.981
2015    8        5     4  31    2.8824   501.5    3.603      34.963
2015    8        5     4  38    2.8819   501.2    3.607      34.945
2015    8        5     4  44    2.8813   501.0    3.610      34.926
2015    8        5     4  51    2.8807   500.8    3.613      34.907
2015    8        5     4  58    2.8801   500.6    3.616      34.888
2015    8        5     5   5    2.8796   500.4    3.619      34.868
2015    8        5     5  11    2.8790   500.1    3.622      34.848
2015    8        5     5  18    2.8784   499.9    3.625      34.827
2015    8        5     5  25    2.8779   499.7    3.627      34.807
2015    8        5     5  32    2.8773   499.5    3.630      34.786
2015    8        5     5  38    2.8767   499.3    3.633      34.765
2015    8        5     5  45    2.8762   499.1    3.635      34.743
2015    8        5     5  52    2.8756   498.8    3.638      34.722
2015    8        5     5  59    2.8751   498.6    3.640      34.700
2015    8        5     6   6    2.8745   498.4    3.643      34.678
2015    8        5     6  12    2.8739   498.2    3.645      34.656
2015    8        5     6  19    2.8734   498.0    3.647      34.633
2015    8        5     6  26    2.8728   497.8    3.650      34.611
2015    8        5     6  33    2.8722   497.5    3.652      34.587
2015    8        5     6  39    2.8717   497.3    3.654      34.564
2015    8        5     6  46    2.8711   497.1    3.656      34.541
2015    8        5     6  53    2.8705   496.9    3.658      34.517
2015    8        5     7   0    2.8699   496.7    3.660      34.493
2015    8        5     7   7    2.8693   496.5    3.662      34.468
2015    8        5     7  13    2.8687   496.2    3.664      34.444
2015    8        5     7  20    2.8681   496.0    3.666      34.418
2015    8        5     7  27    2.8675   495.8    3.668      34.393
2015    8        5     7  34    2.8669   495.6    3.670      34.367
2015    8        5     7  40    2.8662   495.4    3.671      34.342
2015    8        5     7  47    2.8656   495.1    3.673      34.316
2015    8        5     7  54    2.8650   494.9    3.675      34.289
2015    8        5     8   1    2.8644   494.7    3.677      34.263
2015    8        5     8   7    2.8638   494.5    3.679      34.237
2015    8        5     8  14    2.8632   494.3    3.680      34.210
2015    8        5     8  21    2.8626   494.0    3.682      34.184
2015    8        5     8  28    2.8620   493.8    3.684      34.157
2015    8        5     8  35    2.8613   493.6    3.686      34.131
2015    8        5     8  41    2.8607   493.4    3.688      34.104
2015    8        5     8  48    2.8602   493.1    3.690      34.078
2015    8        5     8  55    2.8596   492.9    3.692      34.052
2015    8        5     9   2    2.8590   492.7    3.694      34.026
2015    8        5     9   8    2.8585   492.5    3.696      34.001
2015    8        5     9  15    2.8579   492.3    3.698      33.975
2015    8        5     9  22    2.8574   492.0    3.700      33.950
2015    8        5     9  29    2.8568   491.8    3.702      33.925
2015    8        5     9  36    2.8563   491.6    3.705      33.900
2015    8        5     9  42    2.8558   491.4    3.707      33.876
2015    8        5     9  49    2.8553   491.1    3.710      33.852
2015    8        5     9  56    2.8548   490.9    3.712      33.828
2015    8        5    10   3    2.8543   490.7    3.715      33.805
2015    8        5    10   9    2.8538   490.5    3.718      33.782
2015    8        5    10  16    2.8534   490.2    3.720      33.759
2015    8        5    10  23    2.8529   490.0    3.723      33.737
2015    8        5    10  30    2.8524   489.8    3.726      33.715
2015    8        5    10  36    2.8519   489.6    3.729      33.693
2015    8        5    10  43    2.8514   489.4    3.732      33.671
2015    8        5    10  50    2.8509   489.1    3.735      33.650
2015    8        5    10  57    2.8504   488.9    3.738      33.629
2015    8        5    11   4    2.8498   488.7    3.742      33.609
2015    8        5    11  10    2.8493   488.5    3.745      33.588
2015    8        5    11  17    2.8487   488.3    3.748      33.568
2015    8        5    11  24    2.8482   488.0    3.751      33.548
2015    8        5    11  31    2.8476   487.8    3.755      33.529
2015    8        5    11  37    2.8471   487.6    3.758      33.510
2015    8        5    11  44    2.8466   487.4    3.762      33.491
2015    8        5    11  51    2.8460   487.1    3.765      33.472
2015    8        5    11  58    2.8455   486.9    3.769      33.454
2015    8        5    12   5    2.8450   486.7    3.772      33.436
2015    8        5    12  11    2.8445   486.5    3.776      33.418
2015    8        5    12  18    2.8440   486.3    3.779      33.400
2015    8        5    12  25    2.8435   486.0    3.783      33.383
2015    8        5    12  32    2.8430   485.8    3.787      33.365
2015    8        5    12  38    2.8426   485.6    3.790      33.348
2015    8        5    12  45    2.8421   485.4    3.794      33.331
2015    8        5    12  52    2.8416   485.2    3.797      33.313
2015    8        5    12  59    2.8411   484.9    3.801      33.296
2015    8        5    13   5    2.8407   484.7    3.805      33.279
2015    8        5    13  12    2.8402   484.5    3.808      33.261
2015    8        5    13  19    2.8397   484.3    3.811      33.244
2015    8        5    13  26    2.8392   484.1    3.815      33.226
2015    8        5    13  33    2.8386   483.8    3.818      33.208
2015    8        5    13  39    2.8381   483.6    3.821      33.190
2015    8        5    13  46    2.8376   483.4    3.824      33.172
2015    8        5    13  53    2.8371   483.2    3.827      33.153
2015    8        5    14   0    2.8365   482.9    3.830      33.134
2015    8        5    14   6    2.8359   482.7    3.833      33.115
2015    8        5    14  13    2.8354   482.5    3.836      33.096
2015    8        5    14  20    2.8348   482.3    3.839      33.076
2015    8        5    14  27    2.8343   482.0    3.842      33.057
2015    8        5    14  34    2.8337   481.8    3.845      33.037
2015    8        5    14  40    2.8331   481.6    3.847      33.017
2015    8        5    14  47    2.8326   481.4    3.850      32.996
2015    8        5    14  54    2.8320   481.1    3.853      32.976
2015    8        5    15   1    2.8314   480.9    3.855      32.955
2015    8        5    15   7    2.8308   480.7    3.857      32.934
2015    8        5    15  14    2.8302   480.5    3.860      32.913
2015    8        5    15  21    2.8296   480.3    3.862      32.892
2015    8        5    15  28    2.8290   480.0    3.864      32.870
2015    8        5    15  34    2.8284   479.8    3.867      32.848
2015    8        5    15  41    2.8278   479.6    3.869      32.825
2015    8        5    15  48    2.8271   479.4    3.871      32.803
2015    8        5    15  55    2.8265   479.1    3.873      32.779
2015    8        5    16   2    2.8259   478.9    3.875      32.756
2015    8        5    16   8    2.8253   478.7    3.877      32.732
2015    8        5    16  15    2.8246   478.5    3.879      32.708
2015    8        5    16  22    2.8240   478.3    3.881      32.683
2015    8        5    16  29    2.8233   478.0    3.882      32.659
2015    8        5    16  35    2.8226   477.8    3.884      32.633
2015    8        5    16  42    2.8220   477.6    3.886      32.608
2015    8        5    16  49    2.8213   477.4    3.888      32.583
2015    8        5    16  56    2.8206   477.1    3.889      32.557
2015    8        5    17   3    2.8199   476.9    3.891      32.531
2015    8        5    17   9    2.8192   476.7    3.893      32.505
2015    8        5    17  16    2.8186   476.5    3.895      32.478
2015    8        5    17  23    2.8179   476.2    3.896      32.452
2015    8        5    17  30    2.8172   476.0    3.898      32.425
2015    8        5    17  36    2.8165   475.8    3.900      32.399
2015    8        5    17  43    2.8158   475.6    3.901      32.372
2015    8        5    17  50    2.8151   475.3    3.903      32.346
2015    8        5    17  57    2.8144   475.1    3.905      32.319
2015    8        5    18   3    2.8137   474.9    3.907      32.292
2015    8        5    18  10    2.8130   474.7    3.908      32.266
2015    8        5    18  17    2.8123   474.4    3.910      32.240
2015    8        5    18  24    2.8116   474.2    3.912      32.214
2015    8        5    18  31    2.8109   474.0    3.914      32.188
2015    8        5    18  37    2.8102   473.8    3.916      32.163
2015    8        5    18  44    2.8096   473.5    3.919      32.137
2015    8        5    18  51    2.8089   473.3    3.921      32.112
2015    8        5    18  58    2.8083   473.1    3.923      32.088
2015    8        5    19   4    2.8076   472.8    3.926      32.063
2015    8        5    19  11    2.8070   472.6    3.928      32.039
2015    8        5    19  18    2.8064   472.4    3.931      32.016
2015    8        5    19  25    2.8058   472.2    3.933      31.993
2015    8        5    19  32    2.8052   471.9    3.936      31.970
2015    8        5    19  38    2.8046   471.7    3.939      31.947
2015    8        5    19  45    2.8040   471.5    3.942      31.925
2015    8        5    19  52    2.8035   471.3    3.945      31.903
2015    8        5    19  59    2.8029   471.0    3.948      31.882
2015    8        5    20   5    2.8023   470.8    3.951      31.861
2015    8        5    20  12    2.8018   470.6    3.954      31.840
2015    8        5    20  19    2.8012   470.3    3.957      31.819
2015    8        5    20  26    2.8007   470.1    3.961      31.799
2015    8        5    20  32    2.8001   469.9    3.964      31.779
2015    8        5    20  39    2.7996   469.7    3.968      31.759
2015    8        5    20  46    2.7991   469.4    3.971      31.740
2015    8        5    20  53    2.7986   469.2    3.974      31.720
2015    8        5    21   0    2.7981   469.0    3.978      31.701
2015    8        5    21   6    2.7976   468.7    3.981      31.682
2015    8        5    21  13    2.7971   468.5    3.985      31.664
2015    8        5    21  20    2.7966   468.3    3.988      31.645
2015    8        5    21  27    2.7961   468.0    3.992      31.627
2015    8        5    21  33    2.7957   467.8    3.996      31.608
2015    8        5    21  40    2.7952   467.6    3.999      31.590
2015    8        5    21  47    2.7947   467.3    4.003      31.572
2015    8        5    21  54    2.7943   467.1    4.006      31.554
2015    8        5    22   1    2.7938   466.9    4.010      31.536
2015    8        5    22   7    2.7933   466.7    4.013      31.518
2015    8        5    22  14    2.7929   466.4    4.016      31.499
2015    8        5    22  21    2.7924   466.2    4.020      31.481
2015    8        5    22  28    2.7919   466.0    4.023      31.462
2015    8        5    22  34    2.7914   465.7    4.026      31.444
2015    8        5    22  41    2.7910   465.5    4.030      31.425
2015    8        5    22  48    2.7905   465.3    4.033      31.406
2015    8        5    22  55    2.7900   465.0    4.036      31.387
2015    8        5    23   1    2.7895   464.8    4.039      31.367
2015    8        5    23   8    2.7889   464.6    4.042      31.348
2015    8        5    23  15    2.7884   464.4    4.045      31.328
2015    8        5    23  22    2.7879   464.1    4.048      31.308
2015    8        5    23  29    2.7874   463.9    4.051      31.288
2015    8        5    23  35    2.7869   463.7    4.053      31.267
2015    8        5    23  42    2.7864   463.4    4.056      31.247
2015    8        5    23  49    2.7859   463.2    4.059      31.225
2015    8        5    23  56    2.7853   463.0    4.061      31.204
2015    8        6     0   2    2.7848   462.8    4.064      31.183
2015    8        6     0   9    2.7843   462.5    4.067      31.161
2015    8        6     0  16    2.7837   462.3    4.069      31.139
2015    8        6     0  23    2.7832   462.1    4.072      31.116
2015    8        6     0  30    2.7827   461.8    4.074      31.093
2015    8        6     0  36    2.7821   461.6    4.076      31.070
2015    8        6     0  43    2.7816   461.4    4.079      31.047
2015    8        6     0  50    2.7810   461.2    4.081      31.024
2015    8        6     0  57    2.7805   460.9    4.083      31.000
2015    8        6     1   3    2.7799   460.7    4.086      30.976
2015    8        6     1  10    2.7794   460.5    4.088      30.951
2015    8        6     1  17    2.7788   460.3    4.090      30.927
2015    8        6     1  24    2.7782   460.0    4.092      30.902
2015    8        6     1  30    2.7777   459.8    4.094      30.877
2015    8        6     1  37    2.7771   459.6    4.096      30.852
2015    8        6     1  44    2.7765   459.3    4.098      30.827
2015    8        6     1  51    2.7760   459.1    4.101      30.801
2015    8        6     1  58    2.7754   458.9    4.103      30.775
2015    8        6     2   4    2.7748   458.7    4.105      30.749
2015    8        6     2  11    2.7742   458.4    4.107      30.723
2015    8        6     2  18    2.7736   458.2    4.109      30.697
2015    8        6     2  25    2.7731   458.0    4.111      30.671
2015    8        6     2  31    2.7725   457.7    4.113      30.645
2015    8        6     2  38    2.7719   457.5    4.115      30.619
2015    8        6     2  45    2.7713   457.3    4.118      30.593
2015    8        6     2  52    2.7708   457.0    4.120      30.567
2015    8        6     2  59    2.7702   456.8    4.122      30.541
2015    8        6     3   5    2.7697   456.6    4.125      30.516
2015    8        6     3  12    2.7691   456.3    4.127      30.490
2015    8        6     3  19    2.7686   456.1    4.130      30.465
2015    8        6     3  26    2.7681   455.8    4.132      30.440
2015    8        6     3  32    2.7676   455.6    4.135      30.415
2015    8        6     3  39    2.7671   455.4    4.138      30.391
2015    8        6     3  46    2.7666   455.1    4.141      30.366
2015    8        6     3  53    2.7662   454.9    4.143      30.343
2015    8        6     3  59    2.7657   454.7    4.146      30.319
2015    8        6     4   6    2.7653   454.4    4.150      30.296
2015    8        6     4  13    2.7649   454.2    4.153      30.273
2015    8        6     4  20    2.7645   454.0    4.156      30.251
2015    8        6     4  27    2.7641   453.7    4.159      30.229
2015    8        6     4  33    2.7638   453.5    4.163      30.207
2015    8        6     4  40    2.7634   453.2    4.166      30.186
2015    8        6     4  47    2.7631   453.0    4.170      30.165
2015    8        6     4  54    2.7628   452.8    4.173      30.144
2015    8        6     5   0    2.7625   452.5    4.177      30.123
2015    8        6     5   7    2.7622   452.3    4.181      30.103
2015    8        6     5  14    2.7620   452.1    4.184      30.082
2015    8        6     5  21    2.7617   451.8    4.188      30.062
2015    8        6     5  27    2.7614   451.6    4.192      30.042
2015    8        6     5  34    2.7612   451.4    4.196      30.023
2015    8        6     5  41    2.7610   451.1    4.200      30.003
2015    8        6     5  48    2.7607   450.9    4.204      29.983
2015    8        6     5  55    2.7605   450.7    4.207      29.963
2015    8        6     6   1    2.7603   450.4    4.211      29.944
2015    8        6     6   8    2.7601   450.2    4.215      29.924
2015    8        6     6  15    2.7599   450.0    4.219      29.905
2015    8        6     6  22    2.7597   449.7    4.223      29.885
2015    8        6     6  28    2.7595   449.5    4.226      29.865
2015    8        6     6  35    2.7593   449.3    4.230      29.845
2015    8        6     6  42    2.7591   449.0    4.234      29.826
2015    8        6     6  49    2.7589   448.8    4.238      29.806
2015    8        6     6  56    2.7587   448.6    4.241      29.786
2015    8        6     7   2    2.7585   448.3    4.245      29.765
2015    8        6     7   9    2.7584   448.1    4.249      29.745
2015    8        6     7  16    2.7582   447.8    4.252      29.725
2015    8        6     7  23    2.7580   447.6    4.256      29.705
2015    8        6     7  29    2.7578   447.4    4.260      29.684
2015    8        6     7  36    2.7577   447.1    4.263      29.664
2015    8        6     7  43    2.7575   446.9    4.267      29.643
2015    8        6     7  50    2.7573   446.7    4.270      29.622
2015    8        6     7  56    2.7571   446.4    4.274      29.601
2015    8        6     8   3    2.7569   446.2    4.277      29.579
2015    8        6     8  10    2.7568   446.0    4.280      29.558
2015    8        6     8  17    2.7566   445.7    4.284      29.536
2015    8        6     8  24    2.7564   445.5    4.287      29.514
2015    8        6     8  30    2.7562   445.3    4.290      29.492
2015    8        6     8  37    2.7561   445.0    4.293      29.470
2015    8        6     8  44    2.7559   444.8    4.297      29.448
2015    8        6     8  51    2.7557   444.6    4.300      29.425
2015    8        6     8  57    2.7555   444.3    4.303      29.402
2015    8        6     9   4    2.7554   444.1    4.306      29.379
2015    8        6     9  11    2.7552   443.9    4.309      29.356
2015    8        6     9  18    2.7551   443.6    4.312      29.332
2015    8        6     9  25    2.7549   443.4    4.315      29.308
2015    8        6     9  31    2.7548   443.2    4.318      29.285
2015    8        6     9  38    2.7547   442.9    4.321      29.261
2015    8        6     9  45    2.7546   442.7    4.324      29.236
2015    8        6     9  52    2.7544   442.4    4.327      29.212
2015    8        6     9  58    2.7544   442.2    4.330      29.188
2015    8        6    10   5    2.7543   442.0    4.333      29.163
2015    8        6    10  12    2.7542   441.7    4.337      29.139
2015    8        6    10  19    2.7542   441.5    4.340      29.115
2015    8        6    10  25    2.7541   441.2    4.343      29.090
2015    8        6    10  32    2.7541   441.0    4.346      29.066
2015    8        6    10  39    2.7541   440.8    4.350      29.042
2015    8        6    10  46    2.7541   440.5    4.353      29.018
2015    8        6    10  53    2.7542   440.3    4.356      28.994
2015    8        6    10  59    2.7542   440.0    4.360      28.970
2015    8        6    11   6    2.7543   439.8    4.364      28.946
2015    8        6    11  13    2.7544   439.6    4.367      28.923
2015    8        6    11  20    2.7546   439.3    4.371      28.900
2015    8        6    11  26    2.7547   439.1    4.375      28.878
2015    8        6    11  33    2.7549   438.8    4.379      28.855
2015    8        6    11  40    2.7551   438.6    4.383      28.833
2015    8        6    11  47    2.7554   438.3    4.388      28.811
2015    8        6    11  54    2.7556   438.1    4.392      28.790
2015    8        6    12   0    2.7559   437.9    4.396      28.769
2015    8        6    12   7    2.7563   437.6    4.401      28.748
2015    8        6    12  14    2.7566   437.4    4.406      28.727
2015    8        6    12  21    2.7570   437.1    4.410      28.707
2015    8        6    12  27    2.7574   436.9    4.415      28.688
2015    8        6    12  34    2.7578   436.7    4.420      28.668
2015    8        6    12  41    2.7582   436.4    4.425      28.649
2015    8        6    12  48    2.7586   436.2    4.430      28.630
2015    8        6    12  54    2.7591   436.0    4.435      28.611
2015    8        6    13   1    2.7596   435.7    4.440      28.592
2015    8        6    13   8    2.7601   435.5    4.446      28.574
2015    8        6    13  15    2.7606   435.2    4.451      28.555
2015    8        6    13  22    2.7611   435.0    4.456      28.537
2015    8        6    13  28    2.7616   434.8    4.461      28.519
2015    8        6    13  35    2.7622   434.5    4.467      28.501
2015    8        6    13  42    2.7627   434.3    4.472      28.483
2015    8        6    13  49    2.7632   434.1    4.477      28.465
2015    8        6    13  55    2.7638   433.8    4.483      28.447
2015    8        6    14   2    2.7643   433.6    4.488      28.430
2015    8        6    14   9    2.7649   433.3    4.493      28.412
2015    8        6    14  16    2.7655   433.1    4.499      28.394
2015    8        6    14  22    2.7660   432.9    4.504      28.376
2015    8        6    14  29    2.7666   432.6    4.509      28.358
2015    8        6    14  36    2.7672   432.4    4.515      28.340
2015    8        6    14  43    2.7678   432.2    4.520      28.322
2015    8        6    14  50    2.7684   431.9    4.525      28.304
2015    8        6    14  56    2.7691   431.7    4.530      28.286
2015    8        6    15   3    2.7697   431.4    4.536      28.268
2015    8        6    15  10    2.7704   431.2    4.541      28.250
2015    8        6    15  17    2.7710   431.0    4.546      28.232
2015    8        6    15  23    2.7717   430.7    4.551      28.214
2015    8        6    15  30    2.7724   430.5    4.557      28.196
2015    8        6    15  37    2.7731   430.3    4.562      28.178
2015    8        6    15  44    2.7739   430.0    4.567      28.160
2015    8        6    15  51    2.7746   429.8    4.573      28.142
2015    8        6    15  57    2.7754   429.5    4.578      28.124
2015    8        6    16   4    2.7762   429.3    4.583      28.106
2015    8        6    16  11    2.7771   429.1    4.589      28.088
2015    8        6    16  18    2.7779   428.8    4.594      28.070
2015    8        6    16  24    2.7788   428.6    4.599      28.053
2015    8        6    16  31    2.7797   428.3    4.605      28.035
2015    8        6    16  38    2.7807   428.1    4.611      28.017
2015    8        6    16  45    2.7816   427.9    4.616      28.000
2015    8        6    16  52    2.7826   427.6    4.622      27.983
2015    8        6    16  58    2.7837   427.4    4.627      27.965
2015    8        6    17   5    2.7847   427.2    4.633      27.948
2015    8        6    17  12    2.7858   426.9    4.639      27.931
2015    8        6    17  19    2.7870   426.7    4.645      27.914
2015    8        6    17  25    2.7881   426.4    4.651      27.897
2015    8        6    17  32    2.7894   426.2    4.657      27.881
2015    8        6    17  39    2.7906   426.0    4.663      27.865
2015    8        6    17  46    2.7919   425.7    4.669      27.849
2015    8        6    17  52    2.7932   425.5    4.676      27.833
2015    8        6    17  59    2.7946   425.3    4.682      27.817
2015    8        6    18   6    2.7959   425.0    4.688      27.802
2015    8        6    18  13    2.7974   424.8    4.695      27.787
2015    8        6    18  20    2.7989   424.6    4.702      27.772
2015    8        6    18  26    2.8003   424.3    4.708      27.758
2015    8        6    18  33    2.8019   424.1    4.715      27.743
2015    8        6    18  40    2.8035   423.9    4.722      27.729
2015    8        6    18  47    2.8051   423.6    4.729      27.715
2015    8        6    18  53    2.8068   423.4    4.736      27.702
2015    8        6    19   0    2.8084   423.2    4.744      27.689
2015    8        6    19   7    2.8102   422.9    4.751      27.676
2015    8        6    19  14    2.8119   422.7    4.758      27.663
2015    8        6    19  20    2.8137   422.5    4.766      27.651
2015    8        6    19  27    2.8155   422.3    4.773      27.638
2015    8        6    19  34    2.8173   422.0    4.781      27.626
2015    8        6    19  41    2.8191   421.8    4.789      27.614
2015    8        6    19  48    2.8210   421.6    4.796      27.602
2015    8        6    19  54    2.8229   421.3    4.804      27.591
2015    8        6    20   1    2.8248   421.1    4.812      27.579
2015    8        6    20   8    2.8267   420.9    4.820      27.568
2015    8        6    20  15    2.8286   420.7    4.827      27.556
2015    8        6    20  21    2.8306   420.5    4.835      27.545
2015    8        6    20  28    2.8325   420.2    4.843      27.534
2015    8        6    20  35    2.8345   420.0    4.851      27.523
2015    8        6    20  42    2.8365   419.8    4.859      27.512
2015    8        6    20  49    2.8385   419.6    4.867      27.500
2015    8        6    20  55    2.8405   419.3    4.875      27.489
2015    8        6    21   2    2.8425   419.1    4.883      27.478
2015    8        6    21   9    2.8445   418.9    4.891      27.467
2015    8        6    21  16    2.8466   418.7    4.899      27.456
2015    8        6    21  22    2.8487   418.4    4.907      27.445
2015    8        6    21  29    2.8508   418.2    4.916      27.434
2015    8        6    21  36    2.8529   418.0    4.924      27.423
2015    8        6    21  43    2.8550   417.8    4.932      27.412
2015    8        6    21  49    2.8571   417.6    4.940      27.401
2015    8        6    21  56    2.8593   417.3    4.948      27.390
2015    8        6    22   3    2.8615   417.1    4.957      27.379
2015    8        6    22  10    2.8637   416.9    4.965      27.368
2015    8        6    22  17    2.8659   416.7    4.973      27.357
2015    8        6    22  23    2.8682   416.5    4.982      27.347
2015    8        6    22  30    2.8705   416.2    4.990      27.336
2015    8        6    22  37    2.8729   416.0    4.999      27.326
2015    8        6    22  44    2.8752   415.8    5.008      27.316
2015    8        6    22  50    2.8776   415.6    5.016      27.305
2015    8        6    22  57    2.8801   415.4    5.025      27.296
2015    8        6    23   4    2.8826   415.1    5.034      27.286
2015    8        6    23  11    2.8851   414.9    5.043      27.277
2015    8        6    23  18    2.8877   414.7    5.053      27.267
2015    8        6    23  24    2.8903   414.5    5.062      27.259
2015    8        6    23  31    2.8930   414.3    5.072      27.250
2015    8        6    23  38    2.8957   414.0    5.081      27.242
2015    8        6    23  45    2.8985   413.8    5.091      27.234
2015    8        6    23  51    2.9013   413.6    5.101      27.226
2015    8        6    23  58    2.9042   413.4    5.111      27.219
2015    8        7     0   5    2.9072   413.2    5.122      27.213
2015    8        7     0  12    2.9102   412.9    5.133      27.206
2015    8        7     0  18    2.9133   412.7    5.143      27.201
2015    8        7     0  25    2.9164   412.5    5.155      27.196
2015    8        7     0  32    2.9197   412.3    5.166      27.192
2015    8        7     0  39    2.9230   412.1    5.178      27.188
2015    8        7     0  46    2.9263   411.9    5.189      27.185
2015    8        7     0  52    2.9298   411.6    5.202      27.183
2015    8        7     0  59    2.9333   411.4    5.214      27.181
2015    8        7     1   6    2.9369   411.2    5.226      27.181
2015    8        7     1  13    2.9406   411.0    5.239      27.180
2015    8        7     1  19    2.9444   410.8    5.252      27.181
2015    8        7     1  26    2.9482   410.6    5.266      27.183
2015    8        7     1  33    2.9521   410.4    5.279      27.185
2015    8        7     1  40    2.9561   410.2    5.293      27.188
2015    8        7     1  47    2.9602   410.0    5.307      27.191
2015    8        7     1  53    2.9643   409.8    5.321      27.195
2015    8        7     2   0    2.9685   409.6    5.335      27.200
2015    8        7     2   7    2.9728   409.4    5.350      27.206
2015    8        7     2  14    2.9771   409.2    5.364      27.212
2015    8        7     2  20    2.9814   409.1    5.379      27.220
2015    8        7     2  27    2.9858   408.9    5.394      27.228
2015    8        7     2  34    2.9902   408.7    5.408      27.238
2015    8        7     2  41    2.9946   408.5    5.423      27.249
2015    8        7     2  47    2.9990   408.3    5.437      27.260
2015    8        7     2  54    3.0035   408.2    5.451      27.273
2015    8        7     3   1    3.0079   408.0    5.466      27.286
2015    8        7     3   8    3.0124   407.8    5.480      27.300
2015    8        7     3  15    3.0168   407.6    5.494      27.314
2015    8        7     3  21    3.0213   407.5    5.508      27.328
2015    8        7     3  28    3.0258   407.3    5.522      27.343
2015    8        7     3  35    3.0303   407.1    5.536      27.358
2015    8        7     3  42    3.0348   407.0    5.550      27.372
2015    8        7     3  48    3.0393   406.8    5.563      27.387
2015    8        7     3  55    3.0438   406.6    5.577      27.401
2015    8        7     4   2    3.0484   406.5    5.591      27.415
2015    8        7     4   9    3.0530   406.3    5.604      27.429
2015    8        7     4  16    3.0575   406.2    5.618      27.442
2015    8        7     4  22    3.0621   406.0    5.632      27.456
2015    8        7     4  29    3.0668   405.9    5.645      27.469
2015    8        7     4  36    3.0714   405.7    5.659      27.482
2015    8        7     4  43    3.0760   405.5    5.672      27.494
2015    8        7     4  49    3.0807   405.4    5.686      27.507
2015    8        7     4  56    3.0854   405.2    5.699      27.519
2015    8        7     5   3    3.0901   405.1    5.713      27.531
2015    8        7     5  10    3.0949   404.9    5.727      27.543
2015    8        7     5  16    3.0997   404.8    5.740      27.555
2015    8        7     5  23    3.1045   404.6    5.754      27.567
2015    8        7     5  30    3.1093   404.5    5.767      27.578
2015    8        7     5  37    3.1142   404.3    5.781      27.590
2015    8        7     5  44    3.1190   404.2    5.795      27.602
2015    8        7     5  50    3.1240   404.1    5.809      27.614
2015    8        7     5  57    3.1289   403.9    5.823      27.627
2015    8        7     6   4    3.1339   403.8    5.837      27.639
2015    8        7     6  11    3.1389   403.6    5.852      27.652
2015    8        7     6  17    3.1440   403.5    5.866      27.665
2015    8        7     6  24    3.1491   403.4    5.881      27.678
2015    8        7     6  31    3.1543   403.2    5.896      27.691
2015    8        7     6  38    3.1595   403.1    5.911      27.706
2015    8        7     6  45    3.1648   403.0    5.926      27.720
2015    8        7     6  51    3.1700   402.8    5.941      27.735
2015    8        7     6  58    3.1754   402.7    5.957      27.750
2015    8        7     7   5    3.1808   402.6    5.973      27.767
2015    8        7     7  12    3.1863   402.5    5.989      27.783
2015    8        7     7  18    3.1918   402.3    6.006      27.801
2015    8        7     7  25    3.1974   402.2    6.023      27.819
2015    8        7     7  32    3.2030   402.1    6.040      27.838
2015    8        7     7  39    3.2088   402.0    6.058      27.857
2015    8        7     7  45    3.2145   401.9    6.075      27.877
2015    8        7     7  52    3.2204   401.7    6.094      27.899
2015    8        7     7  59    3.2263   401.6    6.112      27.921
2015    8        7     8   6    3.2324   401.5    6.132      27.944
2015    8        7     8  13    3.2385   401.4    6.151      27.968
2015    8        7     8  19    3.2448   401.3    6.171      27.993
2015    8        7     8  26    3.2511   401.2    6.192      28.019
2015    8        7     8  33    3.2575   401.1    6.212      28.047
2015    8        7     8  40    3.2640   401.0    6.233      28.076
2015    8        7     8  46    3.2706   400.9    6.254      28.107
2015    8        7     8  53    3.2773   400.8    6.275      28.141
2015    8        7     9   0    3.2840   400.8    6.296      28.177
2015    8        7     9   7    3.2907   400.7    6.317      28.215
2015    8        7     9  13    3.2975   400.6    6.338      28.256
2015    8        7     9  20    3.3043   400.5    6.359      28.298
2015    8        7     9  27    3.3112   400.5    6.380      28.342
2015    8        7     9  34    3.3180   400.4    6.401      28.387
2015    8        7     9  41    3.3248   400.3    6.421      28.434
2015    8        7     9  47    3.3316   400.3    6.441      28.481
2015    8        7     9  54    3.3384   400.2    6.461      28.528
2015    8        7    10   1    3.3451   400.2    6.480      28.576
2015    8        7    10   8    3.3519   400.1    6.500      28.623
2015    8        7    10  14    3.3586   400.0    6.518      28.671
2015    8        7    10  21    3.3653   400.0    6.537      28.719
2015    8        7    10  28    3.3720   399.9    6.555      28.767
2015    8        7    10  35    3.3786   399.9    6.573      28.814
2015    8        7    10  42    3.3852   399.8    6.591      28.860
2015    8        7    10  48    3.3919   399.8    6.608      28.906
2015    8        7    10  55    3.3984   399.7    6.625      28.951
2015    8        7    11   2    3.4050   399.7    6.642      28.995
2015    8        7    11   9    3.4116   399.6    6.659      29.039
2015    8        7    11  15    3.4181   399.6    6.675      29.082
2015    8        7    11  22    3.4246   399.6    6.691      29.124
2015    8        7    11  29    3.4312   399.5    6.707      29.165
2015    8        7    11  36    3.4377   399.5    6.723      29.206
2015    8        7    11  42    3.4442   399.4    6.738      29.245
2015    8        7    11  49    3.4506   399.4    6.754      29.285
2015    8        7    11  56    3.4571   399.4    6.769      29.323
2015    8        7    12   3    3.4635   399.3    6.784      29.361
2015    8        7    12  10    3.4700   399.3    6.799      29.398
2015    8        7    12  16    3.4764   399.3    6.814      29.434
2015    8        7    12  23    3.4829   399.2    6.828      29.471
2015    8        7    12  30    3.4893   399.2    6.843      29.506
2015    8        7    12  37    3.4957   399.2    6.858      29.541
2015    8        7    12  43    3.5021   399.2    6.872      29.576
2015    8        7    12  50    3.5085   399.1    6.886      29.610
2015    8        7    12  57    3.5149   399.1    6.901      29.644
2015    8        7    13   4    3.5213   399.1    6.915      29.678
2015    8        7    13  11    3.5277   399.1    6.929      29.712
2015    8        7    13  17    3.5341   399.1    6.944      29.745
2015    8        7    13  24    3.5405   399.0    6.958      29.778
2015    8        7    13  31    3.5470   399.0    6.972      29.811
2015    8        7    13  38    3.5534   399.0    6.987      29.844
2015    8        7    13  44    3.5598   399.0    7.001      29.876
2015    8        7    13  51    3.5663   399.0    7.016      29.909
2015    8        7    13  58    3.5727   399.0    7.030      29.942
2015    8        7    14   5    3.5792   399.0    7.045      29.975
2015    8        7    14  11    3.5856   399.0    7.060      30.008
2015    8        7    14  18    3.5921   399.0    7.075      30.042
2015    8        7    14  25    3.5986   398.9    7.090      30.076
2015    8        7    14  32    3.6051   398.9    7.105      30.110
2015    8        7    14  39    3.6117   398.9    7.121      30.144
2015    8        7    14  45    3.6182   398.9    7.136      30.179
2015    8        7    14  52    3.6248   398.9    7.152      30.215
2015    8        7    14  59    3.6314   399.0    7.168      30.251
2015    8        7    15   6    3.6380   399.0    7.185      30.288
2015    8        7    15  12    3.6447   399.0    7.202      30.325
2015    8        7    15  19    3.6514   399.0    7.219      30.364
2015    8        7    15  26    3.6582   399.0    7.237      30.402
2015    8        7    15  33    3.6650   399.0    7.255      30.442
2015    8        7    15  40    3.6719   399.0    7.273      30.483
2015    8        7    15  46    3.6788   399.0    7.292      30.525
2015    8        7    15  53    3.6857   399.0    7.311      30.569
2015    8        7    16   0    3.6927   399.1    7.330      30.615
2015    8        7    16   7    3.6997   399.1    7.349      30.663
2015    8        7    16  13    3.7068   399.1    7.369      30.715
2015    8        7    16  20    3.7138   399.2    7.388      30.768
2015    8        7    16  27    3.7209   399.2    7.408      30.823
2015    8        7    16  34    3.7280   399.2    7.428      30.881
2015    8        7    16  40    3.7351   399.3    7.447      30.941
2015    8        7    16  47    3.7422   399.3    7.467      31.005
2015    8        7    16  54    3.7494   399.4    7.486      31.072
2015    8        7    17   1    3.7565   399.4    7.506      31.140
2015    8        7    17   8    3.7635   399.5    7.524      31.211
2015    8        7    17  14    3.7705   399.6    7.542      31.283
2015    8        7    17  21    3.7775   399.6    7.560      31.356
2015    8        7    17  28    3.7843   399.7    7.577      31.428
2015    8        7    17  35    3.7911   399.8    7.594      31.500
2015    8        7    17  41    3.7978   399.9    7.610      31.570
2015    8        7    17  48    3.8044   399.9    7.625      31.639
2015    8        7    17  55    3.8109   400.0    7.640      31.706
2015    8        7    18   2    3.8174   400.1    7.654      31.773
2015    8        7    18   8    3.8237   400.2    7.668      31.838
2015    8        7    18  15    3.8300   400.3    7.681      31.902
2015    8        7    18  22    3.8362   400.3    7.694      31.964
2015    8        7    18  29    3.8423   400.4    7.706      32.026
2015    8        7    18  36    3.8484   400.5    7.718      32.086
2015    8        7    18  42    3.8544   400.6    7.729      32.144
2015    8        7    18  49    3.8603   400.7    7.740      32.202
2015    8        7    18  56    3.8662   400.7    7.751      32.259
2015    8        7    19   3    3.8720   400.8    7.761      32.315
2015    8        7    19   9    3.8778   400.9    7.771      32.370
2015    8        7    19  16    3.8835   401.0    7.780      32.423
2015    8        7    19  23    3.8891   401.1    7.789      32.476
2015    8        7    19  30    3.8947   401.2    7.798      32.528
2015    8        7    19  37    3.9003   401.3    7.806      32.579
2015    8        7    19  43    3.9058   401.4    7.814      32.630
2015    8        7    19  50    3.9112   401.4    7.822      32.679
2015    8        7    19  57    3.9167   401.5    7.829      32.728
2015    8        7    20   4    3.9220   401.6    7.836      32.776
2015    8        7    20  10    3.9273   401.7    7.843      32.823
2015    8        7    20  17    3.9326   401.8    7.850      32.869
2015    8        7    20  24    3.9378   401.9    7.857      32.915
2015    8        7    20  31    3.9430   402.0    7.863      32.960
2015    8        7    20  37    3.9481   402.1    7.869      33.004
2015    8        7    20  44    3.9533   402.2    7.875      33.047
2015    8        7    20  51    3.9583   402.2    7.881      33.089
2015    8        7    20  58    3.9633   402.3    7.886      33.131
2015    8        7    21   5    3.9683   402.4    7.892      33.172
2015    8        7    21  11    3.9733   402.5    7.897      33.212
2015    8        7    21  18    3.9782   402.6    7.902      33.252
2015    8        7    21  25    3.9830   402.7    7.907      33.291
2015    8        7    21  32    3.9879   402.8    7.912      33.330
2015    8        7    21  38    3.9927   402.9    7.917      33.369
2015    8        7    21  45    3.9974   403.0    7.922      33.407
2015    8        7    21  52    4.0022   403.0    7.927      33.444
2015    8        7    21  59    4.0069   403.1    7.932      33.482
2015    8        7    22   6    4.0116   403.2    7.937      33.519
2015    8        7    22  12    4.0162   403.3    7.942      33.556
2015    8        7    22  19    4.0209   403.4    7.947      33.593
2015    8        7    22  26    4.0255   403.5    7.952      33.630
2015    8        7    22  33    4.0301   403.6    7.957      33.667
2015    8        7    22  39    4.0347   403.7    7.962      33.704
2015    8        7    22  46    4.0392   403.8    7.968      33.741
2015    8        7    22  53    4.0438   403.9    7.973      33.778
2015    8        7    23   0    4.0483   404.0    7.979      33.816
2015    8        7    23   6    4.0528   404.1    7.985      33.853
2015    8        7    23  13    4.0574   404.2    7.991      33.892
2015    8        7    23  20    4.0619   404.3    7.997      33.930
2015    8        7    23  27    4.0664   404.4    8.003      33.969
2015    8        7    23  34    4.0710   404.5    8.010      34.009
2015    8        7    23  40    4.0755   404.5    8.018      34.048
2015    8        7    23  47    4.0801   404.6    8.025      34.088
2015    8        7    23  54    4.0847   404.7    8.033      34.129
2015    8        8     0   1    4.0893   404.9    8.041      34.173
2015    8        8     0   7    4.0939   405.0    8.049      34.218
2015    8        8     0  14    4.0985   405.1    8.056      34.266
2015    8        8     0  21    4.1030   405.2    8.064      34.316
2015    8        8     0  28    4.1075   405.3    8.072      34.368
2015    8        8     0  35    4.1120   405.4    8.079      34.421
2015    8        8     0  41    4.1163   405.6    8.086      34.474
2015    8        8     0  48    4.1206   405.7    8.093      34.527
2015    8        8     0  55    4.1248   405.8    8.099      34.580
2015    8        8     1   2    4.1289   406.0    8.106      34.631
2015    8        8     1   8    4.1330   406.1    8.112      34.683
2015    8        8     1  15    4.1370   406.2    8.118      34.734
2015    8        8     1  22    4.1409   406.3    8.123      34.785
2015    8        8     1  29    4.1447   406.5    8.129      34.835
2015    8        8     1  35    4.1485   406.6    8.134      34.885
2015    8        8     1  42    4.1522   406.7    8.140      34.934
2015    8        8     1  49    4.1559   406.9    8.145      34.983
2015    8        8     1  56    4.1595   407.0    8.150      35.033
2015    8        8     2   3    4.1632   407.1    8.155      35.082
2015    8        8     2   9    4.1668   407.3    8.161      35.131
2015    8        8     2  16    4.1704   407.4    8.166      35.180
2015    8        8     2  23    4.1739   407.5    8.172      35.229
2015    8        8     2  30    4.1776   407.6    8.178      35.279
2015    8        8     2  36    4.1812   407.8    8.184      35.330
2015    8        8     2  43    4.1849   407.9    8.191      35.380
2015    8        8     2  50    4.1886   408.0    8.198      35.431
2015    8        8     2  57    4.1923   408.2    8.205      35.483
2015    8        8     3   4    4.1962   408.3    8.213      35.536
2015    8        8     3  10    4.2001   408.5    8.221      35.594
2015    8        8     3  17    4.2040   408.6    8.229      35.654
2015    8        8     3  24    4.2080   408.8    8.237      35.717
2015    8        8     3  31    4.2119   408.9    8.244      35.782
2015    8        8     3  37    4.2158   409.1    8.250      35.850
2015    8        8     3  44    4.2197   409.3    8.257      35.920
2015    8        8     3  51    4.2234   409.5    8.262      35.989
2015    8        8     3  58    4.2270   409.6    8.267      36.056
2015    8        8     4   4    4.2305   409.8    8.271      36.122
2015    8        8     4  11    4.2339   410.0    8.275      36.187
2015    8        8     4  18    4.2372   410.2    8.278      36.250
2015    8        8     4  25    4.2404   410.3    8.280      36.312
2015    8        8     4  32    4.2434   410.5    8.282      36.373
2015    8        8     4  38    4.2463   410.7    8.283      36.432
2015    8        8     4  45    4.2492   410.9    8.284      36.490
2015    8        8     4  52    4.2519   411.1    8.284      36.546
2015    8        8     4  59    4.2546   411.2    8.284      36.601
2015    8        8     5   5    4.2572   411.4    8.283      36.654
2015    8        8     5  12    4.2598   411.6    8.282      36.707
2015    8        8     5  19    4.2623   411.8    8.280      36.758
2015    8        8     5  26    4.2647   412.0    8.279      36.809
2015    8        8     5  33    4.2670   412.1    8.276      36.858
2015    8        8     5  39    4.2693   412.3    8.274      36.906
2015    8        8     5  46    4.2716   412.5    8.271      36.954
2015    8        8     5  53    4.2737   412.7    8.268      37.000
2015    8        8     6   0    4.2759   412.9    8.265      37.046
2015    8        8     6   6    4.2779   413.0    8.262      37.090
2015    8        8     6  13    4.2800   413.2    8.258      37.134
2015    8        8     6  20    4.2819   413.4    8.254      37.177
2015    8        8     6  27    4.2839   413.6    8.250      37.219
2015    8        8     6  33    4.2857   413.8    8.245      37.261
2015    8        8     6  40    4.2875   414.0    8.241      37.301
2015    8        8     6  47    4.2892   414.1    8.236      37.341
2015    8        8     6  54    4.2909   414.3    8.231      37.380
2015    8        8     7   1    4.2925   414.5    8.226      37.418
2015    8        8     7   7    4.2941   414.7    8.221      37.455
2015    8        8     7  14    4.2956   414.9    8.215      37.491
2015    8        8     7  21    4.2970   415.1    8.210      37.527
2015    8        8     7  28    4.2984   415.2    8.204      37.562
2015    8        8     7  34    4.2997   415.4    8.198      37.596
2015    8        8     7  41    4.3010   415.6    8.193      37.630
2015    8        8     7  48    4.3021   415.8    8.187      37.663
2015    8        8     7  55    4.3033   415.9    8.181      37.696
2015    8        8     8   2    4.3044   416.1    8.176      37.729
2015    8        8     8   8    4.3054   416.3    8.170      37.761
2015    8        8     8  15    4.3064   416.5    8.165      37.794
2015    8        8     8  22    4.3073   416.6    8.160      37.826
2015    8        8     8  29    4.3083   416.8    8.155      37.859
2015    8        8     8  35    4.3091   417.0    8.150      37.892
2015    8        8     8  42    4.3100   417.2    8.145      37.925
2015    8        8     8  49    4.3108   417.3    8.141      37.959
2015    8        8     8  56    4.3116   417.5    8.137      37.993
2015    8        8     9   2    4.3124   417.7    8.133      38.028
2015    8        8     9   9    4.3131   417.9    8.129      38.062
2015    8        8     9  16    4.3138   418.1    8.125      38.097
2015    8        8     9  23    4.3145   418.2    8.122      38.132
2015    8        8     9  30    4.3151   418.4    8.119      38.167
2015    8        8     9  36    4.3157   418.6    8.115      38.202
2015    8        8     9  43    4.3163   418.8    8.113      38.237
2015    8        8     9  50    4.3169   419.0    8.110      38.272
2015    8        8     9  57    4.3176   419.2    8.107      38.307
2015    8        8    10   3    4.3182   419.3    8.105      38.341
2015    8        8    10  10    4.3188   419.5    8.104      38.374
2015    8        8    10  17    4.3195   419.7    8.102      38.407
2015    8        8    10  24    4.3202   419.9    8.101      38.441
2015    8        8    10  30    4.3209   420.1    8.099      38.479
2015    8        8    10  37    4.3216   420.2    8.098      38.518
2015    8        8    10  44    4.3221   420.4    8.097      38.559
2015    8        8    10  51    4.3227   420.6    8.095      38.603
2015    8        8    10  58    4.3230   420.8    8.092      38.649
2015    8        8    11   4    4.3233   421.0    8.089      38.696
2015    8        8    11  11    4.3233   421.2    8.086      38.741
2015    8        8    11  18    4.3232   421.4    8.082      38.785
2015    8        8    11  25    4.3229   421.6    8.078      38.828
2015    8        8    11  31    4.3225   421.8    8.072      38.870
2015    8        8    11  38    4.3218   422.0    8.067      38.911
2015    8        8    11  45    4.3211   422.2    8.060      38.950
2015    8        8    11  52    4.3203   422.4    8.053      38.989
2015    8        8    11  59    4.3194   422.6    8.046      39.026
2015    8        8    12   5    4.3183   422.7    8.038      39.062
2015    8        8    12  12    4.3172   422.9    8.030      39.097
2015    8        8    12  19    4.3160   423.1    8.021      39.130
2015    8        8    12  26    4.3148   423.3    8.012      39.163
2015    8        8    12  32    4.3135   423.5    8.002      39.194
2015    8        8    12  39    4.3122   423.7    7.992      39.224
2015    8        8    12  46    4.3109   423.9    7.982      39.254
2015    8        8    12  53    4.3095   424.1    7.972      39.282
2015    8        8    12  59    4.3080   424.3    7.961      39.310
2015    8        8    13   6    4.3065   424.5    7.950      39.336
2015    8        8    13  13    4.3050   424.7    7.939      39.362
2015    8        8    13  20    4.3034   424.8    7.927      39.387
2015    8        8    13  27    4.3018   425.0    7.916      39.411
2015    8        8    13  33    4.3002   425.2    7.904      39.434
2015    8        8    13  40    4.2984   425.4    7.892      39.456
2015    8        8    13  47    4.2967   425.6    7.879      39.477
2015    8        8    13  54    4.2949   425.8    7.867      39.497
2015    8        8    14   0    4.2931   426.0    7.854      39.517
2015    8        8    14   7    4.2912   426.2    7.841      39.535
2015    8        8    14  14    4.2893   426.4    7.828      39.553
2015    8        8    14  21    4.2873   426.6    7.815      39.569
2015    8        8    14  28    4.2853   426.7    7.802      39.585
2015    8        8    14  34    4.2833   426.9    7.789      39.601
2015    8        8    14  41    4.2812   427.1    7.776      39.615
2015    8        8    14  48    4.2790   427.3    7.762      39.629
2015    8        8    14  55    4.2767   427.5    7.749      39.642
2015    8        8    15   1    4.2745   427.7    7.735      39.654
2015    8        8    15   8    4.2722   427.9    7.722      39.666
2015    8        8    15  15    4.2698   428.1    7.708      39.678
2015    8        8    15  22    4.2674   428.2    7.695      39.689
2015    8        8    15  28    4.2650   428.4    7.682      39.699
2015    8        8    15  35    4.2625   428.6    7.668      39.710
2015    8        8    15  42    4.2600   428.8    7.655      39.720
2015    8        8    15  49    4.2574   429.0    7.642      39.731
2015    8        8    15  56    4.2547   429.2    7.629      39.742
2015    8        8    16   2    4.2520   429.4    7.615      39.753
2015    8        8    16   9    4.2493   429.6    7.602      39.764
2015    8        8    16  16    4.2465   429.8    7.589      39.776
2015    8        8    16  23    4.2436   430.0    7.575      39.788
2015    8        8    16  29    4.2406   430.2    7.561      39.800
2015    8        8    16  36    4.2374   430.4    7.546      39.812
2015    8        8    16  43    4.2342   430.6    7.531      39.823
2015    8        8    16  50    4.2309   430.9    7.516      39.833
2015    8        8    16  57    4.2273   431.1    7.500      39.841
2015    8        8    17   3    4.2236   431.3    7.483      39.847
2015    8        8    17  10    4.2197   431.5    7.465      39.851
2015    8        8    17  17    4.2155   431.8    7.447      39.853
2015    8        8    17  24    4.2112   432.0    7.427      39.853
2015    8        8    17  30    4.2065   432.2    7.406      39.847
2015    8        8    17  37    4.2016   432.4    7.385      39.836
2015    8        8    17  44    4.1965   432.6    7.363      39.821
2015    8        8    17  51    4.1912   432.8    7.341      39.802
2015    8        8    17  57    4.1857   432.9    7.319      39.778
2015    8        8    18   4    4.1801   433.1    7.297      39.751
2015    8        8    18  11    4.1744   433.2    7.275      39.720
2015    8        8    18  18    4.1687   433.3    7.254      39.689
2015    8        8    18  25    4.1629   433.5    7.233      39.657
2015    8        8    18  31    4.1571   433.6    7.212      39.626
2015    8        8    18  38    4.1512   433.7    7.191      39.593
2015    8        8    18  45    4.1454   433.8    7.170      39.560
2015    8        8    18  52    4.1395   434.0    7.150      39.527
2015    8        8    18  58    4.1337   434.1    7.130      39.493
2015    8        8    19   5    4.1278   434.2    7.110      39.460
2015    8        8    19  12    4.1221   434.3    7.091      39.426
2015    8        8    19  19    4.1163   434.4    7.071      39.392
2015    8        8    19  26    4.1106   434.5    7.052      39.358
2015    8        8    19  32    4.1049   434.6    7.033      39.323
2015    8        8    19  39    4.0993   434.7    7.014      39.288
2015    8        8    19  46    4.0936   434.8    6.995      39.253
2015    8        8    19  53    4.0880   434.9    6.977      39.217
2015    8        8    19  59    4.0824   435.0    6.958      39.181
2015    8        8    20   6    4.0769   435.1    6.940      39.145
2015    8        8    20  13    4.0713   435.2    6.921      39.108
2015    8        8    20  20    4.0658   435.3    6.903      39.070
2015    8        8    20  26    4.0603   435.4    6.885      39.032
2015    8        8    20  33    4.0549   435.5    6.867      38.994
2015    8        8    20  40    4.0494   435.6    6.849      38.955
2015    8        8    20  47    4.0440   435.7    6.831      38.916
2015    8        8    20  54    4.0386   435.7    6.813      38.876
2015    8        8    21   0    4.0332   435.8    6.796      38.836
2015    8        8    21   7    4.0278   435.9    6.778      38.796
2015    8        8    21  14    4.0224   436.0    6.761      38.755
2015    8        8    21  21    4.0170   436.1    6.743      38.713
2015    8        8    21  27    4.0116   436.1    6.726      38.671
2015    8        8    21  34    4.0062   436.2    6.709      38.629
2015    8        8    21  41    4.0009   436.3    6.692      38.586
2015    8        8    21  48    3.9954   436.3    6.675      38.542
2015    8        8    21  54    3.9901   436.4    6.658      38.498
2015    8        8    22   1    3.9846   436.5    6.642      38.453
2015    8        8    22   8    3.9792   436.5    6.625      38.408
2015    8        8    22  15    3.9737   436.6    6.608      38.363
2015    8        8    22  22    3.9683   436.7    6.592      38.317
2015    8        8    22  28    3.9629   436.7    6.576      38.270
2015    8        8    22  35    3.9574   436.8    6.560      38.224
2015    8        8    22  42    3.9519   436.8    6.543      38.176
2015    8        8    22  49    3.9465   436.9    6.527      38.128
2015    8        8    22  55    3.9409   437.0    6.511      38.080
2015    8        8    23   2    3.9354   437.0    6.496      38.031
2015    8        8    23   9    3.9298   437.1    6.480      37.982
2015    8        8    23  16    3.9242   437.1    6.464      37.934
2015    8        8    23  23    3.9185   437.2    6.448      37.885
2015    8        8    23  29    3.9129   437.3    6.432      37.837
2015    8        8    23  36    3.9071   437.3    6.417      37.789
2015    8        8    23  43    3.9013   437.4    6.401      37.742
2015    8        8    23  50    3.8955   437.5    6.384      37.694
2015    8        8    23  56    3.8896   437.5    6.368      37.647
2015    8        9     0   3    3.8836   437.6    6.352      37.600
2015    8        9     0  10    3.8775   437.7    6.335      37.553
2015    8        9     0  17    3.8712   437.7    6.318      37.504
2015    8        9     0  23    3.8648   437.8    6.300      37.453
2015    8        9     0  30    3.8582   437.9    6.282      37.402
2015    8        9     0  37    3.8516   438.0    6.263      37.350
2015    8        9     0  44    3.8446   438.0    6.244      37.296
2015    8        9     0  51    3.8375   438.1    6.224      37.236
2015    8        9     0  57    3.8303   438.2    6.204      37.172
2015    8        9     1   4    3.8230   438.2    6.183      37.105
2015    8        9     1  11    3.8156   438.2    6.163      37.035
2015    8        9     1  18    3.8083   438.2    6.143      36.962
2015    8        9     1  24    3.8009   438.2    6.123      36.885
2015    8        9     1  31    3.7936   438.2    6.104      36.807
2015    8        9     1  38    3.7865   438.1    6.086      36.730
2015    8        9     1  45    3.7795   438.1    6.068      36.653
2015    8        9     1  52    3.7726   438.1    6.050      36.575
2015    8        9     1  58    3.7658   438.0    6.033      36.497
2015    8        9     2   5    3.7591   437.9    6.017      36.418
2015    8        9     2  12    3.7526   437.9    6.002      36.339
2015    8        9     2  19    3.7462   437.8    5.987      36.259
2015    8        9     2  25    3.7398   437.8    5.973      36.179
2015    8        9     2  32    3.7336   437.7    5.960      36.099
2015    8        9     2  39    3.7274   437.6    5.947      36.020
2015    8        9     2  46    3.7214   437.5    5.936      35.942
2015    8        9     2  52    3.7155   437.5    5.925      35.866
2015    8        9     2  59    3.7096   437.4    5.915      35.790
2015    8        9     3   6    3.7039   437.3    5.905      35.714
2015    8        9     3  13    3.6984   437.2    5.897      35.641
2015    8        9     3  20    3.6929   437.2    5.888      35.571
2015    8        9     3  26    3.6875   437.1    5.881      35.504
2015    8        9     3  33    3.6823   437.0    5.873      35.440
2015    8        9     3  40    3.6771   436.9    5.866      35.378
2015    8        9     3  47    3.6721   436.9    5.858      35.319
2015    8        9     3  53    3.6670   436.8    5.850      35.262
2015    8        9     4   0    3.6621   436.7    5.843      35.207
2015    8        9     4   7    3.6572   436.6    5.835      35.150
2015    8        9     4  14    3.6523   436.6    5.827      35.094
2015    8        9     4  21    3.6473   436.5    5.819      35.036
2015    8        9     4  27    3.6424   436.4    5.810      34.979
2015    8        9     4  34    3.6375   436.3    5.802      34.921
2015    8        9     4  41    3.6326   436.3    5.793      34.862
2015    8        9     4  48    3.6277   436.2    5.785      34.804
2015    8        9     4  54    3.6228   436.1    5.776      34.744
2015    8        9     5   1    3.6178   436.0    5.767      34.684
2015    8        9     5   8    3.6129   435.9    5.759      34.624
2015    8        9     5  15    3.6080   435.8    5.750      34.563
2015    8        9     5  21    3.6030   435.7    5.741      34.501
2015    8        9     5  28    3.5980   435.6    5.732      34.439
2015    8        9     5  35    3.5931   435.6    5.723      34.377
2015    8        9     5  42    3.5881   435.5    5.714      34.314
2015    8        9     5  49    3.5831   435.4    5.706      34.252
2015    8        9     5  55    3.5782   435.3    5.697      34.189
2015    8        9     6   2    3.5732   435.2    5.688      34.126
2015    8        9     6   9    3.5682   435.1    5.679      34.063
2015    8        9     6  16    3.5632   435.0    5.671      33.999
2015    8        9     6  22    3.5583   434.9    5.662      33.936
2015    8        9     6  29    3.5533   434.8    5.654      33.873
2015    8        9     6  36    3.5483   434.7    5.645      33.809
2015    8        9     6  43    3.5433   434.6    5.636      33.746
2015    8        9     6  50    3.5383   434.4    5.628      33.683
2015    8        9     6  56    3.5333   434.3    5.620      33.620
2015    8        9     7   3    3.5283   434.2    5.611      33.557
2015    8        9     7  10    3.5233   434.1    5.603      33.495
2015    8        9     7  17    3.5183   434.0    5.594      33.433
2015    8        9     7  23    3.5133   433.9    5.586      33.371
2015    8        9     7  30    3.5082   433.8    5.578      33.309
2015    8        9     7  37    3.5032   433.7    5.570      33.248
2015    8        9     7  44    3.4981   433.6    5.561      33.187
2015    8        9     7  50    3.4931   433.5    5.553      33.127
2015    8        9     7  57    3.4881   433.4    5.545      33.066
2015    8        9     8   4    3.4831   433.3    5.537      33.007
2015    8        9     8  11    3.4781   433.1    5.529      32.947
2015    8        9     8  18    3.4732   433.0    5.521      32.888
2015    8        9     8  24    3.4684   432.9    5.513      32.829
2015    8        9     8  31    3.4636   432.8    5.506      32.771
2015    8        9     8  38    3.4589   432.6    5.498      32.713
2015    8        9     8  45    3.4542   432.5    5.491      32.655
2015    8        9     8  51    3.4497   432.4    5.484      32.597
2015    8        9     8  58    3.4451   432.2    5.477      32.540
2015    8        9     9   5    3.4407   432.0    5.470      32.482
2015    8        9     9  12    3.4364   431.9    5.464      32.423
2015    8        9     9  19    3.4321   431.7    5.458      32.364
2015    8        9     9  25    3.4279   431.6    5.452      32.304
2015    8        9     9  32    3.4238   431.4    5.447      32.243
2015    8        9     9  39    3.4198   431.2    5.443      32.183
2015    8        9     9  46    3.4158   431.0    5.439      32.122
2015    8        9     9  52    3.4119   430.9    5.435      32.062
2015    8        9     9  59    3.4080   430.7    5.432      32.004
2015    8        9    10   6    3.4043   430.5    5.430      31.948
2015    8        9    10  13    3.4007   430.3    5.429      31.892
2015    8        9    10  19    3.3971   430.1    5.428      31.838
2015    8        9    10  26    3.3937   430.0    5.428      31.785
2015    8        9    10  33    3.3904   429.8    5.429      31.738
2015    8        9    10  40    3.3872   429.6    5.429      31.694
2015    8        9    10  47    3.3841   429.5    5.431      31.653
2015    8        9    10  53    3.3811   429.3    5.432      31.615
2015    8        9    11   0    3.3782   429.1    5.433      31.580
2015    8        9    11   7    3.3754   429.0    5.434      31.547
2015    8        9    11  14    3.3727   428.8    5.435      31.517
2015    8        9    11  20    3.3699   428.7    5.435      31.486
2015    8        9    11  27    3.3672   428.5    5.436      31.455
2015    8        9    11  34    3.3645   428.3    5.437      31.423
2015    8        9    11  41    3.3619   428.2    5.437      31.391
2015    8        9    11  48    3.3592   428.0    5.437      31.359
2015    8        9    11  54    3.3565   427.9    5.438      31.327
2015    8        9    12   1    3.3539   427.7    5.438      31.294
2015    8        9    12   8    3.3512   427.5    5.438      31.262
2015    8        9    12  15    3.3486   427.4    5.438      31.229
2015    8        9    12  21    3.3460   427.2    5.438      31.195
2015    8        9    12  28    3.3434   427.0    5.438      31.161
2015    8        9    12  35    3.3408   426.8    5.438      31.127
2015    8        9    12  42    3.3382   426.7    5.437      31.093
2015    8        9    12  48    3.3357   426.5    5.437      31.059
2015    8        9    12  55    3.3331   426.3    5.437      31.025
2015    8        9    13   2    3.3306   426.2    5.437      30.991
2015    8        9    13   9    3.3281   426.0    5.437      30.956
2015    8        9    13  16    3.3256   425.8    5.437      30.922
2015    8        9    13  22    3.3231   425.6    5.437      30.889
2015    8        9    13  29    3.3207   425.5    5.437      30.855
2015    8        9    13  36    3.3182   425.3    5.437      30.822
2015    8        9    13  43    3.3158   425.1    5.437      30.788
2015    8        9    13  49    3.3135   424.9    5.437      30.755
2015    8        9    13  56    3.3111   424.8    5.437      30.721
2015    8        9    14   3    3.3087   424.6    5.437      30.688
2015    8        9    14  10    3.3063   424.4    5.436      30.654
2015    8        9    14  16    3.3039   424.3    5.436      30.620
2015    8        9    14  23    3.3015   424.1    5.435      30.585
2015    8        9    14  30    3.2992   423.9    5.434      30.551
2015    8        9    14  37    3.2968   423.7    5.434      30.516
2015    8        9    14  44    3.2944   423.6    5.433      30.480
2015    8        9    14  50    3.2920   423.4    5.432      30.445
2015    8        9    14  57    3.2896   423.2    5.431      30.409
2015    8        9    15   4    3.2872   423.1    5.430      30.373
2015    8        9    15  11    3.2848   422.9    5.429      30.337
2015    8        9    15  17    3.2824   422.7    5.427      30.301
2015    8        9    15  24    3.2801   422.6    5.426      30.264
2015    8        9    15  31    3.2777   422.4    5.425      30.227
2015    8        9    15  38    3.2754   422.2    5.423      30.191
2015    8        9    15  45    3.2731   422.0    5.422      30.154
2015    8        9    15  51    3.2707   421.9    5.420      30.116
2015    8        9    15  58    3.2684   421.7    5.419      30.079
2015    8        9    16   5    3.2662   421.5    5.417      30.041
2015    8        9    16  12    3.2639   421.4    5.416      30.004
2015    8        9    16  18    3.2616   421.2    5.414      29.966
2015    8        9    16  25    3.2594   421.0    5.412      29.928
2015    8        9    16  32    3.2572   420.9    5.411      29.890
2015    8        9    16  39    3.2550   420.7    5.409      29.852
2015    8        9    16  45    3.2528   420.5    5.407      29.813
2015    8        9    16  52    3.2506   420.3    5.406      29.775
2015    8        9    16  59    3.2485   420.2    5.404      29.737
2015    8        9    17   6    3.2464   420.0    5.403      29.698
2015    8        9    17  13    3.2443   419.8    5.401      29.660
2015    8        9    17  19    3.2423   419.6    5.400      29.622
2015    8        9    17  26    3.2403   419.5    5.398      29.584
2015    8        9    17  33    3.2383   419.3    5.397      29.546
2015    8        9    17  40    3.2364   419.1    5.395      29.508
2015    8        9    17  46    3.2345   418.9    5.394      29.471
2015    8        9    17  53    3.2326   418.8    5.393      29.434
2015    8        9    18   0    3.2307   418.6    5.392      29.397
2015    8        9    18   7    3.2289   418.4    5.391      29.360
2015    8        9    18  14    3.2272   418.2    5.390      29.324
2015    8        9    18  20    3.2254   418.0    5.390      29.288
2015    8        9    18  27    3.2237   417.9    5.389      29.252
2015    8        9    18  34    3.2221   417.7    5.389      29.217
2015    8        9    18  41    3.2204   417.5    5.388      29.182
2015    8        9    18  47    3.2188   417.3    5.388      29.147
2015    8        9    18  54    3.2173   417.1    5.388      29.113
2015    8        9    19   1    3.2157   416.9    5.388      29.080
2015    8        9    19   8    3.2142   416.8    5.388      29.046
2015    8        9    19  14    3.2128   416.6    5.388      29.013
2015    8        9    19  21    3.2113   416.4    5.389      28.981
2015    8        9    19  28    3.2099   416.2    5.389      28.949
2015    8        9    19  35    3.2085   416.0    5.390      28.917
2015    8        9    19  42    3.2072   415.8    5.390      28.886
2015    8        9    19  48    3.2059   415.6    5.391      28.855
2015    8        9    19  55    3.2046   415.4    5.392      28.824
2015    8        9    20   2    3.2033   415.3    5.393      28.794
2015    8        9    20   9    3.2020   415.1    5.394      28.765
2015    8        9    20  15    3.2008   414.9    5.396      28.736
2015    8        9    20  22    3.1996   414.7    5.397      28.707
2015    8        9    20  29    3.1985   414.5    5.399      28.679
2015    8        9    20  36    3.1974   414.3    5.401      28.651
2015    8        9    20  43    3.1963   414.1    5.402      28.625
2015    8        9    20  49    3.1952   413.9    5.404      28.598
2015    8        9    20  56    3.1942   413.7    5.406      28.572
2015    8        9    21   3    3.1932   413.5    5.408      28.547
2015    8        9    21  10    3.1923   413.3    5.410      28.522
2015    8        9    21  16    3.1913   413.1    5.412      28.497
2015    8        9    21  23    3.1904   412.9    5.415      28.472
2015    8        9    21  30    3.1895   412.7    5.417      28.447
2015    8        9    21  37    3.1886   412.5    5.419      28.422
2015    8        9    21  43    3.1877   412.3    5.421      28.397
2015    8        9    21  50    3.1869   412.1    5.423      28.372
2015    8        9    21  57    3.1860   411.9    5.426      28.347
2015    8        9    22   4    3.1852   411.8    5.428      28.323
2015    8        9    22  11    3.1844   411.6    5.430      28.298
2015    8        9    22  17    3.1836   411.4    5.433      28.273
2015    8        9    22  24    3.1829   411.2    5.435      28.249
2015    8        9    22  31    3.1821   411.0    5.438      28.225
2015    8        9    22  38    3.1814   410.8    5.441      28.201
2015    8        9    22  44    3.1807   410.6    5.443      28.177
2015    8        9    22  51    3.1801   410.4    5.446      28.154
2015    8        9    22  58    3.1794   410.2    5.449      28.130
2015    8        9    23   5    3.1788   410.0    5.452      28.107
2015    8        9    23  11    3.1782   409.8    5.455      28.084
2015    8        9    23  18    3.1776   409.6    5.458      28.061
2015    8        9    23  25    3.1771   409.4    5.461      28.038
2015    8        9    23  32    3.1766   409.3    5.464      28.015
2015    8        9    23  39    3.1760   409.1    5.467      27.993
2015    8        9    23  45    3.1755   408.9    5.470      27.971
2015    8        9    23  52    3.1751   408.7    5.473      27.948
2015    8        9    23  59    3.1746   408.5    5.476      27.926
2015    8       10     0   6    3.1741   408.3    5.480      27.904
