year    month   day   hour  minute  B_enl V_enl   n_enl       T_enl
[year] [month] [day] [hour][minute] [nT]  [km/s]  [cm-3]      [kK]
2015    7       21     0   5    4.4930   456.6    5.777      38.844
2015    7       21     0  11    4.4929   456.6    5.778      38.838
2015    7       21     0  17    4.4928   456.5    5.779      38.832
2015    7       21     0  23    4.4927   456.5    5.780      38.827
2015    7       21     0  29    4.4926   456.5    5.781      38.822
2015    7       21     0  36    4.4926   456.4    5.782      38.817
2015    7       21     0  42    4.4925   456.4    5.783      38.812
2015    7       21     0  48    4.4925   456.3    5.784      38.808
2015    7       21     0  54    4.4925   456.3    5.786      38.803
2015    7       21     1   0    4.4925   456.3    5.787      38.800
2015    7       21     1   6    4.4925   456.2    5.788      38.796
2015    7       21     1  12    4.4926   456.2    5.790      38.793
2015    7       21     1  18    4.4926   456.2    5.791      38.789
2015    7       21     1  25    4.4927   456.1    5.793      38.787
2015    7       21     1  31    4.4928   456.1    5.795      38.784
2015    7       21     1  37    4.4928   456.1    5.796      38.782
2015    7       21     1  43    4.4929   456.0    5.798      38.780
2015    7       21     1  49    4.4930   456.0    5.800      38.778
2015    7       21     1  55    4.4932   455.9    5.802      38.777
2015    7       21     2   1    4.4933   455.9    5.804      38.776
2015    7       21     2   7    4.4934   455.9    5.806      38.775
2015    7       21     2  13    4.4936   455.9    5.808      38.775
2015    7       21     2  20    4.4938   455.8    5.810      38.775
2015    7       21     2  26    4.4939   455.8    5.812      38.775
2015    7       21     2  32    4.4941   455.8    5.815      38.775
2015    7       21     2  38    4.4943   455.7    5.817      38.776
2015    7       21     2  44    4.4945   455.7    5.819      38.777
2015    7       21     2  50    4.4947   455.7    5.822      38.778
2015    7       21     2  56    4.4950   455.6    5.824      38.780
2015    7       21     3   2    4.4952   455.6    5.826      38.782
2015    7       21     3   9    4.4954   455.6    5.829      38.783
2015    7       21     3  15    4.4957   455.6    5.831      38.786
2015    7       21     3  21    4.4959   455.5    5.834      38.788
2015    7       21     3  27    4.4962   455.5    5.836      38.791
2015    7       21     3  33    4.4965   455.5    5.839      38.794
2015    7       21     3  39    4.4968   455.5    5.842      38.797
2015    7       21     3  45    4.4970   455.4    5.844      38.800
2015    7       21     3  51    4.4973   455.4    5.847      38.803
2015    7       21     3  58    4.4976   455.4    5.849      38.807
2015    7       21     4   4    4.4979   455.4    5.852      38.811
2015    7       21     4  10    4.4982   455.3    5.855      38.814
2015    7       21     4  16    4.4985   455.3    5.857      38.818
2015    7       21     4  22    4.4989   455.3    5.860      38.822
2015    7       21     4  28    4.4992   455.3    5.862      38.827
2015    7       21     4  34    4.4996   455.2    5.865      38.831
2015    7       21     4  40    4.4999   455.2    5.868      38.836
2015    7       21     4  46    4.5003   455.2    5.870      38.840
2015    7       21     4  53    4.5006   455.2    5.873      38.845
2015    7       21     4  59    4.5010   455.1    5.875      38.850
2015    7       21     5   5    4.5014   455.1    5.878      38.855
2015    7       21     5  11    4.5018   455.1    5.881      38.860
2015    7       21     5  17    4.5023   455.1    5.883      38.865
2015    7       21     5  23    4.5027   455.1    5.886      38.870
2015    7       21     5  29    4.5031   455.0    5.888      38.876
2015    7       21     5  35    4.5036   455.0    5.891      38.881
2015    7       21     5  42    4.5041   455.0    5.894      38.887
2015    7       21     5  48    4.5046   455.0    5.896      38.893
2015    7       21     5  54    4.5051   455.0    5.899      38.899
2015    7       21     6   0    4.5057   455.0    5.901      38.905
2015    7       21     6   6    4.5062   454.9    5.904      38.912
2015    7       21     6  12    4.5068   454.9    5.907      38.918
2015    7       21     6  18    4.5074   454.9    5.910      38.925
2015    7       21     6  24    4.5080   454.9    5.912      38.932
2015    7       21     6  30    4.5087   454.9    5.915      38.940
2015    7       21     6  37    4.5093   454.9    5.918      38.947
2015    7       21     6  43    4.5100   454.8    5.921      38.954
2015    7       21     6  49    4.5107   454.8    5.923      38.962
2015    7       21     6  55    4.5114   454.8    5.926      38.970
2015    7       21     7   1    4.5121   454.8    5.929      38.978
2015    7       21     7   7    4.5128   454.8    5.932      38.987
2015    7       21     7  13    4.5136   454.8    5.935      38.995
2015    7       21     7  19    4.5143   454.8    5.938      39.005
2015    7       21     7  26    4.5150   454.8    5.941      39.014
2015    7       21     7  32    4.5158   454.8    5.944      39.023
2015    7       21     7  38    4.5166   454.8    5.947      39.034
2015    7       21     7  44    4.5173   454.8    5.950      39.044
2015    7       21     7  50    4.5181   454.8    5.953      39.055
2015    7       21     7  56    4.5188   454.8    5.956      39.066
2015    7       21     8   2    4.5196   454.8    5.959      39.078
2015    7       21     8   8    4.5204   454.7    5.962      39.090
2015    7       21     8  14    4.5211   454.7    5.965      39.102
2015    7       21     8  21    4.5219   454.7    5.968      39.114
2015    7       21     8  27    4.5226   454.7    5.970      39.127
2015    7       21     8  33    4.5234   454.7    5.973      39.140
2015    7       21     8  39    4.5241   454.7    5.976      39.153
2015    7       21     8  45    4.5249   454.7    5.979      39.166
2015    7       21     8  51    4.5256   454.7    5.981      39.180
2015    7       21     8  57    4.5264   454.7    5.984      39.193
2015    7       21     9   3    4.5271   454.7    5.987      39.206
2015    7       21     9  10    4.5278   454.8    5.989      39.219
2015    7       21     9  16    4.5286   454.8    5.992      39.233
2015    7       21     9  22    4.5293   454.8    5.994      39.246
2015    7       21     9  28    4.5300   454.8    5.996      39.258
2015    7       21     9  34    4.5307   454.8    5.999      39.271
2015    7       21     9  40    4.5314   454.8    6.001      39.284
2015    7       21     9  46    4.5321   454.8    6.003      39.297
2015    7       21     9  52    4.5329   454.8    6.006      39.309
2015    7       21     9  58    4.5336   454.8    6.008      39.321
2015    7       21    10   5    4.5343   454.8    6.010      39.333
2015    7       21    10  11    4.5350   454.8    6.012      39.345
2015    7       21    10  17    4.5357   454.8    6.015      39.357
2015    7       21    10  23    4.5364   454.8    6.017      39.369
2015    7       21    10  29    4.5371   454.8    6.019      39.380
2015    7       21    10  35    4.5379   454.8    6.021      39.392
2015    7       21    10  41    4.5386   454.8    6.023      39.403
2015    7       21    10  47    4.5393   454.8    6.025      39.414
2015    7       21    10  54    4.5400   454.8    6.027      39.425
2015    7       21    11   0    4.5407   454.8    6.029      39.436
2015    7       21    11   6    4.5414   454.9    6.031      39.447
2015    7       21    11  12    4.5421   454.9    6.033      39.458
2015    7       21    11  18    4.5428   454.9    6.035      39.469
2015    7       21    11  24    4.5435   454.9    6.037      39.479
2015    7       21    11  30    4.5442   454.9    6.039      39.490
2015    7       21    11  36    4.5449   454.9    6.041      39.501
2015    7       21    11  43    4.5456   454.9    6.043      39.511
2015    7       21    11  49    4.5464   454.9    6.045      39.522
2015    7       21    11  55    4.5471   454.9    6.047      39.532
2015    7       21    12   1    4.5478   454.9    6.049      39.543
2015    7       21    12   7    4.5485   455.0    6.051      39.553
2015    7       21    12  13    4.5493   455.0    6.053      39.564
2015    7       21    12  19    4.5500   455.0    6.055      39.575
2015    7       21    12  25    4.5508   455.0    6.057      39.585
2015    7       21    12  31    4.5516   455.0    6.059      39.596
2015    7       21    12  38    4.5523   455.0    6.061      39.607
2015    7       21    12  44    4.5531   455.0    6.063      39.618
2015    7       21    12  50    4.5539   455.1    6.065      39.629
2015    7       21    12  56    4.5547   455.1    6.067      39.640
2015    7       21    13   2    4.5554   455.1    6.069      39.651
2015    7       21    13   8    4.5562   455.1    6.071      39.662
2015    7       21    13  14    4.5570   455.1    6.073      39.674
2015    7       21    13  20    4.5578   455.1    6.075      39.685
2015    7       21    13  27    4.5586   455.2    6.077      39.697
2015    7       21    13  33    4.5594   455.2    6.079      39.709
2015    7       21    13  39    4.5601   455.2    6.081      39.720
2015    7       21    13  45    4.5609   455.2    6.084      39.732
2015    7       21    13  51    4.5617   455.3    6.086      39.744
2015    7       21    13  57    4.5625   455.3    6.088      39.756
2015    7       21    14   3    4.5632   455.3    6.090      39.768
2015    7       21    14   9    4.5640   455.3    6.092      39.781
2015    7       21    14  15    4.5648   455.3    6.094      39.793
2015    7       21    14  22    4.5655   455.4    6.096      39.805
2015    7       21    14  28    4.5663   455.4    6.099      39.818
2015    7       21    14  34    4.5670   455.4    6.101      39.831
2015    7       21    14  40    4.5677   455.4    6.103      39.844
2015    7       21    14  46    4.5685   455.5    6.105      39.857
2015    7       21    14  52    4.5692   455.5    6.107      39.870
2015    7       21    14  58    4.5699   455.5    6.109      39.884
2015    7       21    15   4    4.5706   455.6    6.111      39.897
2015    7       21    15  11    4.5713   455.6    6.114      39.911
2015    7       21    15  17    4.5721   455.6    6.116      39.925
2015    7       21    15  23    4.5728   455.6    6.118      39.940
2015    7       21    15  29    4.5735   455.7    6.120      39.955
2015    7       21    15  35    4.5742   455.7    6.122      39.969
2015    7       21    15  41    4.5749   455.7    6.124      39.985
2015    7       21    15  47    4.5756   455.8    6.126      40.000
2015    7       21    15  53    4.5762   455.8    6.127      40.015
2015    7       21    15  59    4.5770   455.8    6.129      40.031
2015    7       21    16   6    4.5776   455.9    6.131      40.046
2015    7       21    16  12    4.5783   455.9    6.133      40.062
2015    7       21    16  18    4.5790   455.9    6.135      40.077
2015    7       21    16  24    4.5797   456.0    6.137      40.093
2015    7       21    16  30    4.5803   456.0    6.138      40.109
2015    7       21    16  36    4.5810   456.0    6.140      40.125
2015    7       21    16  42    4.5816   456.1    6.142      40.142
2015    7       21    16  48    4.5823   456.1    6.143      40.158
2015    7       21    16  55    4.5829   456.2    6.144      40.175
2015    7       21    17   1    4.5835   456.2    6.146      40.191
2015    7       21    17   7    4.5840   456.2    6.147      40.207
2015    7       21    17  13    4.5846   456.3    6.148      40.224
2015    7       21    17  19    4.5851   456.3    6.149      40.240
2015    7       21    17  25    4.5856   456.4    6.150      40.256
2015    7       21    17  31    4.5861   456.4    6.151      40.272
2015    7       21    17  37    4.5866   456.4    6.151      40.287
2015    7       21    17  43    4.5871   456.5    6.152      40.303
2015    7       21    17  50    4.5876   456.5    6.153      40.318
2015    7       21    17  56    4.5880   456.6    6.153      40.332
2015    7       21    18   2    4.5885   456.6    6.153      40.346
2015    7       21    18   8    4.5889   456.6    6.154      40.360
2015    7       21    18  14    4.5893   456.7    6.154      40.373
2015    7       21    18  20    4.5897   456.7    6.154      40.386
2015    7       21    18  26    4.5902   456.8    6.155      40.399
2015    7       21    18  32    4.5906   456.8    6.155      40.411
2015    7       21    18  39    4.5910   456.8    6.155      40.423
2015    7       21    18  45    4.5913   456.9    6.155      40.435
2015    7       21    18  51    4.5917   456.9    6.155      40.447
2015    7       21    18  57    4.5921   457.0    6.155      40.458
2015    7       21    19   3    4.5925   457.0    6.156      40.470
2015    7       21    19   9    4.5929   457.0    6.156      40.481
2015    7       21    19  15    4.5933   457.1    6.156      40.492
2015    7       21    19  21    4.5937   457.1    6.156      40.502
2015    7       21    19  28    4.5941   457.2    6.156      40.513
2015    7       21    19  34    4.5945   457.2    6.156      40.524
2015    7       21    19  40    4.5949   457.2    6.156      40.535
2015    7       21    19  46    4.5953   457.3    6.157      40.545
2015    7       21    19  52    4.5957   457.3    6.157      40.556
2015    7       21    19  58    4.5961   457.4    6.157      40.568
2015    7       21    20   4    4.5965   457.4    6.157      40.579
2015    7       21    20  10    4.5968   457.5    6.157      40.590
2015    7       21    20  16    4.5972   457.5    6.157      40.602
2015    7       21    20  23    4.5976   457.5    6.157      40.613
2015    7       21    20  29    4.5979   457.6    6.157      40.625
2015    7       21    20  35    4.5983   457.6    6.157      40.636
2015    7       21    20  41    4.5986   457.7    6.157      40.648
2015    7       21    20  47    4.5989   457.7    6.157      40.660
2015    7       21    20  53    4.5992   457.8    6.157      40.671
2015    7       21    20  59    4.5994   457.8    6.156      40.682
2015    7       21    21   5    4.5997   457.9    6.156      40.693
2015    7       21    21  11    4.5999   457.9    6.155      40.703
2015    7       21    21  18    4.6001   458.0    6.155      40.714
2015    7       21    21  24    4.6003   458.0    6.154      40.724
2015    7       21    21  30    4.6005   458.1    6.154      40.733
2015    7       21    21  36    4.6006   458.1    6.153      40.743
2015    7       21    21  42    4.6008   458.2    6.152      40.752
2015    7       21    21  48    4.6009   458.2    6.151      40.760
2015    7       21    21  54    4.6010   458.3    6.150      40.769
2015    7       21    22   0    4.6011   458.3    6.149      40.776
2015    7       21    22   7    4.6012   458.4    6.148      40.784
2015    7       21    22  13    4.6013   458.4    6.147      40.792
2015    7       21    22  19    4.6013   458.5    6.146      40.799
2015    7       21    22  25    4.6013   458.5    6.145      40.806
2015    7       21    22  31    4.6014   458.6    6.144      40.813
2015    7       21    22  37    4.6014   458.6    6.143      40.819
2015    7       21    22  43    4.6014   458.7    6.142      40.825
2015    7       21    22  49    4.6014   458.7    6.141      40.831
2015    7       21    22  56    4.6014   458.8    6.140      40.837
2015    7       21    23   2    4.6013   458.8    6.138      40.843
2015    7       21    23   8    4.6013   458.9    6.137      40.848
2015    7       21    23  14    4.6013   458.9    6.136      40.853
2015    7       21    23  20    4.6012   459.0    6.135      40.858
2015    7       21    23  26    4.6011   459.0    6.133      40.864
2015    7       21    23  32    4.6011   459.1    6.132      40.868
2015    7       21    23  38    4.6010   459.1    6.131      40.873
2015    7       21    23  44    4.6009   459.2    6.130      40.878
2015    7       21    23  51    4.6007   459.3    6.128      40.883
2015    7       21    23  57    4.6006   459.3    6.127      40.888
2015    7       22     0   3    4.6005   459.4    6.126      40.894
2015    7       22     0   9    4.6003   459.4    6.124      40.900
2015    7       22     0  15    4.6001   459.5    6.123      40.905
2015    7       22     0  21    4.5999   459.5    6.121      40.911
2015    7       22     0  27    4.5996   459.6    6.120      40.917
2015    7       22     0  33    4.5993   459.6    6.118      40.923
2015    7       22     0  40    4.5991   459.7    6.117      40.930
2015    7       22     0  46    4.5987   459.7    6.115      40.936
2015    7       22     0  52    4.5984   459.8    6.113      40.942
2015    7       22     0  58    4.5980   459.9    6.111      40.948
2015    7       22     1   4    4.5976   459.9    6.109      40.954
2015    7       22     1  10    4.5972   460.0    6.107      40.960
2015    7       22     1  16    4.5968   460.0    6.105      40.965
2015    7       22     1  22    4.5964   460.1    6.103      40.970
2015    7       22     1  28    4.5959   460.1    6.101      40.975
2015    7       22     1  35    4.5954   460.2    6.099      40.980
2015    7       22     1  41    4.5949   460.2    6.097      40.984
2015    7       22     1  47    4.5944   460.3    6.095      40.989
2015    7       22     1  53    4.5939   460.3    6.092      40.993
2015    7       22     1  59    4.5933   460.4    6.090      40.997
2015    7       22     2   5    4.5928   460.4    6.088      41.001
2015    7       22     2  11    4.5922   460.5    6.086      41.004
2015    7       22     2  17    4.5916   460.5    6.083      41.008
2015    7       22     2  24    4.5910   460.6    6.081      41.011
2015    7       22     2  30    4.5904   460.6    6.079      41.015
2015    7       22     2  36    4.5898   460.7    6.077      41.018
2015    7       22     2  42    4.5892   460.7    6.075      41.021
2015    7       22     2  48    4.5886   460.8    6.072      41.024
2015    7       22     2  54    4.5880   460.8    6.070      41.028
2015    7       22     3   0    4.5873   460.9    6.068      41.031
2015    7       22     3   6    4.5866   460.9    6.066      41.035
2015    7       22     3  13    4.5859   461.0    6.063      41.038
2015    7       22     3  19    4.5853   461.0    6.061      41.042
2015    7       22     3  25    4.5845   461.1    6.059      41.045
2015    7       22     3  31    4.5838   461.1    6.057      41.049
2015    7       22     3  37    4.5831   461.2    6.054      41.052
2015    7       22     3  43    4.5823   461.2    6.052      41.056
2015    7       22     3  49    4.5815   461.3    6.050      41.059
2015    7       22     3  55    4.5807   461.4    6.047      41.062
2015    7       22     4   1    4.5799   461.4    6.045      41.065
2015    7       22     4   8    4.5790   461.5    6.042      41.067
2015    7       22     4  14    4.5782   461.5    6.039      41.069
2015    7       22     4  20    4.5773   461.6    6.037      41.071
2015    7       22     4  26    4.5764   461.6    6.034      41.072
2015    7       22     4  32    4.5755   461.6    6.031      41.073
2015    7       22     4  38    4.5746   461.7    6.028      41.073
2015    7       22     4  44    4.5736   461.7    6.025      41.073
2015    7       22     4  50    4.5727   461.8    6.022      41.073
2015    7       22     4  56    4.5717   461.8    6.019      41.072
2015    7       22     5   3    4.5707   461.9    6.016      41.071
2015    7       22     5   9    4.5697   461.9    6.013      41.069
2015    7       22     5  15    4.5687   462.0    6.010      41.068
2015    7       22     5  21    4.5677   462.0    6.007      41.065
2015    7       22     5  27    4.5667   462.1    6.003      41.063
2015    7       22     5  33    4.5656   462.1    6.000      41.060
2015    7       22     5  39    4.5646   462.2    5.997      41.056
2015    7       22     5  45    4.5635   462.2    5.993      41.053
2015    7       22     5  52    4.5625   462.3    5.990      41.048
2015    7       22     5  58    4.5614   462.3    5.987      41.044
2015    7       22     6   4    4.5603   462.3    5.983      41.039
2015    7       22     6  10    4.5592   462.4    5.980      41.034
2015    7       22     6  16    4.5581   462.4    5.976      41.028
2015    7       22     6  22    4.5569   462.5    5.973      41.023
2015    7       22     6  28    4.5558   462.5    5.969      41.017
2015    7       22     6  34    4.5546   462.6    5.965      41.010
2015    7       22     6  40    4.5535   462.6    5.962      41.003
2015    7       22     6  47    4.5523   462.6    5.958      40.996
2015    7       22     6  53    4.5511   462.7    5.954      40.989
2015    7       22     6  59    4.5499   462.7    5.951      40.981
2015    7       22     7   5    4.5486   462.8    5.947      40.973
2015    7       22     7  11    4.5474   462.8    5.943      40.965
2015    7       22     7  17    4.5461   462.8    5.939      40.956
2015    7       22     7  23    4.5449   462.9    5.935      40.948
2015    7       22     7  29    4.5435   462.9    5.931      40.938
2015    7       22     7  36    4.5422   463.0    5.927      40.929
2015    7       22     7  42    4.5409   463.0    5.923      40.919
2015    7       22     7  48    4.5396   463.0    5.919      40.909
2015    7       22     7  54    4.5382   463.1    5.915      40.899
2015    7       22     8   0    4.5368   463.1    5.911      40.888
2015    7       22     8   6    4.5354   463.2    5.907      40.877
2015    7       22     8  12    4.5340   463.2    5.903      40.867
2015    7       22     8  18    4.5325   463.2    5.898      40.855
2015    7       22     8  24    4.5311   463.3    5.894      40.843
2015    7       22     8  31    4.5296   463.3    5.890      40.831
2015    7       22     8  37    4.5281   463.3    5.885      40.819
2015    7       22     8  43    4.5266   463.4    5.881      40.807
2015    7       22     8  49    4.5251   463.4    5.877      40.794
2015    7       22     8  55    4.5235   463.4    5.872      40.781
2015    7       22     9   1    4.5220   463.5    5.868      40.768
2015    7       22     9   7    4.5204   463.5    5.863      40.755
2015    7       22     9  13    4.5188   463.5    5.859      40.742
2015    7       22     9  20    4.5172   463.6    5.854      40.728
2015    7       22     9  26    4.5156   463.6    5.850      40.714
2015    7       22     9  32    4.5140   463.6    5.845      40.700
2015    7       22     9  38    4.5124   463.7    5.841      40.686
2015    7       22     9  44    4.5107   463.7    5.836      40.671
2015    7       22     9  50    4.5091   463.7    5.832      40.657
2015    7       22     9  56    4.5074   463.8    5.827      40.642
2015    7       22    10   2    4.5057   463.8    5.822      40.627
2015    7       22    10   8    4.5040   463.8    5.818      40.612
2015    7       22    10  15    4.5023   463.8    5.813      40.597
2015    7       22    10  21    4.5006   463.9    5.809      40.582
2015    7       22    10  27    4.4989   463.9    5.804      40.566
2015    7       22    10  33    4.4971   463.9    5.800      40.551
2015    7       22    10  39    4.4954   463.9    5.795      40.535
2015    7       22    10  45    4.4937   464.0    5.791      40.519
2015    7       22    10  51    4.4919   464.0    5.787      40.504
2015    7       22    10  57    4.4902   464.0    5.782      40.487
2015    7       22    11   3    4.4884   464.0    5.778      40.471
2015    7       22    11  10    4.4867   464.0    5.774      40.455
2015    7       22    11  16    4.4849   464.1    5.770      40.439
2015    7       22    11  22    4.4831   464.1    5.765      40.423
2015    7       22    11  28    4.4814   464.1    5.761      40.407
2015    7       22    11  34    4.4796   464.1    5.758      40.390
2015    7       22    11  40    4.4779   464.1    5.754      40.374
2015    7       22    11  46    4.4761   464.1    5.750      40.358
2015    7       22    11  52    4.4744   464.1    5.746      40.342
2015    7       22    11  59    4.4727   464.1    5.743      40.325
2015    7       22    12   5    4.4710   464.1    5.739      40.310
2015    7       22    12  11    4.4693   464.1    5.736      40.294
2015    7       22    12  17    4.4676   464.1    5.733      40.279
2015    7       22    12  23    4.4660   464.1    5.730      40.263
2015    7       22    12  29    4.4644   464.1    5.727      40.248
2015    7       22    12  35    4.4627   464.1    5.724      40.233
2015    7       22    12  41    4.4612   464.1    5.721      40.219
2015    7       22    12  47    4.4596   464.1    5.719      40.205
2015    7       22    12  54    4.4581   464.1    5.717      40.191
2015    7       22    13   0    4.4566   464.1    5.714      40.178
2015    7       22    13   6    4.4551   464.1    5.712      40.165
2015    7       22    13  12    4.4536   464.1    5.710      40.152
2015    7       22    13  18    4.4522   464.1    5.708      40.140
2015    7       22    13  24    4.4508   464.1    5.706      40.128
2015    7       22    13  30    4.4494   464.1    5.704      40.117
2015    7       22    13  36    4.4480   464.1    5.703      40.105
2015    7       22    13  43    4.4466   464.1    5.701      40.094
2015    7       22    13  49    4.4452   464.1    5.699      40.083
2015    7       22    13  55    4.4438   464.1    5.697      40.072
2015    7       22    14   1    4.4425   464.1    5.696      40.061
2015    7       22    14   7    4.4411   464.1    5.694      40.050
2015    7       22    14  13    4.4397   464.1    5.692      40.039
2015    7       22    14  19    4.4383   464.1    5.690      40.028
2015    7       22    14  25    4.4369   464.1    5.688      40.016
2015    7       22    14  31    4.4356   464.1    5.687      40.005
2015    7       22    14  38    4.4341   464.1    5.685      39.993
2015    7       22    14  44    4.4328   464.1    5.682      39.981
2015    7       22    14  50    4.4313   464.1    5.680      39.968
2015    7       22    14  56    4.4299   464.0    5.678      39.955
2015    7       22    15   2    4.4285   464.0    5.676      39.942
2015    7       22    15   8    4.4271   464.0    5.674      39.929
2015    7       22    15  14    4.4256   464.0    5.672      39.916
2015    7       22    15  20    4.4242   464.0    5.669      39.902
2015    7       22    15  27    4.4227   464.0    5.667      39.888
2015    7       22    15  33    4.4213   464.0    5.664      39.874
2015    7       22    15  39    4.4198   464.0    5.662      39.859
2015    7       22    15  45    4.4184   464.0    5.659      39.844
2015    7       22    15  51    4.4169   464.0    5.657      39.829
2015    7       22    15  57    4.4154   464.0    5.654      39.813
2015    7       22    16   3    4.4140   464.0    5.652      39.797
2015    7       22    16   9    4.4125   464.0    5.649      39.782
2015    7       22    16  15    4.4110   464.0    5.646      39.765
2015    7       22    16  22    4.4095   464.0    5.643      39.749
2015    7       22    16  28    4.4080   463.9    5.640      39.731
2015    7       22    16  34    4.4066   463.9    5.637      39.714
2015    7       22    16  40    4.4051   463.9    5.635      39.697
2015    7       22    16  46    4.4036   463.9    5.632      39.679
2015    7       22    16  52    4.4021   463.9    5.629      39.661
2015    7       22    16  58    4.4006   463.9    5.626      39.643
2015    7       22    17   4    4.3991   463.9    5.622      39.624
2015    7       22    17  11    4.3976   463.9    5.619      39.605
2015    7       22    17  17    4.3960   463.9    5.616      39.586
2015    7       22    17  23    4.3945   463.9    5.613      39.567
2015    7       22    17  29    4.3930   463.8    5.610      39.547
2015    7       22    17  35    4.3916   463.8    5.607      39.527
2015    7       22    17  41    4.3901   463.8    5.604      39.507
2015    7       22    17  47    4.3886   463.8    5.601      39.487
2015    7       22    17  53    4.3871   463.8    5.598      39.467
2015    7       22    17  59    4.3856   463.8    5.595      39.447
2015    7       22    18   6    4.3841   463.7    5.592      39.426
2015    7       22    18  12    4.3827   463.7    5.589      39.406
2015    7       22    18  18    4.3812   463.7    5.586      39.385
2015    7       22    18  24    4.3797   463.7    5.583      39.364
2015    7       22    18  30    4.3783   463.7    5.580      39.343
2015    7       22    18  36    4.3769   463.6    5.578      39.323
2015    7       22    18  42    4.3754   463.6    5.575      39.302
2015    7       22    18  48    4.3740   463.6    5.572      39.282
2015    7       22    18  55    4.3727   463.6    5.570      39.261
2015    7       22    19   1    4.3713   463.5    5.568      39.241
2015    7       22    19   7    4.3699   463.5    5.565      39.221
2015    7       22    19  13    4.3686   463.5    5.563      39.202
2015    7       22    19  19    4.3673   463.4    5.561      39.183
2015    7       22    19  25    4.3660   463.4    5.559      39.164
2015    7       22    19  31    4.3647   463.4    5.558      39.146
2015    7       22    19  37    4.3635   463.4    5.556      39.128
2015    7       22    19  43    4.3623   463.3    5.555      39.111
2015    7       22    19  50    4.3611   463.3    5.553      39.094
2015    7       22    19  56    4.3600   463.3    5.552      39.078
2015    7       22    20   2    4.3589   463.2    5.551      39.062
2015    7       22    20   8    4.3578   463.2    5.550      39.047
2015    7       22    20  14    4.3567   463.2    5.550      39.033
2015    7       22    20  20    4.3557   463.1    5.549      39.019
2015    7       22    20  26    4.3548   463.1    5.549      39.006
2015    7       22    20  32    4.3538   463.1    5.548      38.994
2015    7       22    20  38    4.3529   463.1    5.548      38.982
2015    7       22    20  45    4.3520   463.0    5.548      38.971
2015    7       22    20  51    4.3511   463.0    5.547      38.960
2015    7       22    20  57    4.3502   463.0    5.547      38.950
2015    7       22    21   3    4.3493   462.9    5.547      38.940
2015    7       22    21   9    4.3485   462.9    5.547      38.929
2015    7       22    21  15    4.3476   462.9    5.547      38.920
2015    7       22    21  21    4.3468   462.9    5.547      38.910
2015    7       22    21  27    4.3460   462.8    5.547      38.901
2015    7       22    21  34    4.3451   462.8    5.547      38.892
2015    7       22    21  40    4.3443   462.8    5.547      38.882
2015    7       22    21  46    4.3434   462.7    5.547      38.873
2015    7       22    21  52    4.3426   462.7    5.546      38.863
2015    7       22    21  58    4.3418   462.7    5.546      38.853
2015    7       22    22   4    4.3409   462.6    5.546      38.844
2015    7       22    22  10    4.3400   462.6    5.546      38.834
2015    7       22    22  16    4.3392   462.6    5.545      38.824
2015    7       22    22  22    4.3384   462.5    5.545      38.813
2015    7       22    22  29    4.3375   462.5    5.545      38.803
2015    7       22    22  35    4.3367   462.5    5.545      38.793
2015    7       22    22  41    4.3358   462.4    5.544      38.783
2015    7       22    22  47    4.3350   462.4    5.544      38.772
2015    7       22    22  53    4.3341   462.4    5.543      38.762
2015    7       22    22  59    4.3333   462.3    5.543      38.751
2015    7       22    23   5    4.3325   462.3    5.543      38.741
2015    7       22    23  11    4.3317   462.3    5.542      38.730
2015    7       22    23  18    4.3308   462.2    5.542      38.719
2015    7       22    23  24    4.3300   462.2    5.541      38.708
2015    7       22    23  30    4.3292   462.2    5.540      38.697
2015    7       22    23  36    4.3284   462.1    5.540      38.686
2015    7       22    23  42    4.3276   462.1    5.539      38.675
2015    7       22    23  48    4.3268   462.1    5.539      38.663
2015    7       22    23  54    4.3260   462.0    5.538      38.652
2015    7       23     0   0    4.3252   462.0    5.537      38.641
2015    7       23     0   6    4.3244   462.0    5.536      38.629
2015    7       23     0  13    4.3237   461.9    5.536      38.617
2015    7       23     0  19    4.3229   461.9    5.535      38.605
2015    7       23     0  25    4.3221   461.9    5.534      38.593
2015    7       23     0  31    4.3213   461.8    5.533      38.581
2015    7       23     0  37    4.3206   461.8    5.532      38.568
2015    7       23     0  43    4.3198   461.8    5.532      38.556
2015    7       23     0  49    4.3190   461.7    5.531      38.543
2015    7       23     0  55    4.3182   461.7    5.530      38.531
2015    7       23     1   2    4.3175   461.7    5.529      38.517
2015    7       23     1   8    4.3167   461.6    5.528      38.505
2015    7       23     1  14    4.3160   461.6    5.527      38.491
2015    7       23     1  20    4.3152   461.5    5.526      38.478
2015    7       23     1  26    4.3144   461.5    5.525      38.464
2015    7       23     1  32    4.3137   461.5    5.524      38.450
2015    7       23     1  38    4.3129   461.4    5.523      38.437
2015    7       23     1  44    4.3122   461.4    5.522      38.422
2015    7       23     1  50    4.3114   461.4    5.521      38.408
2015    7       23     1  57    4.3106   461.3    5.520      38.394
2015    7       23     2   3    4.3099   461.3    5.519      38.380
2015    7       23     2   9    4.3092   461.3    5.518      38.365
2015    7       23     2  15    4.3084   461.2    5.517      38.351
2015    7       23     2  21    4.3077   461.2    5.516      38.337
2015    7       23     2  27    4.3070   461.1    5.515      38.322
2015    7       23     2  33    4.3062   461.1    5.515      38.308
2015    7       23     2  39    4.3055   461.1    5.514      38.293
2015    7       23     2  45    4.3048   461.0    5.513      38.279
2015    7       23     2  52    4.3041   461.0    5.512      38.265
2015    7       23     2  58    4.3034   461.0    5.511      38.251
2015    7       23     3   4    4.3028   460.9    5.511      38.237
2015    7       23     3  10    4.3021   460.9    5.510      38.224
2015    7       23     3  16    4.3014   460.8    5.510      38.210
2015    7       23     3  22    4.3008   460.8    5.509      38.197
2015    7       23     3  28    4.3002   460.8    5.509      38.184
2015    7       23     3  34    4.2995   460.7    5.508      38.171
2015    7       23     3  41    4.2989   460.7    5.508      38.158
2015    7       23     3  47    4.2983   460.6    5.508      38.146
2015    7       23     3  53    4.2978   460.6    5.508      38.134
2015    7       23     3  59    4.2972   460.6    5.508      38.122
2015    7       23     4   5    4.2966   460.5    5.507      38.110
2015    7       23     4  11    4.2961   460.5    5.507      38.099
2015    7       23     4  17    4.2955   460.5    5.508      38.087
2015    7       23     4  23    4.2950   460.4    5.508      38.076
2015    7       23     4  29    4.2945   460.4    5.508      38.065
2015    7       23     4  36    4.2939   460.3    5.508      38.054
2015    7       23     4  42    4.2934   460.3    5.508      38.043
2015    7       23     4  48    4.2929   460.3    5.509      38.033
2015    7       23     4  54    4.2924   460.2    5.509      38.023
2015    7       23     5   0    4.2920   460.2    5.509      38.012
2015    7       23     5   6    4.2915   460.1    5.510      38.002
2015    7       23     5  12    4.2910   460.1    5.510      37.992
2015    7       23     5  18    4.2906   460.1    5.511      37.983
2015    7       23     5  25    4.2901   460.0    5.511      37.973
2015    7       23     5  31    4.2897   460.0    5.512      37.964
2015    7       23     5  37    4.2893   459.9    5.513      37.956
2015    7       23     5  43    4.2889   459.9    5.513      37.948
2015    7       23     5  49    4.2885   459.9    5.514      37.940
2015    7       23     5  55    4.2881   459.8    5.514      37.932
2015    7       23     6   1    4.2877   459.8    5.515      37.925
2015    7       23     6   7    4.2874   459.7    5.515      37.918
2015    7       23     6  13    4.2870   459.7    5.515      37.911
2015    7       23     6  20    4.2866   459.6    5.516      37.904
2015    7       23     6  26    4.2863   459.6    5.516      37.897
2015    7       23     6  32    4.2859   459.6    5.516      37.891
2015    7       23     6  38    4.2856   459.5    5.516      37.885
2015    7       23     6  44    4.2852   459.5    5.517      37.878
2015    7       23     6  50    4.2849   459.4    5.517      37.871
2015    7       23     6  56    4.2845   459.4    5.517      37.865
2015    7       23     7   2    4.2842   459.4    5.517      37.858
2015    7       23     7   9    4.2838   459.3    5.517      37.851
2015    7       23     7  15    4.2835   459.3    5.517      37.844
2015    7       23     7  21    4.2832   459.2    5.517      37.837
2015    7       23     7  27    4.2828   459.2    5.516      37.830
2015    7       23     7  33    4.2825   459.2    5.516      37.822
2015    7       23     7  39    4.2821   459.1    5.516      37.814
2015    7       23     7  45    4.2818   459.1    5.516      37.807
2015    7       23     7  51    4.2814   459.0    5.515      37.799
2015    7       23     7  57    4.2811   459.0    5.515      37.790
2015    7       23     8   4    4.2807   459.0    5.515      37.782
2015    7       23     8  10    4.2804   458.9    5.514      37.773
2015    7       23     8  16    4.2800   458.9    5.514      37.765
2015    7       23     8  22    4.2797   458.9    5.514      37.755
2015    7       23     8  28    4.2793   458.8    5.513      37.746
2015    7       23     8  34    4.2789   458.8    5.513      37.736
2015    7       23     8  40    4.2786   458.7    5.512      37.727
2015    7       23     8  46    4.2782   458.7    5.511      37.716
2015    7       23     8  53    4.2778   458.6    5.511      37.706
2015    7       23     8  59    4.2774   458.6    5.510      37.695
2015    7       23     9   5    4.2770   458.6    5.510      37.684
2015    7       23     9  11    4.2766   458.5    5.509      37.672
2015    7       23     9  17    4.2762   458.5    5.508      37.661
2015    7       23     9  23    4.2759   458.4    5.508      37.649
2015    7       23     9  29    4.2755   458.4    5.507      37.637
2015    7       23     9  35    4.2751   458.4    5.506      37.624
2015    7       23     9  41    4.2747   458.3    5.506      37.612
2015    7       23     9  48    4.2743   458.3    5.505      37.599
2015    7       23     9  54    4.2739   458.2    5.504      37.586
2015    7       23    10   0    4.2735   458.2    5.503      37.573
2015    7       23    10   6    4.2731   458.1    5.503      37.560
2015    7       23    10  12    4.2727   458.1    5.502      37.547
2015    7       23    10  18    4.2723   458.1    5.501      37.534
2015    7       23    10  24    4.2720   458.0    5.501      37.520
2015    7       23    10  30    4.2716   458.0    5.500      37.507
2015    7       23    10  36    4.2712   457.9    5.499      37.493
2015    7       23    10  43    4.2709   457.9    5.499      37.480
2015    7       23    10  49    4.2705   457.8    5.498      37.466
2015    7       23    10  55    4.2701   457.8    5.498      37.453
2015    7       23    11   1    4.2698   457.7    5.497      37.440
2015    7       23    11   7    4.2694   457.7    5.497      37.427
2015    7       23    11  13    4.2691   457.6    5.497      37.414
2015    7       23    11  19    4.2688   457.6    5.496      37.401
2015    7       23    11  25    4.2685   457.5    5.496      37.389
2015    7       23    11  32    4.2682   457.5    5.496      37.376
2015    7       23    11  38    4.2679   457.4    5.496      37.364
2015    7       23    11  44    4.2676   457.4    5.496      37.352
2015    7       23    11  50    4.2674   457.3    5.496      37.341
2015    7       23    11  56    4.2671   457.3    5.497      37.330
2015    7       23    12   2    4.2669   457.3    5.497      37.319
2015    7       23    12   8    4.2667   457.2    5.498      37.308
2015    7       23    12  14    4.2665   457.2    5.498      37.298
2015    7       23    12  20    4.2663   457.1    5.499      37.288
2015    7       23    12  27    4.2662   457.1    5.500      37.279
2015    7       23    12  33    4.2660   457.0    5.501      37.271
2015    7       23    12  39    4.2659   457.0    5.502      37.263
2015    7       23    12  45    4.2658   456.9    5.503      37.256
2015    7       23    12  51    4.2657   456.9    5.504      37.249
2015    7       23    12  57    4.2657   456.8    5.505      37.244
2015    7       23    13   3    4.2656   456.8    5.507      37.238
2015    7       23    13   9    4.2656   456.7    5.508      37.233
2015    7       23    13  16    4.2655   456.7    5.509      37.229
2015    7       23    13  22    4.2655   456.6    5.511      37.225
2015    7       23    13  28    4.2655   456.6    5.512      37.221
2015    7       23    13  34    4.2655   456.6    5.514      37.218
2015    7       23    13  40    4.2655   456.5    5.515      37.215
2015    7       23    13  46    4.2655   456.5    5.516      37.212
2015    7       23    13  52    4.2655   456.4    5.518      37.209
2015    7       23    13  58    4.2655   456.4    5.519      37.206
2015    7       23    14   4    4.2655   456.3    5.521      37.203
2015    7       23    14  11    4.2655   456.3    5.522      37.201
2015    7       23    14  17    4.2655   456.3    5.524      37.198
2015    7       23    14  23    4.2655   456.2    5.525      37.195
2015    7       23    14  29    4.2655   456.2    5.526      37.192
2015    7       23    14  35    4.2655   456.1    5.528      37.189
2015    7       23    14  41    4.2655   456.1    5.529      37.187
2015    7       23    14  47    4.2655   456.1    5.530      37.184
2015    7       23    14  53    4.2654   456.0    5.532      37.181
2015    7       23    15   0    4.2654   456.0    5.533      37.178
2015    7       23    15   6    4.2654   455.9    5.534      37.174
2015    7       23    15  12    4.2653   455.9    5.535      37.171
2015    7       23    15  18    4.2653   455.8    5.536      37.168
2015    7       23    15  24    4.2652   455.8    5.537      37.165
2015    7       23    15  30    4.2652   455.8    5.538      37.161
2015    7       23    15  36    4.2651   455.7    5.539      37.158
2015    7       23    15  42    4.2651   455.7    5.540      37.154
2015    7       23    15  48    4.2650   455.6    5.541      37.151
2015    7       23    15  55    4.2650   455.6    5.542      37.147
2015    7       23    16   1    4.2649   455.5    5.542      37.143
2015    7       23    16   7    4.2649   455.5    5.543      37.139
2015    7       23    16  13    4.2649   455.5    5.544      37.135
2015    7       23    16  19    4.2648   455.4    5.544      37.131
2015    7       23    16  25    4.2648   455.4    5.545      37.127
2015    7       23    16  31    4.2648   455.3    5.546      37.123
2015    7       23    16  37    4.2647   455.3    5.546      37.119
2015    7       23    16  43    4.2647   455.2    5.547      37.114
2015    7       23    16  50    4.2647   455.2    5.547      37.110
2015    7       23    16  56    4.2646   455.2    5.548      37.105
2015    7       23    17   2    4.2646   455.1    5.548      37.100
2015    7       23    17   8    4.2646   455.1    5.548      37.096
2015    7       23    17  14    4.2645   455.0    5.549      37.091
2015    7       23    17  20    4.2645   455.0    5.549      37.086
2015    7       23    17  26    4.2645   455.0    5.549      37.081
2015    7       23    17  32    4.2644   454.9    5.550      37.075
2015    7       23    17  39    4.2644   454.9    5.550      37.070
2015    7       23    17  45    4.2644   454.8    5.550      37.064
2015    7       23    17  51    4.2643   454.8    5.550      37.059
2015    7       23    17  57    4.2643   454.7    5.550      37.053
2015    7       23    18   3    4.2642   454.7    5.550      37.047
2015    7       23    18   9    4.2642   454.7    5.550      37.040
2015    7       23    18  15    4.2641   454.6    5.550      37.034
2015    7       23    18  21    4.2641   454.6    5.551      37.028
2015    7       23    18  27    4.2641   454.5    5.551      37.021
2015    7       23    18  34    4.2640   454.5    5.551      37.014
2015    7       23    18  40    4.2640   454.4    5.551      37.007
2015    7       23    18  46    4.2640   454.4    5.551      37.000
2015    7       23    18  52    4.2640   454.4    5.551      36.993
2015    7       23    18  58    4.2639   454.3    5.551      36.986
2015    7       23    19   4    4.2639   454.3    5.551      36.979
2015    7       23    19  10    4.2639   454.2    5.551      36.972
2015    7       23    19  16    4.2639   454.2    5.551      36.965
2015    7       23    19  23    4.2639   454.1    5.551      36.958
2015    7       23    19  29    4.2639   454.1    5.552      36.951
2015    7       23    19  35    4.2640   454.0    5.552      36.944
2015    7       23    19  41    4.2640   454.0    5.552      36.937
2015    7       23    19  47    4.2640   454.0    5.553      36.931
2015    7       23    19  53    4.2641   453.9    5.553      36.924
2015    7       23    19  59    4.2642   453.9    5.554      36.918
2015    7       23    20   5    4.2642   453.8    5.554      36.912
2015    7       23    20  11    4.2644   453.8    5.555      36.907
2015    7       23    20  18    4.2645   453.7    5.556      36.901
2015    7       23    20  24    4.2646   453.7    5.557      36.896
2015    7       23    20  30    4.2647   453.7    5.558      36.891
2015    7       23    20  36    4.2649   453.6    5.559      36.886
2015    7       23    20  42    4.2650   453.6    5.560      36.882
2015    7       23    20  48    4.2652   453.5    5.561      36.878
2015    7       23    20  54    4.2654   453.5    5.562      36.874
2015    7       23    21   0    4.2656   453.5    5.564      36.870
2015    7       23    21   7    4.2658   453.4    5.565      36.866
2015    7       23    21  13    4.2660   453.4    5.567      36.863
2015    7       23    21  19    4.2661   453.4    5.568      36.860
2015    7       23    21  25    4.2663   453.3    5.570      36.857
2015    7       23    21  31    4.2665   453.3    5.571      36.854
2015    7       23    21  37    4.2667   453.2    5.573      36.852
2015    7       23    21  43    4.2669   453.2    5.575      36.849
2015    7       23    21  49    4.2671   453.2    5.576      36.847
2015    7       23    21  55    4.2673   453.1    5.578      36.845
2015    7       23    22   2    4.2675   453.1    5.580      36.843
2015    7       23    22   8    4.2677   453.0    5.582      36.840
2015    7       23    22  14    4.2679   453.0    5.583      36.839
2015    7       23    22  20    4.2681   453.0    5.585      36.837
2015    7       23    22  26    4.2683   452.9    5.587      36.835
2015    7       23    22  32    4.2685   452.9    5.589      36.834
2015    7       23    22  38    4.2687   452.8    5.590      36.832
2015    7       23    22  44    4.2689   452.8    5.592      36.831
2015    7       23    22  51    4.2691   452.8    5.594      36.830
2015    7       23    22  57    4.2693   452.7    5.596      36.829
2015    7       23    23   3    4.2695   452.7    5.598      36.828
2015    7       23    23   9    4.2698   452.6    5.600      36.827
2015    7       23    23  15    4.2700   452.6    5.602      36.826
2015    7       23    23  21    4.2702   452.6    5.604      36.826
2015    7       23    23  27    4.2705   452.5    5.606      36.826
2015    7       23    23  33    4.2708   452.5    5.608      36.826
2015    7       23    23  39    4.2711   452.4    5.610      36.826
2015    7       23    23  46    4.2714   452.4    5.612      36.826
2015    7       23    23  52    4.2717   452.4    5.614      36.827
2015    7       23    23  58    4.2720   452.3    5.616      36.827
2015    7       24     0   4    4.2724   452.3    5.618      36.828
2015    7       24     0  10    4.2727   452.2    5.620      36.830
2015    7       24     0  16    4.2730   452.2    5.622      36.832
2015    7       24     0  22    4.2734   452.2    5.625      36.834
2015    7       24     0  28    4.2737   452.1    5.627      36.837
2015    7       24     0  34    4.2741   452.1    5.629      36.841
2015    7       24     0  41    4.2744   452.1    5.631      36.844
2015    7       24     0  47    4.2748   452.0    5.633      36.848
2015    7       24     0  53    4.2751   452.0    5.635      36.852
2015    7       24     0  59    4.2754   452.0    5.637      36.857
2015    7       24     1   5    4.2757   451.9    5.639      36.861
2015    7       24     1  11    4.2760   451.9    5.641      36.866
2015    7       24     1  17    4.2763   451.9    5.642      36.870
2015    7       24     1  23    4.2766   451.8    5.644      36.875
2015    7       24     1  30    4.2769   451.8    5.646      36.880
2015    7       24     1  36    4.2771   451.8    5.647      36.885
2015    7       24     1  42    4.2774   451.7    5.649      36.889
2015    7       24     1  48    4.2777   451.7    5.650      36.893
2015    7       24     1  54    4.2779   451.7    5.652      36.897
2015    7       24     2   0    4.2781   451.6    5.653      36.901
2015    7       24     2   6    4.2784   451.6    5.654      36.904
2015    7       24     2  12    4.2786   451.6    5.655      36.907
2015    7       24     2  18    4.2788   451.6    5.656      36.910
2015    7       24     2  25    4.2790   451.5    5.657      36.913
2015    7       24     2  31    4.2792   451.5    5.658      36.915
2015    7       24     2  37    4.2794   451.5    5.659      36.917
2015    7       24     2  43    4.2796   451.4    5.660      36.919
2015    7       24     2  49    4.2797   451.4    5.661      36.921
2015    7       24     2  55    4.2799   451.4    5.662      36.922
2015    7       24     3   1    4.2801   451.4    5.663      36.924
2015    7       24     3   7    4.2803   451.3    5.663      36.925
2015    7       24     3  14    4.2804   451.3    5.664      36.925
2015    7       24     3  20    4.2806   451.3    5.665      36.926
2015    7       24     3  26    4.2807   451.2    5.665      36.926
2015    7       24     3  32    4.2809   451.2    5.666      36.926
2015    7       24     3  38    4.2810   451.2    5.667      36.926
2015    7       24     3  44    4.2812   451.2    5.667      36.925
2015    7       24     3  50    4.2813   451.1    5.668      36.925
2015    7       24     3  56    4.2815   451.1    5.668      36.924
2015    7       24     4   2    4.2816   451.1    5.669      36.924
2015    7       24     4   9    4.2818   451.0    5.670      36.923
2015    7       24     4  15    4.2819   451.0    5.670      36.922
2015    7       24     4  21    4.2820   451.0    5.671      36.920
2015    7       24     4  27    4.2822   451.0    5.671      36.919
2015    7       24     4  33    4.2823   450.9    5.672      36.918
2015    7       24     4  39    4.2825   450.9    5.672      36.916
2015    7       24     4  45    4.2826   450.9    5.673      36.915
2015    7       24     4  51    4.2828   450.9    5.674      36.914
2015    7       24     4  58    4.2829   450.8    5.674      36.912
2015    7       24     5   4    4.2831   450.8    5.675      36.911
2015    7       24     5  10    4.2833   450.8    5.676      36.910
2015    7       24     5  16    4.2835   450.8    5.676      36.908
2015    7       24     5  22    4.2836   450.7    5.677      36.907
2015    7       24     5  28    4.2838   450.7    5.678      36.906
2015    7       24     5  34    4.2840   450.7    5.679      36.905
2015    7       24     5  40    4.2842   450.7    5.680      36.904
2015    7       24     5  46    4.2843   450.6    5.680      36.903
2015    7       24     5  53    4.2845   450.6    5.681      36.902
2015    7       24     5  59    4.2847   450.6    5.682      36.901
2015    7       24     6   5    4.2849   450.6    5.683      36.901
2015    7       24     6  11    4.2851   450.6    5.684      36.900
2015    7       24     6  17    4.2852   450.5    5.686      36.900
2015    7       24     6  23    4.2854   450.5    5.687      36.899
2015    7       24     6  29    4.2855   450.5    5.688      36.899
2015    7       24     6  35    4.2857   450.5    5.689      36.899
2015    7       24     6  41    4.2858   450.4    5.690      36.899
2015    7       24     6  48    4.2860   450.4    5.691      36.899
2015    7       24     6  54    4.2861   450.4    5.693      36.900
2015    7       24     7   0    4.2863   450.4    5.694      36.900
2015    7       24     7   6    4.2864   450.4    5.695      36.900
2015    7       24     7  12    4.2866   450.3    5.697      36.901
2015    7       24     7  18    4.2867   450.3    5.698      36.902
2015    7       24     7  24    4.2868   450.3    5.700      36.903
2015    7       24     7  30    4.2869   450.3    5.701      36.904
2015    7       24     7  37    4.2870   450.3    5.703      36.905
2015    7       24     7  43    4.2871   450.2    5.704      36.907
2015    7       24     7  49    4.2872   450.2    5.706      36.909
2015    7       24     7  55    4.2873   450.2    5.707      36.912
2015    7       24     8   1    4.2874   450.2    5.708      36.914
2015    7       24     8   7    4.2875   450.2    5.710      36.917
2015    7       24     8  13    4.2875   450.1    5.711      36.920
2015    7       24     8  19    4.2876   450.1    5.712      36.923
2015    7       24     8  25    4.2876   450.1    5.713      36.926
2015    7       24     8  32    4.2876   450.1    5.714      36.929
2015    7       24     8  38    4.2876   450.1    5.716      36.932
2015    7       24     8  44    4.2876   450.1    5.716      36.935
2015    7       24     8  50    4.2875   450.0    5.717      36.939
2015    7       24     8  56    4.2875   450.0    5.718      36.942
2015    7       24     9   2    4.2874   450.0    5.719      36.944
2015    7       24     9   8    4.2874   450.0    5.720      36.947
2015    7       24     9  14    4.2873   450.0    5.720      36.950
2015    7       24     9  21    4.2872   450.0    5.721      36.952
2015    7       24     9  27    4.2871   449.9    5.722      36.954
2015    7       24     9  33    4.2870   449.9    5.722      36.956
2015    7       24     9  39    4.2868   449.9    5.723      36.957
2015    7       24     9  45    4.2867   449.9    5.723      36.959
2015    7       24     9  51    4.2865   449.9    5.723      36.960
2015    7       24     9  57    4.2863   449.9    5.723      36.961
2015    7       24    10   3    4.2862   449.8    5.724      36.962
2015    7       24    10   9    4.2860   449.8    5.724      36.962
2015    7       24    10  16    4.2858   449.8    5.724      36.963
2015    7       24    10  22    4.2856   449.8    5.724      36.963
2015    7       24    10  28    4.2854   449.8    5.724      36.963
2015    7       24    10  34    4.2851   449.8    5.724      36.963
2015    7       24    10  40    4.2849   449.8    5.724      36.962
2015    7       24    10  46    4.2847   449.7    5.724      36.962
2015    7       24    10  52    4.2844   449.7    5.724      36.961
2015    7       24    10  58    4.2841   449.7    5.724      36.961
2015    7       24    11   5    4.2839   449.7    5.724      36.959
2015    7       24    11  11    4.2836   449.7    5.723      36.959
2015    7       24    11  17    4.2833   449.7    5.723      36.957
2015    7       24    11  23    4.2831   449.6    5.723      36.956
2015    7       24    11  29    4.2828   449.6    5.723      36.955
2015    7       24    11  35    4.2825   449.6    5.722      36.953
2015    7       24    11  41    4.2822   449.6    5.722      36.952
2015    7       24    11  47    4.2819   449.6    5.722      36.950
2015    7       24    11  53    4.2816   449.6    5.722      36.949
2015    7       24    12   0    4.2813   449.6    5.721      36.947
2015    7       24    12   6    4.2810   449.5    5.721      36.945
2015    7       24    12  12    4.2807   449.5    5.721      36.944
2015    7       24    12  18    4.2804   449.5    5.720      36.942
2015    7       24    12  24    4.2800   449.5    5.720      36.941
2015    7       24    12  30    4.2797   449.5    5.720      36.939
2015    7       24    12  36    4.2794   449.5    5.720      36.937
2015    7       24    12  42    4.2791   449.5    5.719      36.936
2015    7       24    12  48    4.2787   449.4    5.719      36.934
2015    7       24    12  55    4.2784   449.4    5.719      36.933
2015    7       24    13   1    4.2780   449.4    5.718      36.931
2015    7       24    13   7    4.2776   449.4    5.718      36.930
2015    7       24    13  13    4.2773   449.4    5.718      36.929
2015    7       24    13  19    4.2768   449.4    5.718      36.927
2015    7       24    13  25    4.2764   449.4    5.717      36.926
2015    7       24    13  31    4.2760   449.4    5.717      36.925
2015    7       24    13  37    4.2755   449.4    5.717      36.923
2015    7       24    13  44    4.2751   449.3    5.717      36.922
2015    7       24    13  50    4.2746   449.3    5.716      36.921
2015    7       24    13  56    4.2740   449.3    5.716      36.919
2015    7       24    14   2    4.2735   449.3    5.716      36.918
2015    7       24    14   8    4.2730   449.3    5.715      36.916
2015    7       24    14  14    4.2724   449.3    5.715      36.914
2015    7       24    14  20    4.2718   449.3    5.715      36.912
2015    7       24    14  26    4.2712   449.3    5.714      36.910
2015    7       24    14  32    4.2706   449.3    5.714      36.907
2015    7       24    14  39    4.2699   449.2    5.714      36.905
2015    7       24    14  45    4.2693   449.2    5.713      36.902
2015    7       24    14  51    4.2686   449.2    5.713      36.899
2015    7       24    14  57    4.2679   449.2    5.712      36.896
2015    7       24    15   3    4.2672   449.2    5.712      36.892
2015    7       24    15   9    4.2665   449.2    5.711      36.889
2015    7       24    15  15    4.2657   449.2    5.710      36.885
2015    7       24    15  21    4.2650   449.2    5.710      36.881
2015    7       24    15  28    4.2642   449.2    5.709      36.877
2015    7       24    15  34    4.2634   449.1    5.708      36.872
2015    7       24    15  40    4.2626   449.1    5.708      36.868
2015    7       24    15  46    4.2618   449.1    5.707      36.863
2015    7       24    15  52    4.2610   449.1    5.706      36.858
2015    7       24    15  58    4.2602   449.1    5.705      36.853
2015    7       24    16   4    4.2593   449.1    5.704      36.848
2015    7       24    16  10    4.2584   449.1    5.703      36.842
2015    7       24    16  16    4.2576   449.1    5.702      36.837
2015    7       24    16  23    4.2567   449.1    5.701      36.831
2015    7       24    16  29    4.2558   449.0    5.700      36.825
2015    7       24    16  35    4.2548   449.0    5.699      36.819
2015    7       24    16  41    4.2539   449.0    5.698      36.813
2015    7       24    16  47    4.2529   449.0    5.697      36.806
2015    7       24    16  53    4.2520   449.0    5.696      36.800
2015    7       24    16  59    4.2510   449.0    5.694      36.793
2015    7       24    17   5    4.2500   449.0    5.693      36.787
2015    7       24    17  12    4.2490   448.9    5.692      36.780
2015    7       24    17  18    4.2480   448.9    5.691      36.773
2015    7       24    17  24    4.2470   448.9    5.689      36.766
2015    7       24    17  30    4.2459   448.9    5.688      36.759
2015    7       24    17  36    4.2448   448.9    5.687      36.752
2015    7       24    17  42    4.2438   448.9    5.685      36.745
2015    7       24    17  48    4.2427   448.9    5.684      36.737
2015    7       24    17  54    4.2416   448.8    5.683      36.730
2015    7       24    18   0    4.2405   448.8    5.681      36.723
2015    7       24    18   7    4.2393   448.8    5.680      36.716
2015    7       24    18  13    4.2382   448.8    5.678      36.709
2015    7       24    18  19    4.2370   448.8    5.677      36.702
2015    7       24    18  25    4.2359   448.8    5.676      36.694
2015    7       24    18  31    4.2347   448.8    5.674      36.687
2015    7       24    18  37    4.2335   448.7    5.673      36.680
2015    7       24    18  43    4.2323   448.7    5.671      36.673
2015    7       24    18  49    4.2311   448.7    5.670      36.666
2015    7       24    18  56    4.2299   448.7    5.668      36.659
2015    7       24    19   2    4.2286   448.7    5.667      36.652
2015    7       24    19   8    4.2274   448.6    5.665      36.645
2015    7       24    19  14    4.2261   448.6    5.663      36.638
2015    7       24    19  20    4.2248   448.6    5.662      36.631
2015    7       24    19  26    4.2235   448.6    5.660      36.624
2015    7       24    19  32    4.2222   448.6    5.659      36.617
2015    7       24    19  38    4.2209   448.6    5.657      36.610
2015    7       24    19  44    4.2196   448.5    5.655      36.603
2015    7       24    19  51    4.2183   448.5    5.654      36.596
2015    7       24    19  57    4.2169   448.5    5.652      36.590
2015    7       24    20   3    4.2155   448.5    5.650      36.583
2015    7       24    20   9    4.2142   448.5    5.648      36.576
2015    7       24    20  15    4.2128   448.4    5.647      36.569
2015    7       24    20  21    4.2114   448.4    5.645      36.562
2015    7       24    20  27    4.2100   448.4    5.643      36.554
2015    7       24    20  33    4.2085   448.4    5.641      36.547
2015    7       24    20  39    4.2071   448.4    5.639      36.540
2015    7       24    20  46    4.2056   448.3    5.638      36.532
2015    7       24    20  52    4.2042   448.3    5.636      36.524
2015    7       24    20  58    4.2027   448.3    5.634      36.516
2015    7       24    21   4    4.2012   448.3    5.632      36.507
2015    7       24    21  10    4.1997   448.2    5.630      36.498
2015    7       24    21  16    4.1981   448.2    5.628      36.489
2015    7       24    21  22    4.1966   448.2    5.626      36.480
2015    7       24    21  28    4.1951   448.2    5.624      36.470
2015    7       24    21  35    4.1935   448.1    5.622      36.460
2015    7       24    21  41    4.1919   448.1    5.620      36.450
2015    7       24    21  47    4.1904   448.1    5.618      36.439
2015    7       24    21  53    4.1888   448.1    5.616      36.428
2015    7       24    21  59    4.1872   448.0    5.614      36.417
2015    7       24    22   5    4.1856   448.0    5.612      36.405
2015    7       24    22  11    4.1840   448.0    5.609      36.393
2015    7       24    22  17    4.1823   448.0    5.607      36.381
2015    7       24    22  23    4.1807   447.9    5.605      36.369
2015    7       24    22  30    4.1790   447.9    5.603      36.356
2015    7       24    22  36    4.1774   447.9    5.601      36.343
2015    7       24    22  42    4.1757   447.8    5.599      36.330
2015    7       24    22  48    4.1741   447.8    5.596      36.317
2015    7       24    22  54    4.1724   447.8    5.594      36.303
2015    7       24    23   0    4.1707   447.7    5.592      36.290
2015    7       24    23   6    4.1690   447.7    5.590      36.276
2015    7       24    23  12    4.1673   447.7    5.588      36.262
2015    7       24    23  19    4.1656   447.7    5.586      36.248
2015    7       24    23  25    4.1639   447.6    5.584      36.233
2015    7       24    23  31    4.1622   447.6    5.581      36.219
2015    7       24    23  37    4.1605   447.6    5.579      36.204
2015    7       24    23  43    4.1587   447.5    5.577      36.190
2015    7       24    23  49    4.1570   447.5    5.575      36.175
2015    7       24    23  55    4.1553   447.5    5.573      36.160
2015    7       25     0   1    4.1535   447.4    5.571      36.145
2015    7       25     0   7    4.1517   447.4    5.569      36.130
2015    7       25     0  14    4.1500   447.4    5.567      36.115
2015    7       25     0  20    4.1482   447.3    5.565      36.100
2015    7       25     0  26    4.1464   447.3    5.563      36.085
2015    7       25     0  32    4.1446   447.2    5.562      36.069
2015    7       25     0  38    4.1428   447.2    5.560      36.054
2015    7       25     0  44    4.1410   447.2    5.558      36.039
2015    7       25     0  50    4.1391   447.1    5.556      36.024
2015    7       25     0  56    4.1373   447.1    5.554      36.008
2015    7       25     1   3    4.1354   447.1    5.552      35.993
2015    7       25     1   9    4.1335   447.0    5.550      35.977
2015    7       25     1  15    4.1317   447.0    5.548      35.962
2015    7       25     1  21    4.1298   446.9    5.546      35.946
2015    7       25     1  27    4.1279   446.9    5.544      35.931
2015    7       25     1  33    4.1260   446.9    5.542      35.915
2015    7       25     1  39    4.1240   446.8    5.540      35.900
2015    7       25     1  45    4.1221   446.8    5.538      35.884
2015    7       25     1  51    4.1202   446.7    5.536      35.868
2015    7       25     1  58    4.1182   446.7    5.534      35.852
2015    7       25     2   4    4.1163   446.6    5.532      35.837
2015    7       25     2  10    4.1143   446.6    5.530      35.821
2015    7       25     2  16    4.1124   446.6    5.527      35.805
2015    7       25     2  22    4.1104   446.5    5.525      35.789
2015    7       25     2  28    4.1085   446.5    5.523      35.773
2015    7       25     2  34    4.1065   446.4    5.520      35.756
2015    7       25     2  40    4.1045   446.4    5.518      35.740
2015    7       25     2  46    4.1026   446.3    5.516      35.723
2015    7       25     2  53    4.1006   446.3    5.513      35.707
2015    7       25     2  59    4.0987   446.2    5.511      35.690
2015    7       25     3   5    4.0967   446.2    5.508      35.673
2015    7       25     3  11    4.0948   446.1    5.506      35.656
2015    7       25     3  17    4.0929   446.1    5.503      35.639
2015    7       25     3  23    4.0909   446.0    5.501      35.622
2015    7       25     3  29    4.0890   446.0    5.498      35.604
2015    7       25     3  35    4.0871   445.9    5.496      35.587
2015    7       25     3  42    4.0852   445.9    5.493      35.569
2015    7       25     3  48    4.0833   445.8    5.490      35.550
2015    7       25     3  54    4.0814   445.7    5.488      35.532
2015    7       25     4   0    4.0795   445.7    5.485      35.513
2015    7       25     4   6    4.0776   445.6    5.482      35.494
2015    7       25     4  12    4.0757   445.6    5.479      35.475
2015    7       25     4  18    4.0738   445.5    5.476      35.456
2015    7       25     4  24    4.0719   445.5    5.474      35.436
2015    7       25     4  30    4.0701   445.4    5.471      35.416
2015    7       25     4  37    4.0682   445.4    5.468      35.396
2015    7       25     4  43    4.0663   445.3    5.465      35.376
2015    7       25     4  49    4.0644   445.2    5.462      35.355
2015    7       25     4  55    4.0625   445.2    5.459      35.334
2015    7       25     5   1    4.0607   445.1    5.456      35.313
2015    7       25     5   7    4.0588   445.0    5.453      35.291
2015    7       25     5  13    4.0569   445.0    5.451      35.270
2015    7       25     5  19    4.0550   444.9    5.448      35.248
2015    7       25     5  26    4.0532   444.9    5.445      35.226
2015    7       25     5  32    4.0513   444.8    5.442      35.203
2015    7       25     5  38    4.0494   444.7    5.439      35.181
2015    7       25     5  44    4.0475   444.7    5.436      35.158
2015    7       25     5  50    4.0457   444.6    5.433      35.135
2015    7       25     5  56    4.0438   444.5    5.430      35.112
2015    7       25     6   2    4.0419   444.5    5.428      35.088
2015    7       25     6   8    4.0401   444.4    5.425      35.065
2015    7       25     6  14    4.0382   444.3    5.422      35.041
2015    7       25     6  21    4.0363   444.2    5.419      35.017
2015    7       25     6  27    4.0345   444.2    5.417      34.993
2015    7       25     6  33    4.0326   444.1    5.414      34.969
2015    7       25     6  39    4.0308   444.0    5.412      34.945
2015    7       25     6  45    4.0290   444.0    5.409      34.921
2015    7       25     6  51    4.0271   443.9    5.407      34.897
2015    7       25     6  57    4.0253   443.8    5.404      34.873
2015    7       25     7   3    4.0235   443.7    5.402      34.849
2015    7       25     7   9    4.0217   443.7    5.400      34.824
2015    7       25     7  16    4.0199   443.6    5.398      34.800
2015    7       25     7  22    4.0181   443.5    5.396      34.776
2015    7       25     7  28    4.0163   443.4    5.394      34.752
2015    7       25     7  34    4.0145   443.3    5.392      34.728
2015    7       25     7  40    4.0127   443.3    5.390      34.704
2015    7       25     7  46    4.0109   443.2    5.388      34.680
2015    7       25     7  52    4.0091   443.1    5.386      34.656
2015    7       25     7  58    4.0074   443.0    5.384      34.632
2015    7       25     8   5    4.0056   443.0    5.383      34.608
2015    7       25     8  11    4.0038   442.9    5.381      34.584
2015    7       25     8  17    4.0021   442.8    5.379      34.560
2015    7       25     8  23    4.0003   442.7    5.378      34.536
2015    7       25     8  29    3.9986   442.6    5.376      34.512
2015    7       25     8  35    3.9968   442.5    5.375      34.489
2015    7       25     8  41    3.9951   442.5    5.374      34.465
2015    7       25     8  47    3.9934   442.4    5.372      34.441
2015    7       25     8  54    3.9917   442.3    5.371      34.417
2015    7       25     9   0    3.9900   442.2    5.370      34.394
2015    7       25     9   6    3.9883   442.1    5.368      34.370
2015    7       25     9  12    3.9866   442.0    5.367      34.346
2015    7       25     9  18    3.9849   441.9    5.366      34.322
2015    7       25     9  24    3.9832   441.8    5.365      34.299
2015    7       25     9  30    3.9816   441.7    5.363      34.275
2015    7       25     9  36    3.9799   441.6    5.362      34.252
2015    7       25     9  42    3.9783   441.5    5.361      34.228
2015    7       25     9  49    3.9767   441.5    5.360      34.205
2015    7       25     9  55    3.9751   441.4    5.359      34.181
2015    7       25    10   1    3.9735   441.3    5.358      34.158
2015    7       25    10   7    3.9720   441.2    5.357      34.134
2015    7       25    10  13    3.9704   441.1    5.357      34.111
2015    7       25    10  19    3.9689   441.0    5.356      34.088
2015    7       25    10  25    3.9674   440.9    5.355      34.065
2015    7       25    10  31    3.9659   440.8    5.354      34.042
2015    7       25    10  37    3.9645   440.7    5.354      34.019
2015    7       25    10  44    3.9630   440.6    5.353      33.996
2015    7       25    10  50    3.9616   440.5    5.353      33.974
2015    7       25    10  56    3.9602   440.4    5.352      33.951
2015    7       25    11   2    3.9588   440.3    5.352      33.929
2015    7       25    11   8    3.9575   440.2    5.351      33.906
2015    7       25    11  14    3.9561   440.1    5.351      33.885
2015    7       25    11  20    3.9548   440.0    5.350      33.863
2015    7       25    11  26    3.9535   439.9    5.350      33.841
2015    7       25    11  33    3.9522   439.8    5.350      33.820
2015    7       25    11  39    3.9509   439.7    5.349      33.799
2015    7       25    11  45    3.9496   439.6    5.349      33.778
2015    7       25    11  51    3.9483   439.5    5.348      33.757
2015    7       25    11  57    3.9470   439.4    5.348      33.736
2015    7       25    12   3    3.9457   439.3    5.347      33.715
2015    7       25    12   9    3.9445   439.2    5.347      33.694
2015    7       25    12  15    3.9432   439.1    5.346      33.673
2015    7       25    12  21    3.9419   439.0    5.345      33.652
2015    7       25    12  28    3.9407   438.9    5.345      33.630
2015    7       25    12  34    3.9394   438.8    5.344      33.609
2015    7       25    12  40    3.9381   438.7    5.343      33.587
2015    7       25    12  46    3.9368   438.6    5.342      33.565
2015    7       25    12  52    3.9356   438.5    5.341      33.543
2015    7       25    12  58    3.9343   438.4    5.340      33.520
2015    7       25    13   4    3.9331   438.3    5.339      33.497
2015    7       25    13  10    3.9318   438.2    5.338      33.474
2015    7       25    13  17    3.9305   438.1    5.337      33.450
2015    7       25    13  23    3.9293   438.0    5.335      33.426
2015    7       25    13  29    3.9280   437.9    5.334      33.403
2015    7       25    13  35    3.9268   437.7    5.333      33.378
2015    7       25    13  41    3.9256   437.6    5.332      33.354
2015    7       25    13  47    3.9244   437.5    5.330      33.329
2015    7       25    13  53    3.9232   437.4    5.329      33.304
2015    7       25    13  59    3.9219   437.3    5.328      33.279
2015    7       25    14   5    3.9208   437.2    5.326      33.254
2015    7       25    14  12    3.9196   437.1    5.325      33.229
2015    7       25    14  18    3.9184   437.0    5.323      33.204
2015    7       25    14  24    3.9172   436.9    5.322      33.178
2015    7       25    14  30    3.9161   436.8    5.321      33.153
2015    7       25    14  36    3.9150   436.7    5.319      33.127
2015    7       25    14  42    3.9138   436.6    5.318      33.101
2015    7       25    14  48    3.9127   436.5    5.317      33.075
2015    7       25    14  54    3.9116   436.4    5.316      33.049
2015    7       25    15   1    3.9105   436.3    5.314      33.023
2015    7       25    15   7    3.9095   436.2    5.313      32.998
2015    7       25    15  13    3.9084   436.0    5.312      32.971
2015    7       25    15  19    3.9074   435.9    5.311      32.946
2015    7       25    15  25    3.9064   435.8    5.310      32.920
2015    7       25    15  31    3.9054   435.7    5.309      32.894
2015    7       25    15  37    3.9044   435.6    5.307      32.868
2015    7       25    15  43    3.9034   435.5    5.306      32.842
2015    7       25    15  49    3.9025   435.4    5.305      32.816
2015    7       25    15  56    3.9016   435.3    5.304      32.790
2015    7       25    16   2    3.9007   435.2    5.304      32.764
2015    7       25    16   8    3.8998   435.1    5.303      32.739
2015    7       25    16  14    3.8990   434.9    5.302      32.713
2015    7       25    16  20    3.8981   434.8    5.301      32.687
2015    7       25    16  26    3.8973   434.7    5.300      32.661
2015    7       25    16  32    3.8965   434.6    5.300      32.636
2015    7       25    16  38    3.8958   434.5    5.299      32.610
2015    7       25    16  44    3.8950   434.4    5.298      32.585
2015    7       25    16  51    3.8943   434.3    5.298      32.560
2015    7       25    16  57    3.8936   434.1    5.297      32.535
2015    7       25    17   3    3.8929   434.0    5.297      32.510
2015    7       25    17   9    3.8923   433.9    5.297      32.485
2015    7       25    17  15    3.8917   433.8    5.296      32.460
2015    7       25    17  21    3.8911   433.7    5.296      32.436
2015    7       25    17  27    3.8906   433.6    5.296      32.411
2015    7       25    17  33    3.8901   433.4    5.296      32.388
2015    7       25    17  40    3.8896   433.3    5.296      32.364
2015    7       25    17  46    3.8892   433.2    5.297      32.341
2015    7       25    17  52    3.8888   433.1    5.297      32.318
2015    7       25    17  58    3.8884   433.0    5.298      32.295
2015    7       25    18   4    3.8881   432.8    5.298      32.273
2015    7       25    18  10    3.8878   432.7    5.299      32.251
2015    7       25    18  16    3.8875   432.6    5.300      32.229
2015    7       25    18  22    3.8873   432.5    5.301      32.209
2015    7       25    18  28    3.8871   432.4    5.302      32.188
2015    7       25    18  35    3.8870   432.2    5.303      32.169
2015    7       25    18  41    3.8868   432.1    5.305      32.150
2015    7       25    18  47    3.8867   432.0    5.306      32.131
2015    7       25    18  53    3.8866   431.9    5.308      32.114
2015    7       25    18  59    3.8866   431.8    5.309      32.096
2015    7       25    19   5    3.8865   431.6    5.311      32.079
2015    7       25    19  11    3.8865   431.5    5.313      32.062
2015    7       25    19  17    3.8864   431.4    5.315      32.046
2015    7       25    19  24    3.8864   431.3    5.316      32.030
2015    7       25    19  30    3.8864   431.2    5.318      32.014
2015    7       25    19  36    3.8863   431.0    5.320      31.998
2015    7       25    19  42    3.8862   430.9    5.322      31.983
2015    7       25    19  48    3.8862   430.8    5.324      31.968
2015    7       25    19  54    3.8861   430.7    5.326      31.952
2015    7       25    20   0    3.8860   430.6    5.327      31.937
2015    7       25    20   6    3.8859   430.4    5.329      31.921
2015    7       25    20  12    3.8858   430.3    5.331      31.905
2015    7       25    20  19    3.8856   430.2    5.333      31.889
2015    7       25    20  25    3.8855   430.1    5.335      31.874
2015    7       25    20  31    3.8853   430.0    5.337      31.858
2015    7       25    20  37    3.8851   429.8    5.338      31.842
2015    7       25    20  43    3.8850   429.7    5.340      31.826
2015    7       25    20  49    3.8848   429.6    5.342      31.809
2015    7       25    20  55    3.8846   429.5    5.344      31.793
2015    7       25    21   1    3.8843   429.3    5.345      31.777
2015    7       25    21   8    3.8841   429.2    5.347      31.760
2015    7       25    21  14    3.8839   429.1    5.349      31.743
2015    7       25    21  20    3.8837   429.0    5.351      31.727
2015    7       25    21  26    3.8834   428.9    5.352      31.710
2015    7       25    21  32    3.8832   428.7    5.354      31.692
2015    7       25    21  38    3.8830   428.6    5.355      31.675
2015    7       25    21  44    3.8828   428.5    5.357      31.658
2015    7       25    21  50    3.8826   428.3    5.358      31.641
2015    7       25    21  56    3.8824   428.2    5.360      31.623
2015    7       25    22   3    3.8822   428.1    5.361      31.605
2015    7       25    22   9    3.8820   428.0    5.363      31.587
2015    7       25    22  15    3.8818   427.8    5.364      31.569
2015    7       25    22  21    3.8817   427.7    5.365      31.551
2015    7       25    22  27    3.8815   427.6    5.367      31.533
2015    7       25    22  33    3.8814   427.4    5.368      31.514
2015    7       25    22  39    3.8813   427.3    5.369      31.496
2015    7       25    22  45    3.8812   427.2    5.370      31.477
2015    7       25    22  51    3.8811   427.0    5.371      31.459
2015    7       25    22  58    3.8811   426.9    5.372      31.440
2015    7       25    23   4    3.8810   426.7    5.374      31.421
2015    7       25    23  10    3.8810   426.6    5.375      31.402
2015    7       25    23  16    3.8810   426.5    5.376      31.383
2015    7       25    23  22    3.8811   426.3    5.377      31.364
2015    7       25    23  28    3.8811   426.2    5.378      31.345
2015    7       25    23  34    3.8812   426.1    5.378      31.326
2015    7       25    23  40    3.8813   425.9    5.379      31.307
2015    7       25    23  47    3.8815   425.8    5.380      31.288
2015    7       25    23  53    3.8817   425.6    5.381      31.268
2015    7       25    23  59    3.8819   425.5    5.382      31.249
2015    7       26     0   5    3.8821   425.4    5.383      31.230
2015    7       26     0  11    3.8824   425.2    5.384      31.210
2015    7       26     0  17    3.8826   425.1    5.384      31.190
2015    7       26     0  23    3.8830   424.9    5.385      31.170
2015    7       26     0  29    3.8833   424.8    5.386      31.150
2015    7       26     0  35    3.8837   424.7    5.387      31.130
2015    7       26     0  42    3.8840   424.5    5.387      31.110
2015    7       26     0  48    3.8845   424.4    5.388      31.090
2015    7       26     0  54    3.8849   424.2    5.389      31.069
2015    7       26     1   0    3.8854   424.1    5.389      31.049
2015    7       26     1   6    3.8860   423.9    5.390      31.028
2015    7       26     1  12    3.8865   423.8    5.391      31.007
2015    7       26     1  18    3.8871   423.6    5.391      30.986
2015    7       26     1  24    3.8878   423.5    5.392      30.965
2015    7       26     1  31    3.8885   423.3    5.393      30.944
2015    7       26     1  37    3.8892   423.2    5.394      30.923
2015    7       26     1  43    3.8900   423.0    5.394      30.902
2015    7       26     1  49    3.8908   422.9    5.395      30.881
2015    7       26     1  55    3.8917   422.7    5.396      30.860
2015    7       26     2   1    3.8926   422.6    5.397      30.838
2015    7       26     2   7    3.8936   422.4    5.398      30.817
2015    7       26     2  13    3.8946   422.3    5.399      30.796
2015    7       26     2  19    3.8957   422.1    5.400      30.774
2015    7       26     2  26    3.8969   421.9    5.401      30.753
2015    7       26     2  32    3.8981   421.8    5.403      30.732
2015    7       26     2  38    3.8994   421.6    5.404      30.711
2015    7       26     2  44    3.9007   421.5    5.406      30.690
2015    7       26     2  50    3.9021   421.3    5.407      30.669
2015    7       26     2  56    3.9036   421.2    5.409      30.648
2015    7       26     3   2    3.9052   421.0    5.411      30.628
2015    7       26     3   8    3.9068   420.8    5.413      30.607
2015    7       26     3  15    3.9085   420.7    5.415      30.587
2015    7       26     3  21    3.9103   420.5    5.417      30.567
2015    7       26     3  27    3.9121   420.4    5.419      30.547
2015    7       26     3  33    3.9140   420.2    5.422      30.527
2015    7       26     3  39    3.9160   420.0    5.424      30.507
2015    7       26     3  45    3.9181   419.9    5.427      30.488
2015    7       26     3  51    3.9203   419.7    5.430      30.469
2015    7       26     3  57    3.9224   419.5    5.433      30.450
2015    7       26     4   3    3.9247   419.4    5.436      30.431
2015    7       26     4  10    3.9270   419.2    5.439      30.412
2015    7       26     4  16    3.9294   419.0    5.443      30.393
2015    7       26     4  22    3.9318   418.9    5.446      30.375
2015    7       26     4  28    3.9343   418.7    5.450      30.357
2015    7       26     4  34    3.9367   418.5    5.454      30.339
2015    7       26     4  40    3.9393   418.4    5.458      30.322
2015    7       26     4  46    3.9418   418.2    5.462      30.304
2015    7       26     4  52    3.9444   418.0    5.467      30.287
2015    7       26     4  58    3.9470   417.9    5.471      30.270
2015    7       26     5   5    3.9497   417.7    5.476      30.253
2015    7       26     5  11    3.9524   417.5    5.480      30.236
2015    7       26     5  17    3.9551   417.3    5.485      30.220
2015    7       26     5  23    3.9579   417.2    5.490      30.204
2015    7       26     5  29    3.9607   417.0    5.496      30.188
2015    7       26     5  35    3.9634   416.8    5.501      30.172
2015    7       26     5  41    3.9663   416.6    5.506      30.157
2015    7       26     5  47    3.9692   416.5    5.512      30.142
2015    7       26     5  54    3.9721   416.3    5.518      30.127
2015    7       26     6   0    3.9750   416.1    5.523      30.112
2015    7       26     6   6    3.9780   415.9    5.529      30.098
2015    7       26     6  12    3.9811   415.7    5.535      30.084
2015    7       26     6  18    3.9842   415.6    5.542      30.070
2015    7       26     6  24    3.9873   415.4    5.548      30.057
2015    7       26     6  30    3.9905   415.2    5.554      30.043
2015    7       26     6  36    3.9937   415.0    5.561      30.030
2015    7       26     6  42    3.9970   414.8    5.568      30.018
2015    7       26     6  49    4.0003   414.6    5.575      30.006
2015    7       26     6  55    4.0036   414.5    5.581      29.994
2015    7       26     7   1    4.0070   414.3    5.589      29.983
2015    7       26     7   7    4.0105   414.1    5.596      29.972
2015    7       26     7  13    4.0141   413.9    5.603      29.962
2015    7       26     7  19    4.0177   413.7    5.610      29.952
2015    7       26     7  25    4.0213   413.5    5.618      29.943
2015    7       26     7  31    4.0250   413.4    5.625      29.935
2015    7       26     7  38    4.0288   413.2    5.633      29.927
2015    7       26     7  44    4.0327   413.0    5.641      29.919
2015    7       26     7  50    4.0366   412.8    5.648      29.913
2015    7       26     7  56    4.0406   412.6    5.657      29.906
2015    7       26     8   2    4.0446   412.4    5.665      29.901
2015    7       26     8   8    4.0489   412.2    5.673      29.895
2015    7       26     8  14    4.0531   412.1    5.682      29.891
2015    7       26     8  20    4.0575   411.9    5.690      29.887
2015    7       26     8  26    4.0620   411.7    5.699      29.884
2015    7       26     8  33    4.0666   411.5    5.709      29.881
2015    7       26     8  39    4.0713   411.3    5.718      29.880
2015    7       26     8  45    4.0762   411.1    5.728      29.878
2015    7       26     8  51    4.0811   411.0    5.738      29.878
2015    7       26     8  57    4.0863   410.8    5.749      29.878
2015    7       26     9   3    4.0915   410.6    5.760      29.879
2015    7       26     9   9    4.0969   410.4    5.771      29.881
2015    7       26     9  15    4.1024   410.2    5.783      29.884
2015    7       26     9  22    4.1080   410.1    5.794      29.887
2015    7       26     9  28    4.1138   409.9    5.807      29.892
2015    7       26     9  34    4.1197   409.7    5.819      29.897
2015    7       26     9  40    4.1257   409.6    5.832      29.904
2015    7       26     9  46    4.1319   409.4    5.846      29.911
2015    7       26     9  52    4.1382   409.3    5.860      29.919
2015    7       26     9  58    4.1446   409.1    5.874      29.929
2015    7       26    10   4    4.1511   408.9    5.888      29.939
2015    7       26    10  10    4.1579   408.8    5.903      29.950
2015    7       26    10  17    4.1646   408.6    5.919      29.963
2015    7       26    10  23    4.1716   408.5    5.935      29.977
2015    7       26    10  29    4.1786   408.3    5.951      29.991
2015    7       26    10  35    4.1858   408.2    5.968      30.007
2015    7       26    10  41    4.1930   408.0    5.985      30.024
2015    7       26    10  47    4.2003   407.9    6.002      30.043
2015    7       26    10  53    4.2076   407.8    6.020      30.064
2015    7       26    10  59    4.2151   407.6    6.038      30.086
2015    7       26    11   6    4.2225   407.5    6.057      30.110
2015    7       26    11  12    4.2301   407.4    6.075      30.137
2015    7       26    11  18    4.2376   407.2    6.094      30.167
2015    7       26    11  24    4.2453   407.1    6.113      30.200
2015    7       26    11  30    4.2528   407.0    6.132      30.235
2015    7       26    11  36    4.2605   406.9    6.151      30.272
2015    7       26    11  42    4.2681   406.8    6.170      30.312
2015    7       26    11  48    4.2758   406.7    6.189      30.354
2015    7       26    11  54    4.2834   406.6    6.208      30.397
2015    7       26    12   1    4.2910   406.5    6.226      30.443
2015    7       26    12   7    4.2986   406.4    6.245      30.490
2015    7       26    12  13    4.3063   406.3    6.264      30.539
2015    7       26    12  19    4.3139   406.2    6.282      30.590
2015    7       26    12  25    4.3217   406.1    6.300      30.641
2015    7       26    12  31    4.3293   406.0    6.318      30.693
2015    7       26    12  37    4.3371   406.0    6.337      30.746
2015    7       26    12  43    4.3448   405.9    6.355      30.799
2015    7       26    12  49    4.3525   405.8    6.373      30.852
2015    7       26    12  56    4.3603   405.7    6.391      30.904
2015    7       26    13   2    4.3681   405.6    6.409      30.957
2015    7       26    13   8    4.3759   405.6    6.426      31.009
2015    7       26    13  14    4.3838   405.5    6.444      31.061
2015    7       26    13  20    4.3916   405.4    6.462      31.113
2015    7       26    13  26    4.3996   405.3    6.480      31.165
2015    7       26    13  32    4.4074   405.3    6.498      31.217
2015    7       26    13  38    4.4154   405.2    6.516      31.269
2015    7       26    13  45    4.4234   405.1    6.533      31.320
2015    7       26    13  51    4.4314   405.1    6.551      31.372
2015    7       26    13  57    4.4394   405.0    6.569      31.424
2015    7       26    14   3    4.4475   404.9    6.587      31.477
2015    7       26    14   9    4.4556   404.9    6.605      31.529
2015    7       26    14  15    4.4637   404.8    6.623      31.582
2015    7       26    14  21    4.4719   404.8    6.641      31.635
2015    7       26    14  27    4.4801   404.7    6.659      31.689
2015    7       26    14  33    4.4883   404.7    6.677      31.743
2015    7       26    14  40    4.4966   404.6    6.694      31.798
2015    7       26    14  46    4.5049   404.6    6.712      31.853
2015    7       26    14  52    4.5133   404.5    6.730      31.908
2015    7       26    14  58    4.5216   404.5    6.748      31.964
2015    7       26    15   4    4.5300   404.4    6.766      32.020
2015    7       26    15  10    4.5385   404.4    6.784      32.077
2015    7       26    15  16    4.5470   404.3    6.802      32.133
2015    7       26    15  22    4.5555   404.3    6.820      32.190
2015    7       26    15  29    4.5641   404.3    6.838      32.247
2015    7       26    15  35    4.5728   404.2    6.856      32.303
2015    7       26    15  41    4.5815   404.2    6.874      32.360
2015    7       26    15  47    4.5902   404.2    6.892      32.416
2015    7       26    15  53    4.5991   404.1    6.911      32.473
2015    7       26    15  59    4.6079   404.1    6.930      32.529
2015    7       26    16   5    4.6168   404.1    6.949      32.586
2015    7       26    16  11    4.6258   404.1    6.968      32.642
2015    7       26    16  17    4.6349   404.1    6.987      32.699
2015    7       26    16  24    4.6440   404.0    7.006      32.756
2015    7       26    16  30    4.6532   404.0    7.026      32.813
2015    7       26    16  36    4.6624   404.0    7.046      32.870
2015    7       26    16  42    4.6717   404.0    7.066      32.928
2015    7       26    16  48    4.6811   404.0    7.086      32.987
2015    7       26    16  54    4.6905   404.0    7.107      33.046
2015    7       26    17   0    4.7000   404.0    7.128      33.105
2015    7       26    17   6    4.7095   404.0    7.149      33.166
2015    7       26    17  13    4.7191   404.0    7.170      33.227
2015    7       26    17  19    4.7287   404.0    7.192      33.288
2015    7       26    17  25    4.7383   404.0    7.214      33.351
2015    7       26    17  31    4.7481   404.0    7.236      33.414
2015    7       26    17  37    4.7578   404.1    7.258      33.479
2015    7       26    17  43    4.7676   404.1    7.281      33.544
2015    7       26    17  49    4.7774   404.1    7.304      33.610
2015    7       26    17  55    4.7873   404.1    7.328      33.678
2015    7       26    18   1    4.7972   404.1    7.351      33.747
2015    7       26    18   8    4.8072   404.2    7.376      33.817
2015    7       26    18  14    4.8171   404.2    7.400      33.887
2015    7       26    18  20    4.8272   404.2    7.426      33.960
2015    7       26    18  26    4.8373   404.2    7.452      34.033
2015    7       26    18  32    4.8475   404.3    7.478      34.109
2015    7       26    18  38    4.8578   404.3    7.505      34.187
2015    7       26    18  44    4.8682   404.4    7.533      34.267
2015    7       26    18  50    4.8786   404.4    7.561      34.348
2015    7       26    18  57    4.8892   404.4    7.591      34.431
2015    7       26    19   3    4.8999   404.5    7.620      34.517
2015    7       26    19   9    4.9109   404.6    7.651      34.609
2015    7       26    19  15    4.9219   404.6    7.682      34.707
2015    7       26    19  21    4.9331   404.7    7.713      34.811
2015    7       26    19  27    4.9443   404.8    7.744      34.919
2015    7       26    19  33    4.9557   404.9    7.776      35.032
2015    7       26    19  39    4.9670   405.0    7.807      35.150
2015    7       26    19  45    4.9785   405.1    7.838      35.273
2015    7       26    19  52    4.9900   405.3    7.869      35.398
2015    7       26    19  58    5.0015   405.4    7.899      35.527
2015    7       26    20   4    5.0128   405.5    7.929      35.657
2015    7       26    20  10    5.0242   405.7    7.958      35.790
2015    7       26    20  16    5.0355   405.9    7.986      35.925
2015    7       26    20  22    5.0466   406.0    8.013      36.063
2015    7       26    20  28    5.0575   406.2    8.038      36.200
2015    7       26    20  34    5.0682   406.4    8.063      36.336
2015    7       26    20  40    5.0787   406.5    8.087      36.469
2015    7       26    20  47    5.0890   406.7    8.109      36.599
2015    7       26    20  53    5.0990   406.9    8.131      36.727
2015    7       26    20  59    5.1088   407.0    8.151      36.853
2015    7       26    21   5    5.1183   407.2    8.171      36.975
2015    7       26    21  11    5.1276   407.4    8.189      37.094
2015    7       26    21  17    5.1366   407.5    8.206      37.211
2015    7       26    21  23    5.1454   407.7    8.223      37.324
2015    7       26    21  29    5.1540   407.9    8.238      37.435
2015    7       26    21  36    5.1623   408.0    8.252      37.544
2015    7       26    21  42    5.1704   408.2    8.266      37.649
2015    7       26    21  48    5.1784   408.4    8.279      37.752
2015    7       26    21  54    5.1861   408.5    8.291      37.853
2015    7       26    22   0    5.1936   408.7    8.303      37.952
2015    7       26    22   6    5.2010   408.8    8.314      38.048
2015    7       26    22  12    5.2082   409.0    8.324      38.143
2015    7       26    22  18    5.2153   409.2    8.334      38.235
2015    7       26    22  24    5.2221   409.3    8.343      38.326
2015    7       26    22  31    5.2289   409.5    8.351      38.414
2015    7       26    22  37    5.2355   409.6    8.359      38.502
2015    7       26    22  43    5.2420   409.8    8.367      38.587
2015    7       26    22  49    5.2483   409.9    8.374      38.671
2015    7       26    22  55    5.2546   410.0    8.381      38.753
2015    7       26    23   1    5.2608   410.2    8.388      38.834
2015    7       26    23   7    5.2668   410.3    8.394      38.914
2015    7       26    23  13    5.2728   410.5    8.400      38.992
2015    7       26    23  20    5.2787   410.6    8.406      39.068
2015    7       26    23  26    5.2845   410.7    8.411      39.144
2015    7       26    23  32    5.2903   410.9    8.417      39.218
2015    7       26    23  38    5.2960   411.0    8.422      39.292
2015    7       26    23  44    5.3016   411.1    8.427      39.364
2015    7       26    23  50    5.3072   411.3    8.431      39.436
2015    7       26    23  56    5.3127   411.4    8.436      39.507
2015    7       27     0   2    5.3182   411.6    8.441      39.578
2015    7       27     0   8    5.3236   411.7    8.445      39.648
2015    7       27     0  15    5.3290   411.8    8.449      39.717
2015    7       27     0  21    5.3344   412.0    8.454      39.786
2015    7       27     0  27    5.3398   412.1    8.458      39.855
2015    7       27     0  33    5.3452   412.2    8.463      39.923
2015    7       27     0  39    5.3505   412.4    8.467      39.992
2015    7       27     0  45    5.3559   412.5    8.472      40.060
2015    7       27     0  51    5.3612   412.6    8.477      40.129
2015    7       27     0  57    5.3666   412.8    8.482      40.197
2015    7       27     1   4    5.3720   412.9    8.487      40.266
2015    7       27     1  10    5.3774   413.0    8.493      40.335
2015    7       27     1  16    5.3829   413.2    8.499      40.405
2015    7       27     1  22    5.3884   413.3    8.505      40.475
2015    7       27     1  28    5.3940   413.4    8.512      40.547
2015    7       27     1  34    5.3997   413.6    8.519      40.618
2015    7       27     1  40    5.4055   413.7    8.528      40.691
2015    7       27     1  46    5.4114   413.8    8.537      40.765
2015    7       27     1  52    5.4174   414.0    8.546      40.842
2015    7       27     1  59    5.4236   414.1    8.557      40.919
2015    7       27     2   5    5.4299   414.2    8.569      40.997
2015    7       27     2  11    5.4365   414.4    8.582      41.078
2015    7       27     2  17    5.4434   414.5    8.596      41.160
2015    7       27     2  23    5.4506   414.7    8.612      41.248
2015    7       27     2  29    5.4580   414.8    8.628      41.341
2015    7       27     2  35    5.4658   415.0    8.646      41.441
2015    7       27     2  41    5.4739   415.2    8.664      41.547
2015    7       27     2  47    5.4823   415.3    8.684      41.658
2015    7       27     2  54    5.4910   415.5    8.705      41.774
2015    7       27     3   0    5.4998   415.7    8.727      41.896
2015    7       27     3   6    5.5089   415.9    8.749      42.027
2015    7       27     3  12    5.5180   416.2    8.773      42.163
2015    7       27     3  18    5.5272   416.4    8.796      42.308
2015    7       27     3  24    5.5363   416.7    8.819      42.458
2015    7       27     3  30    5.5454   416.9    8.842      42.616
2015    7       27     3  36    5.5543   417.2    8.864      42.778
2015    7       27     3  43    5.5629   417.5    8.885      42.945
2015    7       27     3  49    5.5712   417.8    8.905      43.113
2015    7       27     3  55    5.5790   418.1    8.924      43.281
2015    7       27     4   1    5.5864   418.4    8.942      43.446
2015    7       27     4   7    5.5933   418.7    8.957      43.610
2015    7       27     4  13    5.5997   418.9    8.971      43.772
2015    7       27     4  19    5.6056   419.2    8.983      43.933
2015    7       27     4  25    5.6109   419.5    8.993      44.087
2015    7       27     4  31    5.6158   419.8    9.002      44.236
2015    7       27     4  38    5.6202   420.1    9.008      44.378
2015    7       27     4  44    5.6241   420.4    9.013      44.515
2015    7       27     4  50    5.6277   420.7    9.016      44.645
2015    7       27     4  56    5.6308   420.9    9.017      44.769
2015    7       27     5   2    5.6335   421.2    9.017      44.888
2015    7       27     5   8    5.6359   421.4    9.016      45.001
2015    7       27     5  14    5.6381   421.7    9.014      45.109
2015    7       27     5  20    5.6399   421.9    9.010      45.212
2015    7       27     5  27    5.6415   422.2    9.006      45.310
2015    7       27     5  33    5.6429   422.4    9.001      45.404
2015    7       27     5  39    5.6442   422.6    8.995      45.493
2015    7       27     5  45    5.6452   422.9    8.988      45.579
2015    7       27     5  51    5.6462   423.1    8.980      45.661
2015    7       27     5  57    5.6470   423.3    8.972      45.741
2015    7       27     6   3    5.6478   423.5    8.964      45.817
2015    7       27     6   9    5.6484   423.7    8.955      45.891
2015    7       27     6  15    5.6490   423.9    8.946      45.962
2015    7       27     6  22    5.6496   424.1    8.936      46.031
2015    7       27     6  28    5.6501   424.3    8.927      46.098
2015    7       27     6  34    5.6506   424.6    8.916      46.163
2015    7       27     6  40    5.6511   424.8    8.906      46.227
2015    7       27     6  46    5.6516   425.0    8.896      46.289
2015    7       27     6  52    5.6521   425.2    8.886      46.350
2015    7       27     6  58    5.6525   425.4    8.875      46.411
2015    7       27     7   4    5.6531   425.6    8.864      46.470
2015    7       27     7  11    5.6536   425.8    8.854      46.530
2015    7       27     7  17    5.6542   426.0    8.843      46.588
2015    7       27     7  23    5.6548   426.2    8.833      46.647
2015    7       27     7  29    5.6555   426.4    8.823      46.706
2015    7       27     7  35    5.6562   426.6    8.812      46.766
2015    7       27     7  41    5.6570   426.8    8.802      46.825
2015    7       27     7  47    5.6579   427.0    8.792      46.884
2015    7       27     7  53    5.6588   427.2    8.782      46.944
2015    7       27     7  59    5.6598   427.5    8.772      47.004
2015    7       27     8   6    5.6608   427.7    8.762      47.063
2015    7       27     8  12    5.6620   427.9    8.753      47.123
2015    7       27     8  18    5.6632   428.1    8.744      47.182
2015    7       27     8  24    5.6644   428.3    8.735      47.242
2015    7       27     8  30    5.6658   428.6    8.726      47.301
2015    7       27     8  36    5.6673   428.8    8.717      47.361
2015    7       27     8  42    5.6689   429.0    8.709      47.420
2015    7       27     8  48    5.6706   429.2    8.702      47.480
2015    7       27     8  54    5.6724   429.5    8.695      47.541
2015    7       27     9   1    5.6744   429.7    8.688      47.602
2015    7       27     9   7    5.6766   429.9    8.683      47.665
2015    7       27     9  13    5.6789   430.1    8.678      47.729
2015    7       27     9  19    5.6814   430.4    8.674      47.794
2015    7       27     9  25    5.6842   430.6    8.670      47.861
2015    7       27     9  31    5.6872   430.8    8.668      47.932
2015    7       27     9  37    5.6905   431.1    8.668      48.005
2015    7       27     9  43    5.6942   431.3    8.668      48.080
2015    7       27     9  50    5.6981   431.5    8.671      48.158
2015    7       27     9  56    5.7024   431.8    8.674      48.242
2015    7       27    10   2    5.7070   432.0    8.680      48.333
2015    7       27    10   8    5.7118   432.3    8.686      48.429
2015    7       27    10  14    5.7167   432.6    8.695      48.532
2015    7       27    10  20    5.7218   432.8    8.704      48.642
2015    7       27    10  26    5.7269   433.1    8.714      48.761
2015    7       27    10  32    5.7320   433.4    8.725      48.887
2015    7       27    10  38    5.7369   433.7    8.736      49.020
2015    7       27    10  45    5.7418   434.1    8.748      49.159
2015    7       27    10  51    5.7463   434.4    8.759      49.302
2015    7       27    10  57    5.7505   434.7    8.769      49.448
2015    7       27    11   3    5.7542   435.1    8.779      49.597
2015    7       27    11   9    5.7576   435.5    8.787      49.748
2015    7       27    11  15    5.7603   435.8    8.794      49.899
2015    7       27    11  21    5.7626   436.2    8.800      50.045
2015    7       27    11  27    5.7644   436.5    8.804      50.190
2015    7       27    11  34    5.7657   436.9    8.806      50.331
2015    7       27    11  40    5.7664   437.3    8.806      50.468
2015    7       27    11  46    5.7668   437.6    8.805      50.598
2015    7       27    11  52    5.7668   438.0    8.802      50.722
2015    7       27    11  58    5.7664   438.3    8.797      50.839
2015    7       27    12   4    5.7656   438.6    8.791      50.951
2015    7       27    12  10    5.7646   439.0    8.784      51.056
2015    7       27    12  16    5.7633   439.3    8.776      51.157
2015    7       27    12  22    5.7618   439.6    8.767      51.252
2015    7       27    12  29    5.7600   440.0    8.757      51.343
2015    7       27    12  35    5.7582   440.3    8.746      51.428
2015    7       27    12  41    5.7561   440.6    8.734      51.510
2015    7       27    12  47    5.7540   440.9    8.722      51.588
2015    7       27    12  53    5.7518   441.2    8.710      51.662
2015    7       27    12  59    5.7495   441.5    8.697      51.733
2015    7       27    13   5    5.7472   441.8    8.683      51.801
2015    7       27    13  11    5.7448   442.1    8.669      51.866
2015    7       27    13  18    5.7423   442.4    8.655      51.929
2015    7       27    13  24    5.7399   442.7    8.640      51.989
2015    7       27    13  30    5.7374   443.0    8.626      52.048
2015    7       27    13  36    5.7348   443.3    8.611      52.104
2015    7       27    13  42    5.7323   443.6    8.595      52.159
2015    7       27    13  48    5.7298   443.9    8.580      52.212
2015    7       27    13  54    5.7272   444.2    8.564      52.263
2015    7       27    14   0    5.7246   444.5    8.548      52.313
2015    7       27    14   6    5.7220   444.8    8.532      52.361
2015    7       27    14  13    5.7194   445.1    8.516      52.408
2015    7       27    14  19    5.7168   445.4    8.500      52.453
2015    7       27    14  25    5.7142   445.7    8.483      52.497
2015    7       27    14  31    5.7115   446.0    8.467      52.540
2015    7       27    14  37    5.7089   446.3    8.450      52.581
2015    7       27    14  43    5.7062   446.6    8.433      52.622
2015    7       27    14  49    5.7035   446.9    8.416      52.662
2015    7       27    14  55    5.7008   447.2    8.399      52.700
2015    7       27    15   2    5.6981   447.5    8.382      52.737
2015    7       27    15   8    5.6953   447.8    8.365      52.773
2015    7       27    15  14    5.6925   448.1    8.348      52.807
2015    7       27    15  20    5.6897   448.4    8.331      52.840
2015    7       27    15  26    5.6870   448.7    8.313      52.871
2015    7       27    15  32    5.6841   449.0    8.296      52.902
2015    7       27    15  38    5.6813   449.3    8.279      52.931
2015    7       27    15  44    5.6785   449.6    8.262      52.959
2015    7       27    15  50    5.6757   449.9    8.245      52.986
2015    7       27    15  57    5.6729   450.2    8.229      53.011
2015    7       27    16   3    5.6701   450.5    8.212      53.036
2015    7       27    16   9    5.6673   450.8    8.196      53.060
2015    7       27    16  15    5.6645   451.1    8.180      53.085
2015    7       27    16  21    5.6617   451.4    8.165      53.110
2015    7       27    16  27    5.6590   451.8    8.149      53.136
2015    7       27    16  33    5.6563   452.1    8.134      53.163
2015    7       27    16  39    5.6536   452.4    8.120      53.190
2015    7       27    16  45    5.6507   452.8    8.105      53.219
2015    7       27    16  52    5.6479   453.1    8.091      53.251
2015    7       27    16  58    5.6450   453.4    8.077      53.281
2015    7       27    17   4    5.6422   453.8    8.063      53.308
2015    7       27    17  10    5.6392   454.1    8.051      53.337
2015    7       27    17  16    5.6363   454.4    8.038      53.369
2015    7       27    17  22    5.6332   454.8    8.026      53.405
2015    7       27    17  28    5.6302   455.1    8.015      53.444
2015    7       27    17  34    5.6270   455.4    8.003      53.488
2015    7       27    17  41    5.6237   455.8    7.992      53.534
2015    7       27    17  47    5.6203   456.1    7.982      53.583
2015    7       27    17  53    5.6168   456.4    7.971      53.634
2015    7       27    17  59    5.6131   456.7    7.960      53.688
2015    7       27    18   5    5.6093   457.1    7.949      53.742
2015    7       27    18  11    5.6052   457.4    7.938      53.798
2015    7       27    18  17    5.6011   457.7    7.926      53.854
2015    7       27    18  23    5.5967   458.1    7.914      53.913
2015    7       27    18  29    5.5923   458.4    7.902      53.974
2015    7       27    18  36    5.5876   458.7    7.889      54.033
2015    7       27    18  42    5.5829   459.1    7.876      54.090
2015    7       27    18  48    5.5780   459.4    7.862      54.145
2015    7       27    18  54    5.5730   459.7    7.848      54.198
2015    7       27    19   0    5.5678   460.1    7.833      54.249
2015    7       27    19   6    5.5626   460.4    7.818      54.298
2015    7       27    19  12    5.5572   460.7    7.802      54.346
2015    7       27    19  18    5.5519   461.1    7.786      54.393
2015    7       27    19  25    5.5464   461.4    7.770      54.438
2015    7       27    19  31    5.5409   461.7    7.753      54.480
2015    7       27    19  37    5.5354   462.1    7.736      54.521
2015    7       27    19  43    5.5298   462.4    7.719      54.560
2015    7       27    19  49    5.5241   462.7    7.702      54.596
2015    7       27    19  55    5.5185   463.1    7.684      54.631
2015    7       27    20   1    5.5128   463.4    7.666      54.665
2015    7       27    20   7    5.5070   463.7    7.648      54.697
2015    7       27    20  13    5.5012   464.1    7.630      54.727
2015    7       27    20  20    5.4954   464.4    7.612      54.757
2015    7       27    20  26    5.4895   464.7    7.593      54.785
2015    7       27    20  32    5.4836   465.0    7.575      54.813
2015    7       27    20  38    5.4775   465.4    7.556      54.839
2015    7       27    20  44    5.4715   465.7    7.536      54.863
2015    7       27    20  50    5.4653   466.0    7.517      54.886
2015    7       27    20  56    5.4591   466.3    7.497      54.908
2015    7       27    21   2    5.4527   466.6    7.477      54.927
2015    7       27    21   8    5.4463   467.0    7.456      54.944
2015    7       27    21  15    5.4397   467.3    7.435      54.959
2015    7       27    21  21    5.4330   467.6    7.413      54.971
2015    7       27    21  27    5.4261   467.9    7.391      54.980
2015    7       27    21  33    5.4190   468.2    7.368      54.986
2015    7       27    21  39    5.4118   468.5    7.344      54.987
2015    7       27    21  45    5.4043   468.8    7.320      54.984
2015    7       27    21  51    5.3967   469.2    7.295      54.979
2015    7       27    21  57    5.3888   469.5    7.269      54.968
2015    7       27    22   4    5.3807   469.8    7.242      54.950
2015    7       27    22  10    5.3724   470.1    7.215      54.925
2015    7       27    22  16    5.3639   470.3    7.187      54.893
2015    7       27    22  22    5.3553   470.6    7.159      54.856
2015    7       27    22  28    5.3465   470.9    7.131      54.812
2015    7       27    22  34    5.3377   471.2    7.103      54.764
2015    7       27    22  40    5.3287   471.4    7.074      54.711
2015    7       27    22  46    5.3198   471.7    7.046      54.654
2015    7       27    22  52    5.3107   471.9    7.018      54.594
2015    7       27    22  59    5.3017   472.2    6.990      54.531
2015    7       27    23   5    5.2926   472.4    6.962      54.466
2015    7       27    23  11    5.2836   472.7    6.935      54.398
2015    7       27    23  17    5.2745   472.9    6.909      54.327
2015    7       27    23  23    5.2656   473.2    6.882      54.257
2015    7       27    23  29    5.2566   473.4    6.856      54.188
2015    7       27    23  35    5.2477   473.7    6.831      54.121
2015    7       27    23  41    5.2388   474.0    6.805      54.055
2015    7       27    23  48    5.2299   474.2    6.780      53.991
2015    7       27    23  54    5.2208   474.5    6.755      53.926
2015    7       28     0   0    5.2118   474.8    6.730      53.863
2015    7       28     0   6    5.2026   475.1    6.705      53.802
2015    7       28     0  12    5.1933   475.4    6.679      53.738
2015    7       28     0  18    5.1839   475.6    6.654      53.672
2015    7       28     0  24    5.1744   475.9    6.629      53.605
2015    7       28     0  30    5.1648   476.2    6.603      53.535
2015    7       28     0  36    5.1552   476.4    6.578      53.463
2015    7       28     0  43    5.1455   476.7    6.553      53.391
2015    7       28     0  49    5.1359   476.9    6.528      53.317
2015    7       28     0  55    5.1262   477.1    6.504      53.241
2015    7       28     1   1    5.1166   477.4    6.480      53.165
2015    7       28     1   7    5.1070   477.6    6.456      53.088
2015    7       28     1  13    5.0976   477.8    6.433      53.011
2015    7       28     1  19    5.0882   477.9    6.410      52.934
2015    7       28     1  25    5.0789   478.1    6.389      52.856
2015    7       28     1  32    5.0698   478.3    6.367      52.778
2015    7       28     1  38    5.0609   478.4    6.347      52.702
2015    7       28     1  44    5.0521   478.5    6.327      52.629
2015    7       28     1  50    5.0435   478.7    6.308      52.558
2015    7       28     1  56    5.0350   478.8    6.290      52.489
2015    7       28     2   2    5.0267   478.9    6.272      52.421
2015    7       28     2   8    5.0184   479.1    6.254      52.355
2015    7       28     2  14    5.0103   479.2    6.237      52.290
2015    7       28     2  20    5.0022   479.3    6.220      52.226
2015    7       28     2  27    4.9943   479.4    6.204      52.165
2015    7       28     2  33    4.9863   479.6    6.188      52.104
2015    7       28     2  39    4.9785   479.7    6.172      52.045
2015    7       28     2  45    4.9707   479.8    6.156      51.987
2015    7       28     2  51    4.9629   479.9    6.140      51.928
2015    7       28     2  57    4.9551   480.0    6.125      51.869
2015    7       28     3   3    4.9474   480.1    6.109      51.810
2015    7       28     3   9    4.9396   480.3    6.094      51.750
2015    7       28     3  16    4.9319   480.4    6.079      51.690
2015    7       28     3  22    4.9241   480.5    6.063      51.629
2015    7       28     3  28    4.9164   480.6    6.048      51.568
2015    7       28     3  34    4.9085   480.7    6.033      51.507
2015    7       28     3  40    4.9008   480.8    6.017      51.445
2015    7       28     3  46    4.8929   480.9    6.002      51.383
2015    7       28     3  52    4.8850   481.0    5.986      51.320
2015    7       28     3  58    4.8770   481.1    5.971      51.255
2015    7       28     4   4    4.8691   481.2    5.955      51.191
2015    7       28     4  11    4.8610   481.3    5.939      51.124
2015    7       28     4  17    4.8528   481.3    5.923      51.056
2015    7       28     4  23    4.8446   481.4    5.907      50.986
2015    7       28     4  29    4.8362   481.5    5.890      50.915
2015    7       28     4  35    4.8278   481.6    5.873      50.841
2015    7       28     4  41    4.8193   481.7    5.855      50.765
2015    7       28     4  47    4.8107   481.8    5.838      50.685
2015    7       28     4  53    4.8019   481.8    5.819      50.602
2015    7       28     5   0    4.7931   481.9    5.801      50.514
2015    7       28     5   6    4.7841   482.0    5.781      50.425
2015    7       28     5  12    4.7750   482.1    5.761      50.333
2015    7       28     5  18    4.7658   482.1    5.741      50.234
2015    7       28     5  24    4.7565   482.2    5.720      50.127
2015    7       28     5  30    4.7471   482.2    5.699      50.015
2015    7       28     5  36    4.7377   482.2    5.679      49.897
2015    7       28     5  42    4.7283   482.2    5.658      49.774
2015    7       28     5  48    4.7189   482.2    5.637      49.646
2015    7       28     5  55    4.7096   482.2    5.616      49.514
2015    7       28     6   1    4.7003   482.2    5.596      49.378
2015    7       28     6   7    4.6911   482.2    5.577      49.239
2015    7       28     6  13    4.6819   482.1    5.557      49.097
2015    7       28     6  19    4.6729   482.1    5.539      48.955
2015    7       28     6  25    4.6640   482.0    5.521      48.810
2015    7       28     6  31    4.6553   481.9    5.505      48.664
2015    7       28     6  37    4.6468   481.9    5.489      48.517
2015    7       28     6  43    4.6384   481.8    5.474      48.373
2015    7       28     6  50    4.6303   481.7    5.460      48.232
2015    7       28     6  56    4.6223   481.6    5.447      48.095
2015    7       28     7   2    4.6144   481.5    5.435      47.962
2015    7       28     7   8    4.6067   481.5    5.423      47.831
2015    7       28     7  14    4.5992   481.4    5.411      47.703
2015    7       28     7  20    4.5917   481.3    5.401      47.578
2015    7       28     7  26    4.5844   481.3    5.390      47.455
2015    7       28     7  32    4.5772   481.2    5.380      47.336
2015    7       28     7  39    4.5701   481.1    5.370      47.218
2015    7       28     7  45    4.5631   481.0    5.361      47.103
2015    7       28     7  51    4.5562   481.0    5.351      46.989
2015    7       28     7  57    4.5493   480.9    5.342      46.878
2015    7       28     8   3    4.5426   480.8    5.333      46.768
2015    7       28     8   9    4.5359   480.7    5.324      46.661
2015    7       28     8  15    4.5293   480.7    5.315      46.554
2015    7       28     8  21    4.5228   480.6    5.306      46.449
2015    7       28     8  27    4.5163   480.5    5.298      46.342
2015    7       28     8  34    4.5099   480.4    5.289      46.237
2015    7       28     8  40    4.5036   480.3    5.281      46.132
2015    7       28     8  46    4.4974   480.2    5.272      46.029
2015    7       28     8  52    4.4912   480.1    5.264      45.925
2015    7       28     8  58    4.4851   480.0    5.256      45.823
2015    7       28     9   4    4.4791   479.9    5.249      45.721
2015    7       28     9  10    4.4732   479.8    5.241      45.620
2015    7       28     9  16    4.4673   479.7    5.233      45.520
2015    7       28     9  23    4.4615   479.6    5.226      45.420
2015    7       28     9  29    4.4558   479.5    5.219      45.320
2015    7       28     9  35    4.4501   479.3    5.212      45.222
2015    7       28     9  41    4.4444   479.2    5.205      45.123
2015    7       28     9  47    4.4388   479.1    5.198      45.025
2015    7       28     9  53    4.4333   479.0    5.191      44.927
2015    7       28     9  59    4.4277   478.9    5.184      44.830
2015    7       28    10   5    4.4222   478.7    5.177      44.732
2015    7       28    10  11    4.4167   478.6    5.171      44.634
2015    7       28    10  18    4.4112   478.5    5.164      44.536
2015    7       28    10  24    4.4058   478.4    5.157      44.439
2015    7       28    10  30    4.4004   478.2    5.151      44.341
2015    7       28    10  36    4.3950   478.1    5.145      44.243
2015    7       28    10  42    4.3896   477.9    5.138      44.145
2015    7       28    10  48    4.3842   477.8    5.132      44.048
2015    7       28    10  54    4.3789   477.7    5.126      43.950
2015    7       28    11   0    4.3736   477.5    5.120      43.852
2015    7       28    11   7    4.3683   477.4    5.114      43.754
2015    7       28    11  13    4.3630   477.2    5.108      43.657
2015    7       28    11  19    4.3577   477.1    5.102      43.560
2015    7       28    11  25    4.3525   476.9    5.096      43.463
2015    7       28    11  31    4.3472   476.8    5.091      43.366
2015    7       28    11  37    4.3420   476.6    5.085      43.270
2015    7       28    11  43    4.3368   476.5    5.080      43.174
2015    7       28    11  49    4.3316   476.3    5.074      43.079
2015    7       28    11  55    4.3265   476.2    5.069      42.984
2015    7       28    12   2    4.3214   476.0    5.064      42.891
2015    7       28    12   8    4.3164   475.9    5.059      42.797
2015    7       28    12  14    4.3114   475.7    5.054      42.705
2015    7       28    12  20    4.3065   475.6    5.049      42.612
2015    7       28    12  26    4.3016   475.4    5.045      42.522
2015    7       28    12  32    4.2968   475.2    5.040      42.433
2015    7       28    12  38    4.2921   475.1    5.036      42.345
2015    7       28    12  44    4.2875   474.9    5.032      42.258
2015    7       28    12  50    4.2829   474.7    5.028      42.172
2015    7       28    12  57    4.2785   474.5    5.024      42.087
2015    7       28    13   3    4.2741   474.3    5.020      42.004
2015    7       28    13   9    4.2699   474.1    5.017      41.920
2015    7       28    13  15    4.2657   473.9    5.014      41.837
2015    7       28    13  21    4.2617   473.7    5.011      41.754
2015    7       28    13  27    4.2577   473.5    5.009      41.672
2015    7       28    13  33    4.2539   473.3    5.007      41.591
2015    7       28    13  39    4.2502   473.1    5.006      41.512
2015    7       28    13  46    4.2466   472.9    5.005      41.434
2015    7       28    13  52    4.2431   472.6    5.004      41.357
2015    7       28    13  58    4.2397   472.4    5.005      41.279
2015    7       28    14   4    4.2365   472.2    5.005      41.206
2015    7       28    14  10    4.2335   472.0    5.006      41.135
2015    7       28    14  16    4.2305   471.8    5.007      41.068
2015    7       28    14  22    4.2276   471.5    5.009      41.002
2015    7       28    14  28    4.2249   471.3    5.011      40.939
2015    7       28    14  34    4.2222   471.1    5.013      40.878
2015    7       28    14  41    4.2196   471.0    5.015      40.820
2015    7       28    14  47    4.2171   470.8    5.017      40.763
2015    7       28    14  53    4.2146   470.6    5.019      40.708
2015    7       28    14  59    4.2122   470.4    5.021      40.654
2015    7       28    15   5    4.2098   470.2    5.023      40.602
2015    7       28    15  11    4.2074   470.0    5.025      40.549
2015    7       28    15  17    4.2051   469.9    5.026      40.497
2015    7       28    15  23    4.2028   469.7    5.028      40.446
2015    7       28    15  30    4.2004   469.5    5.029      40.396
2015    7       28    15  36    4.1981   469.4    5.030      40.345
2015    7       28    15  42    4.1957   469.2    5.030      40.292
2015    7       28    15  48    4.1934   469.0    5.030      40.239
2015    7       28    15  54    4.1910   468.8    5.031      40.185
2015    7       28    16   0    4.1887   468.7    5.031      40.130
2015    7       28    16   6    4.1863   468.5    5.031      40.075
2015    7       28    16  12    4.1840   468.3    5.031      40.019
2015    7       28    16  18    4.1817   468.1    5.030      39.963
2015    7       28    16  25    4.1793   468.0    5.030      39.906
2015    7       28    16  31    4.1770   467.8    5.029      39.849
2015    7       28    16  37    4.1748   467.6    5.029      39.791
2015    7       28    16  43    4.1725   467.4    5.028      39.734
2015    7       28    16  49    4.1702   467.3    5.028      39.676
2015    7       28    16  55    4.1680   467.1    5.027      39.618
2015    7       28    17   1    4.1658   466.9    5.026      39.559
2015    7       28    17   7    4.1635   466.7    5.026      39.501
2015    7       28    17  14    4.1613   466.5    5.025      39.443
2015    7       28    17  20    4.1592   466.4    5.024      39.384
2015    7       28    17  26    4.1570   466.2    5.023      39.325
2015    7       28    17  32    4.1549   466.0    5.023      39.267
2015    7       28    17  38    4.1527   465.8    5.022      39.208
2015    7       28    17  44    4.1506   465.7    5.021      39.149
2015    7       28    17  50    4.1485   465.5    5.020      39.090
2015    7       28    17  56    4.1464   465.3    5.019      39.031
2015    7       28    18   2    4.1444   465.1    5.018      38.971
2015    7       28    18   9    4.1423   464.9    5.018      38.912
2015    7       28    18  15    4.1403   464.8    5.017      38.852
2015    7       28    18  21    4.1383   464.6    5.016      38.793
2015    7       28    18  27    4.1363   464.4    5.015      38.733
2015    7       28    18  33    4.1343   464.2    5.014      38.674
2015    7       28    18  39    4.1323   464.0    5.013      38.614
2015    7       28    18  45    4.1304   463.9    5.013      38.554
2015    7       28    18  51    4.1285   463.7    5.012      38.494
2015    7       28    18  57    4.1266   463.5    5.011      38.434
2015    7       28    19   4    4.1248   463.3    5.011      38.374
2015    7       28    19  10    4.1229   463.1    5.010      38.315
2015    7       28    19  16    4.1212   462.9    5.010      38.255
2015    7       28    19  22    4.1194   462.8    5.010      38.196
2015    7       28    19  28    4.1177   462.6    5.010      38.137
2015    7       28    19  34    4.1161   462.4    5.010      38.078
2015    7       28    19  40    4.1144   462.2    5.010      38.020
2015    7       28    19  46    4.1129   462.0    5.010      37.962
2015    7       28    19  53    4.1114   461.8    5.010      37.905
2015    7       28    19  59    4.1100   461.6    5.011      37.848
2015    7       28    20   5    4.1086   461.4    5.011      37.792
2015    7       28    20  11    4.1073   461.2    5.012      37.737
2015    7       28    20  17    4.1060   461.1    5.013      37.682
2015    7       28    20  23    4.1048   460.9    5.015      37.629
2015    7       28    20  29    4.1037   460.7    5.016      37.576
2015    7       28    20  35    4.1027   460.5    5.018      37.525
2015    7       28    20  41    4.1017   460.3    5.020      37.474
2015    7       28    20  48    4.1008   460.1    5.022      37.425
2015    7       28    20  54    4.1000   459.9    5.024      37.376
2015    7       28    21   0    4.0993   459.7    5.026      37.330
2015    7       28    21   6    4.0986   459.6    5.028      37.284
2015    7       28    21  12    4.0980   459.4    5.031      37.240
2015    7       28    21  18    4.0975   459.2    5.034      37.198
2015    7       28    21  24    4.0970   459.0    5.037      37.156
2015    7       28    21  30    4.0966   458.8    5.040      37.116
2015    7       28    21  37    4.0962   458.6    5.043      37.077
2015    7       28    21  43    4.0960   458.4    5.046      37.038
2015    7       28    21  49    4.0957   458.2    5.049      37.001
2015    7       28    21  55    4.0956   458.0    5.052      36.964
2015    7       28    22   1    4.0955   457.9    5.056      36.928
2015    7       28    22   7    4.0954   457.7    5.059      36.893
2015    7       28    22  13    4.0953   457.5    5.062      36.859
2015    7       28    22  19    4.0953   457.3    5.066      36.824
2015    7       28    22  25    4.0953   457.1    5.069      36.791
2015    7       28    22  32    4.0953   456.9    5.073      36.757
2015    7       28    22  38    4.0954   456.8    5.077      36.723
2015    7       28    22  44    4.0954   456.6    5.080      36.689
2015    7       28    22  50    4.0955   456.4    5.084      36.656
2015    7       28    22  56    4.0956   456.2    5.088      36.622
2015    7       28    23   2    4.0957   456.0    5.091      36.589
2015    7       28    23   8    4.0958   455.8    5.095      36.556
2015    7       28    23  14    4.0959   455.6    5.098      36.522
2015    7       28    23  21    4.0960   455.5    5.102      36.489
2015    7       28    23  27    4.0961   455.3    5.105      36.455
2015    7       28    23  33    4.0963   455.1    5.109      36.422
2015    7       28    23  39    4.0965   454.9    5.113      36.388
2015    7       28    23  45    4.0967   454.7    5.116      36.354
2015    7       28    23  51    4.0969   454.5    5.120      36.321
2015    7       28    23  57    4.0972   454.3    5.123      36.287
2015    7       29     0   3    4.0974   454.2    5.127      36.254
2015    7       29     0   9    4.0977   454.0    5.130      36.220
2015    7       29     0  16    4.0980   453.8    5.133      36.186
2015    7       29     0  22    4.0984   453.6    5.137      36.152
2015    7       29     0  28    4.0988   453.4    5.140      36.119
2015    7       29     0  34    4.0993   453.2    5.144      36.085
2015    7       29     0  40    4.0998   453.0    5.147      36.051
2015    7       29     0  46    4.1003   452.9    5.151      36.018
2015    7       29     0  52    4.1008   452.7    5.154      35.984
2015    7       29     0  58    4.1014   452.5    5.158      35.951
2015    7       29     1   5    4.1021   452.3    5.162      35.917
2015    7       29     1  11    4.1028   452.1    5.165      35.884
2015    7       29     1  17    4.1034   451.9    5.169      35.850
2015    7       29     1  23    4.1042   451.7    5.172      35.817
2015    7       29     1  29    4.1050   451.5    5.176      35.784
2015    7       29     1  35    4.1058   451.4    5.180      35.751
2015    7       29     1  41    4.1067   451.2    5.184      35.717
2015    7       29     1  47    4.1076   451.0    5.188      35.684
2015    7       29     1  53    4.1086   450.8    5.192      35.651
2015    7       29     2   0    4.1096   450.6    5.196      35.618
2015    7       29     2   6    4.1107   450.4    5.200      35.585
2015    7       29     2  12    4.1118   450.2    5.204      35.553
2015    7       29     2  18    4.1130   450.0    5.209      35.520
2015    7       29     2  24    4.1142   449.8    5.213      35.488
2015    7       29     2  30    4.1155   449.6    5.218      35.457
2015    7       29     2  36    4.1169   449.4    5.223      35.426
2015    7       29     2  42    4.1183   449.2    5.228      35.396
2015    7       29     2  48    4.1198   449.0    5.233      35.366
2015    7       29     2  55    4.1213   448.9    5.239      35.337
2015    7       29     3   1    4.1230   448.7    5.244      35.309
2015    7       29     3   7    4.1246   448.5    5.250      35.282
2015    7       29     3  13    4.1264   448.3    5.256      35.256
2015    7       29     3  19    4.1283   448.1    5.262      35.231
2015    7       29     3  25    4.1302   447.9    5.269      35.207
2015    7       29     3  31    4.1322   447.7    5.275      35.184
2015    7       29     3  37    4.1342   447.6    5.282      35.162
2015    7       29     3  44    4.1364   447.4    5.289      35.141
2015    7       29     3  50    4.1386   447.2    5.297      35.121
2015    7       29     3  56    4.1408   447.0    5.304      35.103
2015    7       29     4   2    4.1431   446.8    5.312      35.085
2015    7       29     4   8    4.1455   446.7    5.320      35.068
2015    7       29     4  14    4.1479   446.5    5.328      35.053
2015    7       29     4  20    4.1503   446.3    5.336      35.038
2015    7       29     4  26    4.1529   446.2    5.344      35.025
2015    7       29     4  32    4.1554   446.0    5.352      35.012
2015    7       29     4  39    4.1581   445.8    5.361      35.000
2015    7       29     4  45    4.1607   445.7    5.369      34.990
2015    7       29     4  51    4.1634   445.5    5.378      34.980
2015    7       29     4  57    4.1661   445.4    5.387      34.970
2015    7       29     5   3    4.1689   445.2    5.395      34.962
2015    7       29     5   9    4.1717   445.0    5.404      34.954
2015    7       29     5  15    4.1746   444.9    5.413      34.947
2015    7       29     5  21    4.1774   444.7    5.422      34.941
2015    7       29     5  28    4.1804   444.6    5.431      34.934
2015    7       29     5  34    4.1833   444.4    5.440      34.929
2015    7       29     5  40    4.1863   444.3    5.450      34.924
2015    7       29     5  46    4.1892   444.1    5.459      34.919
2015    7       29     5  52    4.1922   444.0    5.468      34.915
2015    7       29     5  58    4.1953   443.8    5.477      34.911
2015    7       29     6   4    4.1983   443.7    5.486      34.908
2015    7       29     6  10    4.2014   443.5    5.496      34.904
2015    7       29     6  16    4.2046   443.4    5.505      34.901
2015    7       29     6  23    4.2077   443.3    5.514      34.898
2015    7       29     6  29    4.2110   443.1    5.524      34.895
2015    7       29     6  35    4.2142   443.0    5.533      34.893
2015    7       29     6  41    4.2175   442.8    5.543      34.891
2015    7       29     6  47    4.2207   442.7    5.552      34.889
2015    7       29     6  53    4.2241   442.5    5.562      34.887
2015    7       29     6  59    4.2275   442.4    5.572      34.885
2015    7       29     7   5    4.2310   442.3    5.581      34.884
2015    7       29     7  12    4.2345   442.1    5.591      34.883
2015    7       29     7  18    4.2381   442.0    5.601      34.882
2015    7       29     7  24    4.2416   441.9    5.611      34.881
2015    7       29     7  30    4.2453   441.7    5.621      34.881
2015    7       29     7  36    4.2490   441.6    5.632      34.881
2015    7       29     7  42    4.2528   441.5    5.642      34.882
2015    7       29     7  48    4.2566   441.4    5.652      34.883
2015    7       29     7  54    4.2605   441.2    5.663      34.884
2015    7       29     8   0    4.2644   441.1    5.674      34.886
2015    7       29     8   7    4.2684   441.0    5.685      34.889
2015    7       29     8  13    4.2724   440.9    5.696      34.891
2015    7       29     8  19    4.2765   440.8    5.707      34.895
2015    7       29     8  25    4.2805   440.6    5.719      34.898
2015    7       29     8  31    4.2847   440.5    5.731      34.903
2015    7       29     8  37    4.2889   440.4    5.742      34.907
2015    7       29     8  43    4.2931   440.3    5.754      34.912
2015    7       29     8  49    4.2973   440.2    5.766      34.918
2015    7       29     8  55    4.3016   440.1    5.779      34.923
2015    7       29     9   2    4.3059   440.0    5.791      34.930
2015    7       29     9   8    4.3103   439.9    5.804      34.936
2015    7       29     9  14    4.3147   439.8    5.817      34.944
2015    7       29     9  20    4.3192   439.7    5.830      34.951
2015    7       29     9  26    4.3236   439.6    5.843      34.959
2015    7       29     9  32    4.3282   439.5    5.857      34.967
2015    7       29     9  38    4.3328   439.4    5.871      34.977
2015    7       29     9  44    4.3375   439.3    5.885      34.987
2015    7       29     9  51    4.3422   439.2    5.899      34.998
2015    7       29     9  57    4.3470   439.2    5.913      35.010
2015    7       29    10   3    4.3518   439.1    5.928      35.024
2015    7       29    10   9    4.3567   439.0    5.943      35.039
2015    7       29    10  15    4.3616   438.9    5.957      35.055
2015    7       29    10  21    4.3666   438.8    5.972      35.073
2015    7       29    10  27    4.3716   438.8    5.987      35.093
2015    7       29    10  33    4.3767   438.7    6.002      35.113
2015    7       29    10  39    4.3818   438.6    6.017      35.136
2015    7       29    10  46    4.3869   438.6    6.032      35.160
2015    7       29    10  52    4.3921   438.5    6.046      35.185
2015    7       29    10  58    4.3973   438.5    6.061      35.212
2015    7       29    11   4    4.4025   438.4    6.075      35.240
2015    7       29    11  10    4.4077   438.4    6.090      35.268
2015    7       29    11  16    4.4129   438.3    6.104      35.297
2015    7       29    11  22    4.4182   438.3    6.118      35.327
2015    7       29    11  28    4.4234   438.2    6.132      35.357
2015    7       29    11  35    4.4287   438.2    6.146      35.387
2015    7       29    11  41    4.4339   438.1    6.159      35.417
2015    7       29    11  47    4.4392   438.1    6.173      35.448
2015    7       29    11  53    4.4444   438.1    6.186      35.479
2015    7       29    11  59    4.4497   438.0    6.199      35.509
2015    7       29    12   5    4.4550   438.0    6.212      35.539
2015    7       29    12  11    4.4602   437.9    6.225      35.569
2015    7       29    12  17    4.4655   437.9    6.237      35.599
2015    7       29    12  23    4.4708   437.9    6.249      35.629
2015    7       29    12  30    4.4760   437.8    6.261      35.658
2015    7       29    12  36    4.4813   437.8    6.273      35.687
2015    7       29    12  42    4.4866   437.8    6.285      35.715
2015    7       29    12  48    4.4919   437.7    6.296      35.744
2015    7       29    12  54    4.4971   437.7    6.308      35.772
2015    7       29    13   0    4.5024   437.7    6.319      35.799
2015    7       29    13   6    4.5077   437.7    6.330      35.827
2015    7       29    13  12    4.5130   437.6    6.341      35.854
2015    7       29    13  18    4.5183   437.6    6.351      35.880
2015    7       29    13  25    4.5236   437.6    6.362      35.907
2015    7       29    13  31    4.5289   437.6    6.372      35.932
2015    7       29    13  37    4.5342   437.5    6.382      35.958
2015    7       29    13  43    4.5395   437.5    6.393      35.984
2015    7       29    13  49    4.5449   437.5    6.403      36.009
2015    7       29    13  55    4.5502   437.5    6.413      36.034
2015    7       29    14   1    4.5555   437.5    6.423      36.059
2015    7       29    14   7    4.5609   437.4    6.433      36.083
2015    7       29    14  14    4.5662   437.4    6.442      36.108
2015    7       29    14  20    4.5716   437.4    6.452      36.132
2015    7       29    14  26    4.5770   437.4    6.462      36.157
2015    7       29    14  32    4.5823   437.4    6.472      36.181
2015    7       29    14  38    4.5877   437.4    6.482      36.205
2015    7       29    14  44    4.5931   437.4    6.492      36.230
2015    7       29    14  50    4.5985   437.4    6.501      36.254
2015    7       29    14  56    4.6039   437.4    6.511      36.278
2015    7       29    15   3    4.6093   437.4    6.521      36.303
2015    7       29    15   9    4.6147   437.4    6.531      36.327
2015    7       29    15  15    4.6201   437.4    6.541      36.352
2015    7       29    15  21    4.6255   437.4    6.551      36.376
2015    7       29    15  27    4.6309   437.5    6.561      36.401
2015    7       29    15  33    4.6363   437.5    6.571      36.426
2015    7       29    15  39    4.6416   437.5    6.581      36.451
2015    7       29    15  45    4.6470   437.5    6.592      36.476
2015    7       29    15  51    4.6523   437.5    6.602      36.501
2015    7       29    15  58    4.6576   437.6    6.612      36.526
2015    7       29    16   4    4.6629   437.6    6.622      36.552
2015    7       29    16  10    4.6682   437.6    6.633      36.577
2015    7       29    16  16    4.6735   437.7    6.643      36.602
2015    7       29    16  22    4.6787   437.7    6.653      36.628
2015    7       29    16  28    4.6840   437.7    6.664      36.654
2015    7       29    16  34    4.6892   437.8    6.674      36.679
2015    7       29    16  40    4.6944   437.8    6.685      36.705
2015    7       29    16  46    4.6997   437.8    6.696      36.731
2015    7       29    16  53    4.7049   437.9    6.707      36.757
2015    7       29    16  59    4.7101   437.9    6.717      36.783
2015    7       29    17   5    4.7153   437.9    6.728      36.809
2015    7       29    17  11    4.7205   438.0    6.739      36.836
2015    7       29    17  17    4.7257   438.0    6.750      36.864
2015    7       29    17  23    4.7309   438.1    6.761      36.892
2015    7       29    17  29    4.7361   438.1    6.772      36.921
2015    7       29    17  35    4.7413   438.2    6.782      36.950
2015    7       29    17  42    4.7465   438.2    6.793      36.980
2015    7       29    17  48    4.7516   438.3    6.804      37.011
2015    7       29    17  54    4.7568   438.3    6.814      37.042
2015    7       29    18   0    4.7620   438.4    6.824      37.075
2015    7       29    18   6    4.7671   438.4    6.834      37.108
2015    7       29    18  12    4.7723   438.5    6.844      37.142
2015    7       29    18  18    4.7774   438.5    6.854      37.176
2015    7       29    18  24    4.7825   438.6    6.864      37.211
2015    7       29    18  30    4.7877   438.7    6.873      37.246
2015    7       29    18  37    4.7928   438.7    6.882      37.282
2015    7       29    18  43    4.7979   438.8    6.891      37.318
2015    7       29    18  49    4.8030   438.8    6.900      37.355
2015    7       29    18  55    4.8080   438.9    6.909      37.392
2015    7       29    19   1    4.8131   439.0    6.917      37.429
2015    7       29    19   7    4.8181   439.0    6.926      37.467
2015    7       29    19  13    4.8231   439.1    6.934      37.505
2015    7       29    19  19    4.8281   439.2    6.942      37.543
2015    7       29    19  26    4.8331   439.2    6.949      37.582
2015    7       29    19  32    4.8380   439.3    6.957      37.620
2015    7       29    19  38    4.8429   439.4    6.964      37.659
2015    7       29    19  44    4.8478   439.5    6.971      37.698
2015    7       29    19  50    4.8526   439.5    6.978      37.736
2015    7       29    19  56    4.8575   439.6    6.984      37.775
2015    7       29    20   2    4.8622   439.7    6.990      37.813
2015    7       29    20   8    4.8670   439.8    6.997      37.852
2015    7       29    20  14    4.8717   439.8    7.003      37.890
2015    7       29    20  21    4.8764   439.9    7.008      37.928
2015    7       29    20  27    4.8810   440.0    7.014      37.965
2015    7       29    20  33    4.8857   440.1    7.019      38.002
2015    7       29    20  39    4.8902   440.1    7.025      38.039
2015    7       29    20  45    4.8948   440.2    7.030      38.076
2015    7       29    20  51    4.8993   440.3    7.035      38.112
2015    7       29    20  57    4.9038   440.4    7.040      38.148
2015    7       29    21   3    4.9083   440.5    7.044      38.184
2015    7       29    21  10    4.9127   440.5    7.049      38.219
2015    7       29    21  16    4.9171   440.6    7.053      38.254
2015    7       29    21  22    4.9215   440.7    7.058      38.289
2015    7       29    21  28    4.9258   440.8    7.062      38.324
2015    7       29    21  34    4.9301   440.9    7.066      38.358
2015    7       29    21  40    4.9344   441.0    7.070      38.392
2015    7       29    21  46    4.9387   441.0    7.074      38.426
2015    7       29    21  52    4.9429   441.1    7.078      38.460
2015    7       29    21  58    4.9471   441.2    7.082      38.493
2015    7       29    22   5    4.9512   441.3    7.085      38.526
2015    7       29    22  11    4.9554   441.4    7.089      38.560
2015    7       29    22  17    4.9595   441.5    7.092      38.593
2015    7       29    22  23    4.9636   441.6    7.096      38.626
2015    7       29    22  29    4.9676   441.7    7.099      38.658
2015    7       29    22  35    4.9717   441.8    7.102      38.691
2015    7       29    22  41    4.9756   441.9    7.106      38.723
2015    7       29    22  47    4.9796   441.9    7.109      38.756
2015    7       29    22  53    4.9836   442.0    7.112      38.788
2015    7       29    23   0    4.9875   442.1    7.115      38.821
2015    7       29    23   6    4.9915   442.2    7.118      38.854
2015    7       29    23  12    4.9954   442.3    7.121      38.887
2015    7       29    23  18    4.9992   442.4    7.124      38.919
2015    7       29    23  24    5.0031   442.5    7.127      38.952
2015    7       29    23  30    5.0069   442.6    7.130      38.985
2015    7       29    23  36    5.0107   442.7    7.133      39.017
2015    7       29    23  42    5.0144   442.8    7.135      39.049
2015    7       29    23  49    5.0182   442.9    7.138      39.081
2015    7       29    23  55    5.0219   443.0    7.141      39.113
2015    7       30     0   1    5.0255   443.1    7.143      39.145
2015    7       30     0   7    5.0292   443.2    7.146      39.176
2015    7       30     0  13    5.0328   443.3    7.148      39.207
2015    7       30     0  19    5.0364   443.4    7.151      39.238
2015    7       30     0  25    5.0400   443.5    7.153      39.268
2015    7       30     0  31    5.0436   443.6    7.156      39.297
2015    7       30     0  37    5.0472   443.7    7.158      39.327
2015    7       30     0  44    5.0508   443.8    7.161      39.355
2015    7       30     0  50    5.0543   443.9    7.163      39.384
2015    7       30     0  56    5.0579   444.0    7.166      39.413
2015    7       30     1   2    5.0615   444.1    7.169      39.441
2015    7       30     1   8    5.0651   444.2    7.171      39.470
2015    7       30     1  14    5.0687   444.3    7.174      39.499
2015    7       30     1  20    5.0723   444.4    7.176      39.528
2015    7       30     1  26    5.0759   444.5    7.179      39.559
2015    7       30     1  33    5.0795   444.6    7.181      39.590
2015    7       30     1  39    5.0831   444.7    7.184      39.621
2015    7       30     1  45    5.0866   444.8    7.186      39.654
2015    7       30     1  51    5.0902   444.9    7.188      39.686
2015    7       30     1  57    5.0937   445.0    7.190      39.720
2015    7       30     2   3    5.0972   445.2    7.192      39.754
2015    7       30     2   9    5.1006   445.3    7.193      39.789
2015    7       30     2  15    5.1041   445.4    7.195      39.824
2015    7       30     2  21    5.1074   445.5    7.196      39.859
2015    7       30     2  28    5.1108   445.6    7.197      39.895
2015    7       30     2  34    5.1140   445.7    7.198      39.931
2015    7       30     2  40    5.1173   445.8    7.199      39.967
2015    7       30     2  46    5.1205   446.0    7.200      40.002
2015    7       30     2  52    5.1236   446.1    7.200      40.038
2015    7       30     2  58    5.1268   446.2    7.200      40.073
2015    7       30     3   4    5.1299   446.3    7.201      40.108
2015    7       30     3  10    5.1329   446.4    7.201      40.142
2015    7       30     3  17    5.1359   446.5    7.201      40.177
2015    7       30     3  23    5.1389   446.7    7.201      40.211
2015    7       30     3  29    5.1419   446.8    7.201      40.245
2015    7       30     3  35    5.1449   446.9    7.201      40.279
2015    7       30     3  41    5.1478   447.0    7.200      40.313
2015    7       30     3  47    5.1507   447.1    7.200      40.346
2015    7       30     3  53    5.1536   447.2    7.200      40.379
2015    7       30     3  59    5.1565   447.4    7.199      40.412
2015    7       30     4   5    5.1593   447.5    7.199      40.445
2015    7       30     4  12    5.1621   447.6    7.198      40.477
2015    7       30     4  18    5.1650   447.7    7.198      40.510
2015    7       30     4  24    5.1677   447.8    7.197      40.542
2015    7       30     4  30    5.1705   447.9    7.197      40.574
2015    7       30     4  36    5.1733   448.0    7.196      40.606
2015    7       30     4  42    5.1761   448.2    7.196      40.638
2015    7       30     4  48    5.1788   448.3    7.195      40.669
2015    7       30     4  54    5.1816   448.4    7.195      40.701
2015    7       30     5   0    5.1844   448.5    7.195      40.733
2015    7       30     5   7    5.1871   448.6    7.194      40.765
2015    7       30     5  13    5.1898   448.7    7.194      40.797
2015    7       30     5  19    5.1926   448.9    7.194      40.830
2015    7       30     5  25    5.1954   449.0    7.194      40.862
2015    7       30     5  31    5.1981   449.1    7.194      40.895
2015    7       30     5  37    5.2009   449.2    7.194      40.927
2015    7       30     5  43    5.2037   449.3    7.194      40.961
2015    7       30     5  49    5.2065   449.4    7.194      40.994
2015    7       30     5  56    5.2093   449.5    7.195      41.027
2015    7       30     6   2    5.2121   449.7    7.196      41.061
2015    7       30     6   8    5.2149   449.8    7.196      41.096
2015    7       30     6  14    5.2178   449.9    7.197      41.132
2015    7       30     6  20    5.2206   450.0    7.199      41.168
2015    7       30     6  26    5.2234   450.2    7.200      41.206
2015    7       30     6  32    5.2263   450.3    7.201      41.245
2015    7       30     6  38    5.2291   450.4    7.202      41.285
2015    7       30     6  44    5.2319   450.5    7.203      41.326
2015    7       30     6  51    5.2347   450.7    7.204      41.367
2015    7       30     6  57    5.2375   450.8    7.206      41.410
2015    7       30     7   3    5.2403   450.9    7.207      41.453
2015    7       30     7   9    5.2430   451.1    7.208      41.496
2015    7       30     7  15    5.2457   451.2    7.208      41.540
2015    7       30     7  21    5.2483   451.4    7.209      41.584
2015    7       30     7  27    5.2509   451.5    7.210      41.629
2015    7       30     7  33    5.2535   451.6    7.210      41.673
2015    7       30     7  40    5.2561   451.8    7.211      41.716
2015    7       30     7  46    5.2586   451.9    7.211      41.759
2015    7       30     7  52    5.2611   452.0    7.211      41.801
2015    7       30     7  58    5.2636   452.1    7.211      41.843
2015    7       30     8   4    5.2661   452.3    7.211      41.883
2015    7       30     8  10    5.2685   452.4    7.211      41.924
2015    7       30     8  16    5.2710   452.5    7.211      41.964
2015    7       30     8  22    5.2734   452.7    7.211      42.003
2015    7       30     8  28    5.2758   452.8    7.211      42.043
2015    7       30     8  35    5.2782   452.9    7.211      42.083
2015    7       30     8  41    5.2806   453.1    7.210      42.122
2015    7       30     8  47    5.2830   453.2    7.209      42.162
2015    7       30     8  53    5.2854   453.4    7.209      42.201
2015    7       30     8  59    5.2877   453.5    7.208      42.241
2015    7       30     9   5    5.2900   453.6    7.207      42.280
2015    7       30     9  11    5.2923   453.8    7.205      42.318
2015    7       30     9  17    5.2945   453.9    7.204      42.357
2015    7       30     9  24    5.2966   454.1    7.202      42.395
2015    7       30     9  30    5.2988   454.2    7.200      42.433
2015    7       30     9  36    5.3009   454.4    7.198      42.470
2015    7       30     9  42    5.3029   454.5    7.195      42.507
2015    7       30     9  48    5.3049   454.7    7.193      42.543
2015    7       30     9  54    5.3069   454.8    7.190      42.578
2015    7       30    10   0    5.3088   455.0    7.187      42.612
2015    7       30    10   6    5.3107   455.1    7.184      42.646
2015    7       30    10  12    5.3125   455.3    7.180      42.678
2015    7       30    10  19    5.3143   455.4    7.177      42.710
2015    7       30    10  25    5.3161   455.6    7.174      42.742
2015    7       30    10  31    5.3178   455.7    7.170      42.772
2015    7       30    10  37    5.3195   455.9    7.166      42.801
2015    7       30    10  43    5.3212   456.0    7.162      42.830
2015    7       30    10  49    5.3228   456.2    7.158      42.859
2015    7       30    10  55    5.3244   456.3    7.154      42.887
2015    7       30    11   1    5.3261   456.5    7.150      42.914
2015    7       30    11   7    5.3276   456.6    7.146      42.940
2015    7       30    11  14    5.3292   456.8    7.142      42.967
2015    7       30    11  20    5.3307   456.9    7.138      42.992
2015    7       30    11  26    5.3322   457.1    7.133      43.018
2015    7       30    11  32    5.3338   457.3    7.129      43.042
2015    7       30    11  38    5.3352   457.4    7.125      43.067
2015    7       30    11  44    5.3367   457.6    7.120      43.091
2015    7       30    11  50    5.3382   457.7    7.116      43.115
2015    7       30    11  56    5.3396   457.9    7.112      43.139
2015    7       30    12   3    5.3411   458.0    7.107      43.163
2015    7       30    12   9    5.3425   458.2    7.103      43.186
2015    7       30    12  15    5.3440   458.3    7.099      43.210
2015    7       30    12  21    5.3454   458.5    7.094      43.233
2015    7       30    12  27    5.3468   458.6    7.090      43.257
2015    7       30    12  33    5.3482   458.8    7.086      43.280
2015    7       30    12  39    5.3496   458.9    7.082      43.304
2015    7       30    12  45    5.3510   459.1    7.078      43.328
2015    7       30    12  51    5.3525   459.3    7.074      43.352
2015    7       30    12  58    5.3539   459.4    7.070      43.376
2015    7       30    13   4    5.3553   459.6    7.066      43.400
2015    7       30    13  10    5.3567   459.7    7.063      43.424
2015    7       30    13  16    5.3582   459.9    7.059      43.449
2015    7       30    13  22    5.3596   460.1    7.055      43.475
2015    7       30    13  28    5.3610   460.2    7.052      43.502
2015    7       30    13  34    5.3624   460.4    7.048      43.530
2015    7       30    13  40    5.3638   460.5    7.045      43.559
2015    7       30    13  47    5.3651   460.7    7.041      43.589
2015    7       30    13  53    5.3665   460.9    7.038      43.621
2015    7       30    13  59    5.3678   461.1    7.034      43.653
2015    7       30    14   5    5.3691   461.2    7.031      43.686
2015    7       30    14  11    5.3704   461.4    7.027      43.720
2015    7       30    14  17    5.3716   461.6    7.023      43.755
2015    7       30    14  23    5.3728   461.8    7.019      43.790
2015    7       30    14  29    5.3739   462.0    7.014      43.825
2015    7       30    14  35    5.3751   462.1    7.010      43.861
2015    7       30    14  42    5.3761   462.3    7.005      43.897
2015    7       30    14  48    5.3772   462.5    7.001      43.933
2015    7       30    14  54    5.3781   462.7    6.996      43.968
2015    7       30    15   0    5.3791   462.9    6.991      44.002
2015    7       30    15   6    5.3800   463.0    6.986      44.037
2015    7       30    15  12    5.3809   463.2    6.980      44.070
2015    7       30    15  18    5.3817   463.4    6.975      44.103
2015    7       30    15  24    5.3825   463.6    6.970      44.136
2015    7       30    15  31    5.3832   463.8    6.964      44.168
2015    7       30    15  37    5.3840   463.9    6.958      44.200
2015    7       30    15  43    5.3847   464.1    6.952      44.231
2015    7       30    15  49    5.3853   464.3    6.946      44.262
2015    7       30    15  55    5.3859   464.5    6.940      44.292
2015    7       30    16   1    5.3865   464.7    6.934      44.321
2015    7       30    16   7    5.3871   464.8    6.927      44.350
2015    7       30    16  13    5.3876   465.0    6.921      44.378
2015    7       30    16  19    5.3880   465.2    6.914      44.405
2015    7       30    16  26    5.3885   465.4    6.908      44.432
2015    7       30    16  32    5.3888   465.6    6.901      44.458
2015    7       30    16  38    5.3892   465.8    6.894      44.483
2015    7       30    16  44    5.3895   465.9    6.887      44.507
2015    7       30    16  50    5.3898   466.1    6.879      44.531
2015    7       30    16  56    5.3900   466.3    6.872      44.554
2015    7       30    17   2    5.3902   466.5    6.865      44.576
2015    7       30    17   8    5.3903   466.7    6.857      44.597
2015    7       30    17  15    5.3904   466.9    6.849      44.617
2015    7       30    17  21    5.3904   467.0    6.842      44.637
2015    7       30    17  27    5.3905   467.2    6.834      44.656
2015    7       30    17  33    5.3904   467.4    6.826      44.674
2015    7       30    17  39    5.3904   467.6    6.818      44.691
2015    7       30    17  45    5.3903   467.8    6.810      44.708
2015    7       30    17  51    5.3902   467.9    6.802      44.724
2015    7       30    17  57    5.3900   468.1    6.794      44.739
2015    7       30    18   3    5.3899   468.3    6.785      44.754
2015    7       30    18  10    5.3896   468.5    6.777      44.768
2015    7       30    18  16    5.3894   468.7    6.769      44.781
2015    7       30    18  22    5.3891   468.9    6.760      44.794
2015    7       30    18  28    5.3888   469.0    6.752      44.806
2015    7       30    18  34    5.3885   469.2    6.744      44.818
2015    7       30    18  40    5.3882   469.4    6.735      44.830
2015    7       30    18  46    5.3878   469.6    6.727      44.841
2015    7       30    18  52    5.3874   469.8    6.718      44.851
2015    7       30    18  58    5.3869   469.9    6.709      44.862
2015    7       30    19   5    5.3865   470.1    6.701      44.871
2015    7       30    19  11    5.3860   470.3    6.692      44.881
2015    7       30    19  17    5.3855   470.5    6.684      44.890
2015    7       30    19  23    5.3849   470.6    6.675      44.899
2015    7       30    19  29    5.3844   470.8    6.666      44.908
2015    7       30    19  35    5.3838   471.0    6.658      44.917
2015    7       30    19  41    5.3832   471.2    6.649      44.925
2015    7       30    19  47    5.3826   471.4    6.640      44.933
2015    7       30    19  54    5.3819   471.5    6.631      44.941
2015    7       30    20   0    5.3812   471.7    6.622      44.949
2015    7       30    20   6    5.3805   471.9    6.614      44.957
2015    7       30    20  12    5.3798   472.1    6.605      44.965
2015    7       30    20  18    5.3790   472.2    6.596      44.972
2015    7       30    20  24    5.3783   472.4    6.587      44.979
2015    7       30    20  30    5.3775   472.6    6.578      44.987
2015    7       30    20  36    5.3767   472.8    6.569      44.994
2015    7       30    20  42    5.3758   472.9    6.560      45.002
2015    7       30    20  49    5.3750   473.1    6.551      45.009
2015    7       30    20  55    5.3742   473.3    6.542      45.016
2015    7       30    21   1    5.3733   473.4    6.534      45.024
2015    7       30    21   7    5.3724   473.6    6.525      45.031
2015    7       30    21  13    5.3715   473.8    6.516      45.039
2015    7       30    21  19    5.3706   474.0    6.507      45.047
2015    7       30    21  25    5.3697   474.1    6.498      45.055
2015    7       30    21  31    5.3688   474.3    6.490      45.063
2015    7       30    21  38    5.3678   474.5    6.481      45.072
2015    7       30    21  44    5.3669   474.6    6.472      45.080
2015    7       30    21  50    5.3659   474.8    6.464      45.088
2015    7       30    21  56    5.3649   475.0    6.455      45.097
2015    7       30    22   2    5.3639   475.2    6.446      45.105
2015    7       30    22   8    5.3629   475.3    6.438      45.114
2015    7       30    22  14    5.3618   475.5    6.429      45.122
2015    7       30    22  20    5.3608   475.7    6.421      45.131
2015    7       30    22  26    5.3597   475.8    6.412      45.139
2015    7       30    22  33    5.3586   476.0    6.404      45.147
2015    7       30    22  39    5.3575   476.2    6.396      45.156
2015    7       30    22  45    5.3564   476.3    6.388      45.164
2015    7       30    22  51    5.3552   476.5    6.379      45.172
2015    7       30    22  57    5.3541   476.7    6.371      45.181
2015    7       30    23   3    5.3529   476.8    6.363      45.189
2015    7       30    23   9    5.3517   477.0    6.355      45.197
2015    7       30    23  15    5.3505   477.2    6.347      45.206
2015    7       30    23  22    5.3492   477.3    6.340      45.214
2015    7       30    23  28    5.3480   477.5    6.332      45.222
2015    7       30    23  34    5.3468   477.7    6.324      45.231
2015    7       30    23  40    5.3455   477.8    6.317      45.239
2015    7       30    23  46    5.3443   478.0    6.309      45.248
2015    7       30    23  52    5.3430   478.1    6.302      45.256
2015    7       30    23  58    5.3417   478.3    6.294      45.265
2015    7       31     0   4    5.3405   478.5    6.287      45.274
