year    month   day   hour  minute  B_enl V_enl   n_enl       T_enl
[year] [month] [day] [hour][minute] [nT]  [km/s]  [cm-3]      [kK]
2015    3       22     0   1    4.5135   536.6    4.257      48.237
2015    3       22     0   6    4.5125   536.6    4.257      48.207
2015    3       22     0  12    4.5115   536.5    4.257      48.177
2015    3       22     0  17    4.5105   536.4    4.256      48.147
2015    3       22     0  23    4.5095   536.3    4.256      48.117
2015    3       22     0  28    4.5085   536.2    4.256      48.088
2015    3       22     0  34    4.5075   536.1    4.256      48.059
2015    3       22     0  40    4.5064   536.0    4.256      48.030
2015    3       22     0  45    4.5054   535.9    4.256      48.002
2015    3       22     0  51    4.5043   535.8    4.256      47.974
2015    3       22     0  56    4.5033   535.7    4.256      47.946
2015    3       22     1   2    4.5022   535.7    4.256      47.918
2015    3       22     1   8    4.5011   535.6    4.256      47.890
2015    3       22     1  13    4.5000   535.5    4.256      47.862
2015    3       22     1  19    4.4989   535.4    4.257      47.835
2015    3       22     1  24    4.4978   535.3    4.257      47.808
2015    3       22     1  30    4.4967   535.2    4.257      47.780
2015    3       22     1  36    4.4956   535.1    4.257      47.753
2015    3       22     1  41    4.4945   535.0    4.257      47.726
2015    3       22     1  47    4.4934   534.9    4.257      47.699
2015    3       22     1  52    4.4922   534.8    4.258      47.672
2015    3       22     1  58    4.4911   534.7    4.258      47.645
2015    3       22     2   4    4.4900   534.6    4.258      47.618
2015    3       22     2   9    4.4888   534.5    4.258      47.590
2015    3       22     2  15    4.4877   534.4    4.258      47.563
2015    3       22     2  20    4.4865   534.3    4.258      47.536
2015    3       22     2  26    4.4854   534.2    4.258      47.508
2015    3       22     2  32    4.4842   534.1    4.258      47.480
2015    3       22     2  37    4.4831   534.0    4.258      47.452
2015    3       22     2  43    4.4819   533.9    4.258      47.423
2015    3       22     2  48    4.4808   533.8    4.258      47.395
2015    3       22     2  54    4.4797   533.7    4.258      47.366
2015    3       22     3   0    4.4786   533.6    4.258      47.337
2015    3       22     3   5    4.4775   533.5    4.258      47.308
2015    3       22     3  11    4.4764   533.4    4.258      47.278
2015    3       22     3  16    4.4753   533.3    4.257      47.248
2015    3       22     3  22    4.4742   533.1    4.257      47.218
2015    3       22     3  27    4.4731   533.0    4.257      47.188
2015    3       22     3  33    4.4721   532.9    4.257      47.157
2015    3       22     3  39    4.4710   532.8    4.256      47.126
2015    3       22     3  44    4.4700   532.7    4.256      47.095
2015    3       22     3  50    4.4690   532.6    4.256      47.063
2015    3       22     3  55    4.4681   532.5    4.255      47.031
2015    3       22     4   1    4.4671   532.4    4.255      46.999
2015    3       22     4   7    4.4662   532.2    4.255      46.966
2015    3       22     4  12    4.4653   532.1    4.254      46.933
2015    3       22     4  18    4.4644   532.0    4.254      46.900
2015    3       22     4  23    4.4635   531.9    4.253      46.866
2015    3       22     4  29    4.4627   531.8    4.253      46.833
2015    3       22     4  35    4.4618   531.7    4.252      46.798
2015    3       22     4  40    4.4610   531.5    4.252      46.764
2015    3       22     4  46    4.4602   531.4    4.251      46.729
2015    3       22     4  51    4.4595   531.3    4.251      46.694
2015    3       22     4  57    4.4587   531.2    4.250      46.659
2015    3       22     5   3    4.4580   531.1    4.250      46.624
2015    3       22     5   8    4.4573   531.0    4.249      46.589
2015    3       22     5  14    4.4566   530.8    4.249      46.553
2015    3       22     5  19    4.4559   530.7    4.248      46.517
2015    3       22     5  25    4.4552   530.6    4.248      46.481
2015    3       22     5  31    4.4545   530.5    4.247      46.445
2015    3       22     5  36    4.4538   530.4    4.247      46.409
2015    3       22     5  42    4.4531   530.2    4.246      46.373
2015    3       22     5  47    4.4524   530.1    4.246      46.337
2015    3       22     5  53    4.4518   530.0    4.245      46.301
2015    3       22     5  58    4.4511   529.9    4.245      46.264
2015    3       22     6   4    4.4504   529.8    4.244      46.228
2015    3       22     6  10    4.4498   529.6    4.244      46.192
2015    3       22     6  15    4.4491   529.5    4.243      46.156
2015    3       22     6  21    4.4484   529.4    4.243      46.119
2015    3       22     6  26    4.4477   529.3    4.242      46.083
2015    3       22     6  32    4.4470   529.2    4.242      46.047
2015    3       22     6  38    4.4464   529.0    4.242      46.011
2015    3       22     6  43    4.4457   528.9    4.241      45.974
2015    3       22     6  49    4.4450   528.8    4.241      45.938
2015    3       22     6  54    4.4443   528.7    4.241      45.901
2015    3       22     7   0    4.4435   528.5    4.240      45.865
2015    3       22     7   6    4.4428   528.4    4.240      45.828
2015    3       22     7  11    4.4421   528.3    4.239      45.792
2015    3       22     7  17    4.4414   528.2    4.239      45.755
2015    3       22     7  22    4.4406   528.0    4.239      45.719
2015    3       22     7  28    4.4399   527.9    4.238      45.682
2015    3       22     7  34    4.4391   527.8    4.238      45.645
2015    3       22     7  39    4.4384   527.7    4.238      45.609
2015    3       22     7  45    4.4376   527.5    4.238      45.572
2015    3       22     7  50    4.4368   527.4    4.237      45.535
2015    3       22     7  56    4.4361   527.3    4.237      45.498
2015    3       22     8   2    4.4353   527.1    4.237      45.462
2015    3       22     8   7    4.4345   527.0    4.237      45.425
2015    3       22     8  13    4.4337   526.9    4.237      45.388
2015    3       22     8  18    4.4330   526.7    4.236      45.352
2015    3       22     8  24    4.4322   526.6    4.236      45.315
2015    3       22     8  29    4.4314   526.5    4.236      45.279
2015    3       22     8  35    4.4306   526.3    4.236      45.242
2015    3       22     8  41    4.4298   526.2    4.236      45.206
2015    3       22     8  46    4.4291   526.0    4.237      45.170
2015    3       22     8  52    4.4283   525.9    4.237      45.135
2015    3       22     8  57    4.4275   525.8    4.237      45.099
2015    3       22     9   3    4.4267   525.6    4.237      45.064
2015    3       22     9   9    4.4259   525.5    4.237      45.030
2015    3       22     9  14    4.4252   525.3    4.238      44.995
2015    3       22     9  20    4.4244   525.2    4.238      44.961
2015    3       22     9  25    4.4237   525.0    4.239      44.928
2015    3       22     9  31    4.4229   524.9    4.239      44.894
2015    3       22     9  37    4.4222   524.7    4.240      44.861
2015    3       22     9  42    4.4214   524.6    4.241      44.829
2015    3       22     9  48    4.4207   524.4    4.242      44.797
2015    3       22     9  53    4.4200   524.3    4.242      44.766
2015    3       22     9  59    4.4193   524.1    4.243      44.734
2015    3       22    10   5    4.4187   524.0    4.244      44.704
2015    3       22    10  10    4.4180   523.8    4.245      44.673
2015    3       22    10  16    4.4173   523.7    4.246      44.643
2015    3       22    10  21    4.4167   523.5    4.247      44.613
2015    3       22    10  27    4.4161   523.4    4.248      44.584
2015    3       22    10  33    4.4155   523.2    4.250      44.555
2015    3       22    10  38    4.4150   523.1    4.251      44.526
2015    3       22    10  44    4.4145   522.9    4.252      44.497
2015    3       22    10  49    4.4139   522.7    4.253      44.468
2015    3       22    10  55    4.4135   522.6    4.254      44.440
2015    3       22    11   0    4.4130   522.4    4.255      44.411
2015    3       22    11   6    4.4125   522.3    4.257      44.383
2015    3       22    11  12    4.4121   522.1    4.258      44.354
2015    3       22    11  17    4.4117   522.0    4.259      44.325
2015    3       22    11  23    4.4113   521.8    4.260      44.297
2015    3       22    11  28    4.4109   521.6    4.261      44.268
2015    3       22    11  34    4.4105   521.5    4.262      44.239
2015    3       22    11  40    4.4102   521.3    4.263      44.211
2015    3       22    11  45    4.4098   521.1    4.264      44.181
2015    3       22    11  51    4.4095   521.0    4.265      44.152
2015    3       22    11  56    4.4092   520.8    4.266      44.123
2015    3       22    12   2    4.4089   520.7    4.267      44.093
2015    3       22    12   8    4.4086   520.5    4.268      44.063
2015    3       22    12  13    4.4084   520.3    4.269      44.033
2015    3       22    12  19    4.4081   520.2    4.270      44.003
2015    3       22    12  24    4.4079   520.0    4.270      43.973
2015    3       22    12  30    4.4077   519.8    4.271      43.943
2015    3       22    12  36    4.4074   519.7    4.272      43.912
2015    3       22    12  41    4.4072   519.5    4.273      43.881
2015    3       22    12  47    4.4070   519.3    4.274      43.850
2015    3       22    12  52    4.4068   519.2    4.274      43.819
2015    3       22    12  58    4.4066   519.0    4.275      43.788
2015    3       22    13   4    4.4064   518.9    4.276      43.757
2015    3       22    13   9    4.4063   518.7    4.276      43.725
2015    3       22    13  15    4.4061   518.5    4.277      43.693
2015    3       22    13  20    4.4059   518.4    4.278      43.661
2015    3       22    13  26    4.4057   518.2    4.278      43.629
2015    3       22    13  31    4.4055   518.0    4.279      43.597
2015    3       22    13  37    4.4054   517.9    4.279      43.564
2015    3       22    13  43    4.4052   517.7    4.280      43.532
2015    3       22    13  48    4.4051   517.5    4.281      43.499
2015    3       22    13  54    4.4049   517.3    4.281      43.466
2015    3       22    13  59    4.4048   517.2    4.282      43.433
2015    3       22    14   5    4.4046   517.0    4.282      43.400
2015    3       22    14  11    4.4045   516.8    4.283      43.367
2015    3       22    14  16    4.4044   516.7    4.283      43.333
2015    3       22    14  22    4.4043   516.5    4.284      43.300
2015    3       22    14  27    4.4041   516.3    4.285      43.266
2015    3       22    14  33    4.4040   516.1    4.285      43.233
2015    3       22    14  39    4.4039   516.0    4.286      43.199
2015    3       22    14  44    4.4038   515.8    4.287      43.166
2015    3       22    14  50    4.4038   515.6    4.287      43.132
2015    3       22    14  55    4.4037   515.5    4.288      43.098
2015    3       22    15   1    4.4036   515.3    4.289      43.065
2015    3       22    15   7    4.4036   515.1    4.290      43.031
2015    3       22    15  12    4.4036   514.9    4.291      42.998
2015    3       22    15  18    4.4036   514.7    4.292      42.964
2015    3       22    15  23    4.4035   514.6    4.293      42.931
2015    3       22    15  29    4.4035   514.4    4.294      42.897
2015    3       22    15  35    4.4036   514.2    4.295      42.864
2015    3       22    15  40    4.4036   514.0    4.296      42.831
2015    3       22    15  46    4.4036   513.8    4.297      42.798
2015    3       22    15  51    4.4037   513.6    4.299      42.766
2015    3       22    15  57    4.4037   513.5    4.300      42.733
2015    3       22    16   2    4.4038   513.3    4.302      42.701
2015    3       22    16   8    4.4039   513.1    4.303      42.669
2015    3       22    16  14    4.4040   512.9    4.305      42.638
2015    3       22    16  19    4.4041   512.7    4.307      42.607
2015    3       22    16  25    4.4043   512.5    4.309      42.576
2015    3       22    16  30    4.4045   512.3    4.311      42.546
2015    3       22    16  36    4.4047   512.1    4.313      42.516
2015    3       22    16  42    4.4048   511.9    4.315      42.486
2015    3       22    16  47    4.4051   511.7    4.318      42.458
2015    3       22    16  53    4.4053   511.5    4.320      42.429
2015    3       22    16  58    4.4056   511.3    4.323      42.402
2015    3       22    17   4    4.4059   511.1    4.326      42.375
2015    3       22    17  10    4.4063   511.0    4.328      42.348
2015    3       22    17  15    4.4067   510.8    4.331      42.323
2015    3       22    17  21    4.4071   510.6    4.335      42.298
2015    3       22    17  26    4.4075   510.4    4.338      42.274
2015    3       22    17  32    4.4080   510.2    4.341      42.251
2015    3       22    17  38    4.4085   510.0    4.345      42.228
2015    3       22    17  43    4.4090   509.8    4.348      42.206
2015    3       22    17  49    4.4096   509.6    4.352      42.185
2015    3       22    17  54    4.4102   509.4    4.355      42.165
2015    3       22    18   0    4.4108   509.2    4.359      42.145
2015    3       22    18   6    4.4114   509.0    4.363      42.126
2015    3       22    18  11    4.4120   508.8    4.366      42.106
2015    3       22    18  17    4.4127   508.6    4.370      42.087
2015    3       22    18  22    4.4134   508.4    4.374      42.069
2015    3       22    18  28    4.4141   508.3    4.378      42.050
2015    3       22    18  33    4.4148   508.1    4.381      42.031
2015    3       22    18  39    4.4155   507.9    4.385      42.012
2015    3       22    18  45    4.4162   507.7    4.388      41.993
2015    3       22    18  50    4.4170   507.5    4.392      41.974
2015    3       22    18  56    4.4177   507.3    4.396      41.955
2015    3       22    19   1    4.4185   507.1    4.399      41.935
2015    3       22    19   7    4.4193   506.9    4.403      41.916
2015    3       22    19  13    4.4202   506.7    4.406      41.896
2015    3       22    19  18    4.4210   506.5    4.409      41.876
2015    3       22    19  24    4.4219   506.3    4.413      41.856
2015    3       22    19  29    4.4227   506.1    4.416      41.836
2015    3       22    19  35    4.4237   505.9    4.419      41.816
2015    3       22    19  41    4.4246   505.7    4.423      41.795
2015    3       22    19  46    4.4255   505.5    4.426      41.775
2015    3       22    19  52    4.4265   505.3    4.429      41.754
2015    3       22    19  57    4.4275   505.1    4.432      41.734
2015    3       22    20   3    4.4286   504.9    4.435      41.713
2015    3       22    20   9    4.4296   504.7    4.439      41.692
2015    3       22    20  14    4.4307   504.5    4.442      41.671
2015    3       22    20  20    4.4319   504.3    4.445      41.651
2015    3       22    20  25    4.4330   504.1    4.448      41.630
2015    3       22    20  31    4.4343   503.9    4.451      41.609
2015    3       22    20  37    4.4355   503.7    4.455      41.589
2015    3       22    20  42    4.4368   503.5    4.458      41.569
2015    3       22    20  48    4.4381   503.3    4.461      41.549
2015    3       22    20  53    4.4395   503.0    4.465      41.530
2015    3       22    20  59    4.4409   502.8    4.468      41.511
2015    3       22    21   4    4.4424   502.6    4.472      41.492
2015    3       22    21  10    4.4439   502.5    4.475      41.474
2015    3       22    21  16    4.4455   502.3    4.479      41.456
2015    3       22    21  21    4.4470   502.1    4.483      41.439
2015    3       22    21  27    4.4487   501.9    4.487      41.423
2015    3       22    21  32    4.4504   501.7    4.491      41.407
2015    3       22    21  38    4.4521   501.5    4.495      41.392
2015    3       22    21  44    4.4538   501.3    4.499      41.378
2015    3       22    21  49    4.4556   501.1    4.503      41.365
2015    3       22    21  55    4.4574   500.9    4.508      41.352
2015    3       22    22   0    4.4592   500.7    4.512      41.339
2015    3       22    22   6    4.4611   500.6    4.517      41.328
2015    3       22    22  12    4.4630   500.4    4.521      41.316
2015    3       22    22  17    4.4648   500.2    4.526      41.306
2015    3       22    22  23    4.4667   500.0    4.531      41.295
2015    3       22    22  28    4.4686   499.8    4.536      41.286
2015    3       22    22  34    4.4705   499.7    4.541      41.276
2015    3       22    22  40    4.4724   499.5    4.546      41.267
2015    3       22    22  45    4.4743   499.3    4.551      41.258
2015    3       22    22  51    4.4762   499.1    4.556      41.249
2015    3       22    22  56    4.4782   499.0    4.562      41.240
2015    3       22    23   2    4.4801   498.8    4.567      41.231
2015    3       22    23   8    4.4820   498.6    4.572      41.223
2015    3       22    23  13    4.4839   498.4    4.578      41.214
2015    3       22    23  19    4.4859   498.3    4.583      41.205
2015    3       22    23  24    4.4879   498.1    4.589      41.197
2015    3       22    23  30    4.4898   497.9    4.594      41.188
2015    3       22    23  35    4.4918   497.8    4.600      41.179
2015    3       22    23  41    4.4939   497.6    4.605      41.170
2015    3       22    23  47    4.4959   497.4    4.611      41.161
2015    3       22    23  52    4.4979   497.2    4.617      41.152
2015    3       22    23  58    4.5000   497.1    4.623      41.143
2015    3       23     0   3    4.5021   496.9    4.629      41.134
2015    3       23     0   9    4.5042   496.7    4.635      41.125
2015    3       23     0  15    4.5064   496.5    4.641      41.117
2015    3       23     0  20    4.5086   496.4    4.647      41.109
2015    3       23     0  26    4.5108   496.2    4.653      41.102
2015    3       23     0  31    4.5131   496.0    4.660      41.094
2015    3       23     0  37    4.5154   495.9    4.666      41.088
2015    3       23     0  43    4.5177   495.7    4.673      41.082
2015    3       23     0  48    4.5201   495.5    4.679      41.077
2015    3       23     0  54    4.5225   495.4    4.686      41.072
2015    3       23     0  59    4.5249   495.2    4.692      41.069
2015    3       23     1   5    4.5274   495.0    4.699      41.066
2015    3       23     1  11    4.5299   494.9    4.705      41.064
2015    3       23     1  16    4.5324   494.7    4.712      41.063
2015    3       23     1  22    4.5349   494.6    4.719      41.062
2015    3       23     1  27    4.5374   494.4    4.725      41.061
2015    3       23     1  33    4.5400   494.3    4.732      41.060
2015    3       23     1  39    4.5426   494.1    4.739      41.060
2015    3       23     1  44    4.5452   493.9    4.745      41.059
2015    3       23     1  50    4.5478   493.8    4.752      41.059
2015    3       23     1  55    4.5505   493.6    4.758      41.059
2015    3       23     2   1    4.5532   493.5    4.765      41.058
2015    3       23     2   6    4.5559   493.3    4.772      41.058
2015    3       23     2  12    4.5586   493.2    4.778      41.059
2015    3       23     2  18    4.5613   493.1    4.785      41.059
2015    3       23     2  23    4.5641   492.9    4.792      41.059
2015    3       23     2  29    4.5669   492.8    4.799      41.060
2015    3       23     2  34    4.5697   492.6    4.805      41.060
2015    3       23     2  40    4.5725   492.5    4.812      41.061
2015    3       23     2  46    4.5754   492.3    4.819      41.062
2015    3       23     2  51    4.5783   492.2    4.826      41.063
2015    3       23     2  57    4.5812   492.0    4.833      41.064
2015    3       23     3   2    4.5841   491.9    4.840      41.065
2015    3       23     3   8    4.5870   491.7    4.846      41.067
2015    3       23     3  14    4.5900   491.6    4.853      41.069
2015    3       23     3  19    4.5930   491.5    4.861      41.071
2015    3       23     3  25    4.5961   491.3    4.868      41.074
2015    3       23     3  30    4.5991   491.2    4.875      41.078
2015    3       23     3  36    4.6022   491.1    4.882      41.081
2015    3       23     3  42    4.6054   490.9    4.889      41.086
2015    3       23     3  47    4.6085   490.8    4.896      41.092
2015    3       23     3  53    4.6117   490.7    4.903      41.099
2015    3       23     3  58    4.6149   490.5    4.910      41.107
2015    3       23     4   4    4.6181   490.4    4.917      41.116
2015    3       23     4  10    4.6213   490.3    4.924      41.126
2015    3       23     4  15    4.6246   490.2    4.930      41.136
2015    3       23     4  21    4.6279   490.1    4.937      41.146
2015    3       23     4  26    4.6313   489.9    4.944      41.157
2015    3       23     4  32    4.6346   489.8    4.951      41.168
2015    3       23     4  37    4.6380   489.7    4.958      41.180
2015    3       23     4  43    4.6414   489.6    4.964      41.191
2015    3       23     4  49    4.6449   489.5    4.971      41.204
2015    3       23     4  54    4.6484   489.4    4.978      41.217
2015    3       23     5   0    4.6518   489.3    4.985      41.230
2015    3       23     5   5    4.6554   489.2    4.992      41.244
2015    3       23     5  11    4.6589   489.1    4.999      41.258
2015    3       23     5  17    4.6624   489.0    5.006      41.272
2015    3       23     5  22    4.6659   488.9    5.013      41.287
2015    3       23     5  28    4.6694   488.8    5.020      41.302
2015    3       23     5  33    4.6729   488.7    5.027      41.317
2015    3       23     5  39    4.6764   488.6    5.034      41.333
2015    3       23     5  45    4.6799   488.5    5.041      41.349
2015    3       23     5  50    4.6834   488.4    5.048      41.365
2015    3       23     5  56    4.6868   488.4    5.055      41.381
2015    3       23     6   1    4.6903   488.3    5.062      41.397
2015    3       23     6   7    4.6938   488.2    5.069      41.412
2015    3       23     6  13    4.6972   488.1    5.076      41.428
2015    3       23     6  18    4.7007   488.0    5.083      41.444
2015    3       23     6  24    4.7041   488.0    5.090      41.459
2015    3       23     6  29    4.7076   487.9    5.098      41.474
2015    3       23     6  35    4.7110   487.8    5.105      41.489
2015    3       23     6  41    4.7145   487.7    5.112      41.503
2015    3       23     6  46    4.7179   487.7    5.119      41.517
2015    3       23     6  52    4.7214   487.6    5.126      41.530
2015    3       23     6  57    4.7248   487.5    5.133      41.544
2015    3       23     7   3    4.7283   487.4    5.140      41.556
2015    3       23     7   8    4.7317   487.4    5.147      41.569
2015    3       23     7  14    4.7352   487.3    5.154      41.581
2015    3       23     7  20    4.7386   487.2    5.161      41.594
2015    3       23     7  25    4.7421   487.1    5.168      41.606
2015    3       23     7  31    4.7456   487.1    5.175      41.618
2015    3       23     7  36    4.7491   487.0    5.182      41.630
2015    3       23     7  42    4.7527   486.9    5.189      41.643
2015    3       23     7  48    4.7562   486.9    5.196      41.656
2015    3       23     7  53    4.7598   486.8    5.203      41.669
2015    3       23     7  59    4.7633   486.7    5.210      41.682
2015    3       23     8   4    4.7669   486.7    5.217      41.696
2015    3       23     8  10    4.7706   486.6    5.224      41.710
2015    3       23     8  16    4.7742   486.5    5.231      41.725
2015    3       23     8  21    4.7779   486.5    5.238      41.740
2015    3       23     8  27    4.7816   486.4    5.244      41.756
2015    3       23     8  32    4.7852   486.4    5.251      41.773
2015    3       23     8  38    4.7889   486.3    5.258      41.789
2015    3       23     8  44    4.7927   486.2    5.265      41.806
2015    3       23     8  49    4.7964   486.2    5.272      41.823
2015    3       23     8  55    4.8002   486.1    5.279      41.840
2015    3       23     9   0    4.8039   486.1    5.286      41.857
2015    3       23     9   6    4.8077   486.0    5.293      41.875
2015    3       23     9  12    4.8115   486.0    5.300      41.892
2015    3       23     9  17    4.8153   485.9    5.307      41.910
2015    3       23     9  23    4.8191   485.9    5.314      41.929
2015    3       23     9  28    4.8229   485.8    5.321      41.947
2015    3       23     9  34    4.8268   485.8    5.328      41.965
2015    3       23     9  39    4.8306   485.8    5.336      41.984
2015    3       23     9  45    4.8345   485.7    5.343      42.003
2015    3       23     9  51    4.8384   485.7    5.351      42.022
2015    3       23     9  56    4.8422   485.6    5.358      42.041
2015    3       23    10   2    4.8461   485.6    5.366      42.061
2015    3       23    10   7    4.8501   485.6    5.374      42.081
2015    3       23    10  13    4.8540   485.5    5.382      42.101
2015    3       23    10  19    4.8579   485.5    5.390      42.122
2015    3       23    10  24    4.8619   485.4    5.398      42.144
2015    3       23    10  30    4.8658   485.4    5.406      42.166
2015    3       23    10  35    4.8697   485.4    5.415      42.188
2015    3       23    10  41    4.8737   485.4    5.423      42.212
2015    3       23    10  47    4.8776   485.3    5.431      42.237
2015    3       23    10  52    4.8814   485.3    5.440      42.262
2015    3       23    10  58    4.8853   485.3    5.448      42.290
2015    3       23    11   3    4.8891   485.3    5.456      42.319
2015    3       23    11   9    4.8929   485.3    5.463      42.349
2015    3       23    11  15    4.8967   485.3    5.471      42.380
2015    3       23    11  20    4.9004   485.2    5.478      42.411
2015    3       23    11  26    4.9041   485.2    5.485      42.441
2015    3       23    11  31    4.9078   485.2    5.492      42.471
2015    3       23    11  37    4.9115   485.2    5.498      42.500
2015    3       23    11  43    4.9151   485.2    5.505      42.529
2015    3       23    11  48    4.9188   485.2    5.511      42.556
2015    3       23    11  54    4.9224   485.2    5.516      42.583
2015    3       23    11  59    4.9260   485.2    5.522      42.609
2015    3       23    12   5    4.9296   485.1    5.527      42.635
2015    3       23    12  10    4.9331   485.1    5.533      42.660
2015    3       23    12  16    4.9367   485.1    5.538      42.684
2015    3       23    12  22    4.9403   485.1    5.543      42.709
2015    3       23    12  27    4.9439   485.1    5.548      42.732
2015    3       23    12  33    4.9474   485.1    5.553      42.755
2015    3       23    12  38    4.9510   485.1    5.557      42.777
2015    3       23    12  44    4.9545   485.1    5.562      42.800
2015    3       23    12  50    4.9581   485.1    5.566      42.822
2015    3       23    12  55    4.9617   485.0    5.571      42.843
2015    3       23    13   1    4.9653   485.0    5.575      42.864
2015    3       23    13   6    4.9688   485.0    5.580      42.886
2015    3       23    13  12    4.9724   485.0    5.584      42.907
2015    3       23    13  18    4.9760   485.0    5.588      42.927
2015    3       23    13  23    4.9796   485.0    5.592      42.948
2015    3       23    13  29    4.9832   485.0    5.597      42.968
2015    3       23    13  34    4.9867   485.0    5.601      42.989
2015    3       23    13  40    4.9903   485.0    5.605      43.009
2015    3       23    13  46    4.9939   485.0    5.609      43.029
2015    3       23    13  51    4.9975   485.0    5.613      43.049
2015    3       23    13  57    5.0011   485.0    5.617      43.069
2015    3       23    14   2    5.0048   485.0    5.622      43.089
2015    3       23    14   8    5.0084   485.0    5.626      43.109
2015    3       23    14  14    5.0120   485.0    5.630      43.128
2015    3       23    14  19    5.0156   485.0    5.634      43.148
2015    3       23    14  25    5.0192   485.1    5.638      43.167
2015    3       23    14  30    5.0228   485.1    5.643      43.187
2015    3       23    14  36    5.0264   485.1    5.647      43.206
2015    3       23    14  41    5.0301   485.1    5.651      43.225
2015    3       23    14  47    5.0337   485.1    5.655      43.244
2015    3       23    14  53    5.0373   485.1    5.660      43.264
2015    3       23    14  58    5.0410   485.1    5.664      43.283
2015    3       23    15   4    5.0446   485.1    5.668      43.303
2015    3       23    15   9    5.0483   485.1    5.673      43.323
2015    3       23    15  15    5.0519   485.2    5.677      43.343
2015    3       23    15  21    5.0556   485.2    5.681      43.364
2015    3       23    15  26    5.0592   485.2    5.686      43.385
2015    3       23    15  32    5.0629   485.2    5.690      43.406
2015    3       23    15  37    5.0666   485.2    5.695      43.427
2015    3       23    15  43    5.0702   485.3    5.699      43.449
2015    3       23    15  49    5.0739   485.3    5.704      43.470
2015    3       23    15  54    5.0776   485.3    5.708      43.492
2015    3       23    16   0    5.0813   485.3    5.713      43.515
2015    3       23    16   5    5.0850   485.4    5.717      43.537
2015    3       23    16  11    5.0887   485.4    5.722      43.560
2015    3       23    16  17    5.0923   485.4    5.726      43.583
2015    3       23    16  22    5.0960   485.4    5.731      43.607
2015    3       23    16  28    5.0997   485.5    5.736      43.630
2015    3       23    16  33    5.1034   485.5    5.740      43.654
2015    3       23    16  39    5.1071   485.5    5.745      43.677
2015    3       23    16  45    5.1108   485.6    5.749      43.701
2015    3       23    16  50    5.1144   485.6    5.754      43.724
2015    3       23    16  56    5.1181   485.6    5.759      43.747
2015    3       23    17   1    5.1218   485.6    5.763      43.770
2015    3       23    17   7    5.1255   485.7    5.768      43.793
2015    3       23    17  12    5.1292   485.7    5.773      43.816
2015    3       23    17  18    5.1329   485.7    5.778      43.839
2015    3       23    17  24    5.1366   485.8    5.783      43.863
2015    3       23    17  29    5.1403   485.8    5.788      43.887
2015    3       23    17  35    5.1440   485.8    5.793      43.911
2015    3       23    17  40    5.1477   485.9    5.798      43.935
2015    3       23    17  46    5.1514   485.9    5.804      43.960
2015    3       23    17  52    5.1551   485.9    5.809      43.985
2015    3       23    17  57    5.1588   486.0    5.815      44.011
2015    3       23    18   3    5.1625   486.0    5.820      44.038
2015    3       23    18   8    5.1661   486.1    5.825      44.065
2015    3       23    18  14    5.1697   486.1    5.831      44.094
2015    3       23    18  20    5.1734   486.1    5.836      44.124
2015    3       23    18  25    5.1770   486.2    5.841      44.154
2015    3       23    18  31    5.1806   486.2    5.846      44.185
2015    3       23    18  36    5.1842   486.3    5.851      44.215
2015    3       23    18  42    5.1877   486.3    5.856      44.245
2015    3       23    18  48    5.1913   486.4    5.861      44.274
2015    3       23    18  53    5.1948   486.4    5.866      44.304
2015    3       23    18  59    5.1984   486.4    5.870      44.333
2015    3       23    19   4    5.2019   486.5    5.875      44.362
2015    3       23    19  10    5.2054   486.5    5.879      44.390
2015    3       23    19  16    5.2090   486.6    5.884      44.418
2015    3       23    19  21    5.2125   486.6    5.888      44.446
2015    3       23    19  27    5.2160   486.6    5.892      44.474
2015    3       23    19  32    5.2195   486.7    5.896      44.502
2015    3       23    19  38    5.2230   486.7    5.900      44.530
2015    3       23    19  43    5.2265   486.8    5.904      44.557
2015    3       23    19  49    5.2300   486.8    5.908      44.584
2015    3       23    19  55    5.2335   486.9    5.911      44.611
2015    3       23    20   0    5.2370   486.9    5.915      44.636
2015    3       23    20   6    5.2405   486.9    5.918      44.661
2015    3       23    20  11    5.2439   487.0    5.921      44.685
2015    3       23    20  17    5.2474   487.0    5.924      44.709
2015    3       23    20  23    5.2509   487.1    5.926      44.731
2015    3       23    20  28    5.2544   487.1    5.929      44.753
2015    3       23    20  34    5.2579   487.1    5.932      44.775
2015    3       23    20  39    5.2614   487.2    5.934      44.796
2015    3       23    20  45    5.2649   487.2    5.936      44.817
2015    3       23    20  51    5.2684   487.2    5.939      44.837
2015    3       23    20  56    5.2719   487.3    5.941      44.857
2015    3       23    21   2    5.2754   487.3    5.943      44.877
2015    3       23    21   7    5.2789   487.4    5.945      44.897
2015    3       23    21  13    5.2825   487.4    5.947      44.916
2015    3       23    21  19    5.2860   487.5    5.949      44.936
2015    3       23    21  24    5.2896   487.5    5.951      44.955
2015    3       23    21  30    5.2931   487.5    5.953      44.974
2015    3       23    21  35    5.2967   487.6    5.955      44.993
2015    3       23    21  41    5.3003   487.6    5.957      45.012
2015    3       23    21  47    5.3039   487.7    5.958      45.031
2015    3       23    21  52    5.3075   487.7    5.960      45.050
2015    3       23    21  58    5.3110   487.8    5.962      45.069
2015    3       23    22   3    5.3147   487.8    5.964      45.087
2015    3       23    22   9    5.3183   487.9    5.966      45.106
2015    3       23    22  14    5.3219   487.9    5.967      45.125
2015    3       23    22  20    5.3255   488.0    5.969      45.144
2015    3       23    22  26    5.3292   488.0    5.971      45.163
2015    3       23    22  31    5.3328   488.1    5.973      45.182
2015    3       23    22  37    5.3365   488.1    5.975      45.201
2015    3       23    22  42    5.3401   488.2    5.977      45.220
2015    3       23    22  48    5.3438   488.2    5.979      45.239
2015    3       23    22  54    5.3475   488.3    5.981      45.258
2015    3       23    22  59    5.3512   488.4    5.983      45.278
2015    3       23    23   5    5.3549   488.4    5.985      45.298
2015    3       23    23  10    5.3586   488.5    5.987      45.318
2015    3       23    23  16    5.3623   488.5    5.989      45.338
2015    3       23    23  22    5.3661   488.6    5.991      45.358
2015    3       23    23  27    5.3698   488.7    5.994      45.379
2015    3       23    23  33    5.3735   488.7    5.996      45.400
2015    3       23    23  38    5.3773   488.8    5.998      45.422
2015    3       23    23  44    5.3810   488.9    6.000      45.444
2015    3       23    23  50    5.3848   488.9    6.003      45.465
2015    3       23    23  55    5.3886   489.0    6.005      45.488
2015    3       24     0   1    5.3923   489.1    6.007      45.510
2015    3       24     0   6    5.3961   489.1    6.009      45.532
2015    3       24     0  12    5.3999   489.2    6.012      45.554
2015    3       24     0  17    5.4038   489.3    6.014      45.577
2015    3       24     0  23    5.4076   489.3    6.016      45.600
2015    3       24     0  29    5.4114   489.4    6.018      45.623
2015    3       24     0  34    5.4153   489.5    6.021      45.646
2015    3       24     0  40    5.4192   489.6    6.023      45.670
2015    3       24     0  45    5.4230   489.6    6.026      45.694
2015    3       24     0  51    5.4270   489.7    6.028      45.719
2015    3       24     0  57    5.4309   489.8    6.031      45.743
2015    3       24     1   2    5.4348   489.8    6.033      45.769
2015    3       24     1   8    5.4388   489.9    6.036      45.794
2015    3       24     1  13    5.4428   490.0    6.039      45.820
2015    3       24     1  19    5.4468   490.1    6.042      45.847
2015    3       24     1  25    5.4508   490.2    6.044      45.874
2015    3       24     1  30    5.4548   490.2    6.047      45.901
2015    3       24     1  36    5.4589   490.3    6.051      45.929
2015    3       24     1  41    5.4629   490.4    6.054      45.958
2015    3       24     1  47    5.4670   490.5    6.057      45.987
2015    3       24     1  53    5.4711   490.6    6.061      46.016
2015    3       24     1  58    5.4752   490.7    6.064      46.046
2015    3       24     2   4    5.4793   490.7    6.068      46.077
2015    3       24     2   9    5.4834   490.8    6.072      46.108
2015    3       24     2  15    5.4875   490.9    6.075      46.141
2015    3       24     2  21    5.4917   491.0    6.079      46.174
2015    3       24     2  26    5.4959   491.1    6.083      46.208
2015    3       24     2  32    5.5000   491.2    6.088      46.243
2015    3       24     2  37    5.5042   491.3    6.092      46.278
2015    3       24     2  43    5.5084   491.4    6.096      46.314
2015    3       24     2  48    5.5126   491.5    6.100      46.351
2015    3       24     2  54    5.5169   491.6    6.105      46.388
2015    3       24     3   0    5.5211   491.7    6.109      46.426
2015    3       24     3   5    5.5253   491.8    6.113      46.464
2015    3       24     3  11    5.5296   491.8    6.118      46.503
2015    3       24     3  16    5.5339   491.9    6.122      46.542
2015    3       24     3  22    5.5382   492.0    6.126      46.580
2015    3       24     3  28    5.5425   492.1    6.130      46.619
2015    3       24     3  33    5.5468   492.2    6.135      46.657
2015    3       24     3  39    5.5512   492.3    6.139      46.696
2015    3       24     3  44    5.5556   492.4    6.143      46.734
2015    3       24     3  50    5.5600   492.5    6.148      46.773
2015    3       24     3  56    5.5645   492.6    6.152      46.811
2015    3       24     4   1    5.5690   492.7    6.157      46.849
2015    3       24     4   7    5.5734   492.8    6.161      46.889
2015    3       24     4  12    5.5779   492.9    6.166      46.928
2015    3       24     4  18    5.5824   493.0    6.171      46.968
2015    3       24     4  24    5.5870   493.1    6.175      47.008
2015    3       24     4  29    5.5915   493.2    6.180      47.049
2015    3       24     4  35    5.5960   493.3    6.185      47.089
2015    3       24     4  40    5.6005   493.4    6.189      47.131
2015    3       24     4  46    5.6050   493.5    6.194      47.173
2015    3       24     4  52    5.6095   493.6    6.198      47.217
2015    3       24     4  57    5.6140   493.8    6.203      47.261
2015    3       24     5   3    5.6185   493.9    6.207      47.306
2015    3       24     5   8    5.6230   494.0    6.211      47.352
2015    3       24     5  14    5.6275   494.1    6.214      47.399
2015    3       24     5  19    5.6320   494.2    6.218      47.444
2015    3       24     5  25    5.6364   494.3    6.221      47.489
2015    3       24     5  31    5.6409   494.5    6.224      47.533
2015    3       24     5  36    5.6454   494.6    6.227      47.577
2015    3       24     5  42    5.6498   494.7    6.230      47.620
2015    3       24     5  47    5.6543   494.8    6.232      47.662
2015    3       24     5  53    5.6588   494.9    6.234      47.703
2015    3       24     5  59    5.6632   495.1    6.237      47.744
2015    3       24     6   4    5.6677   495.2    6.238      47.785
2015    3       24     6  10    5.6722   495.3    6.240      47.825
2015    3       24     6  15    5.6767   495.4    6.242      47.864
2015    3       24     6  21    5.6811   495.5    6.243      47.903
2015    3       24     6  27    5.6856   495.7    6.245      47.941
2015    3       24     6  32    5.6901   495.8    6.246      47.978
2015    3       24     6  38    5.6946   495.9    6.247      48.016
2015    3       24     6  43    5.6991   496.1    6.248      48.052
2015    3       24     6  49    5.7036   496.2    6.249      48.089
2015    3       24     6  55    5.7081   496.3    6.250      48.124
2015    3       24     7   0    5.7126   496.4    6.250      48.160
2015    3       24     7   6    5.7171   496.6    6.251      48.195
2015    3       24     7  11    5.7216   496.7    6.251      48.230
2015    3       24     7  17    5.7261   496.9    6.251      48.264
2015    3       24     7  23    5.7306   497.0    6.252      48.298
2015    3       24     7  28    5.7351   497.1    6.252      48.332
2015    3       24     7  34    5.7396   497.3    6.252      48.366
2015    3       24     7  39    5.7441   497.4    6.252      48.399
2015    3       24     7  45    5.7486   497.6    6.252      48.433
2015    3       24     7  50    5.7531   497.7    6.252      48.466
2015    3       24     7  56    5.7576   497.9    6.252      48.499
2015    3       24     8   2    5.7621   498.0    6.252      48.533
2015    3       24     8   7    5.7667   498.2    6.252      48.566
2015    3       24     8  13    5.7712   498.3    6.252      48.600
2015    3       24     8  18    5.7757   498.5    6.252      48.634
2015    3       24     8  24    5.7803   498.6    6.252      48.668
2015    3       24     8  30    5.7848   498.8    6.252      48.702
2015    3       24     8  35    5.7894   498.9    6.252      48.736
2015    3       24     8  41    5.7940   499.1    6.252      48.771
2015    3       24     8  46    5.7985   499.3    6.252      48.806
2015    3       24     8  52    5.8031   499.4    6.252      48.842
2015    3       24     8  58    5.8077   499.6    6.253      48.878
2015    3       24     9   3    5.8123   499.7    6.253      48.914
2015    3       24     9   9    5.8168   499.9    6.254      48.952
2015    3       24     9  14    5.8214   500.1    6.254      48.989
2015    3       24     9  20    5.8261   500.2    6.255      49.028
2015    3       24     9  26    5.8307   500.4    6.255      49.067
2015    3       24     9  31    5.8353   500.6    6.256      49.107
2015    3       24     9  37    5.8399   500.7    6.257      49.149
2015    3       24     9  42    5.8446   500.9    6.258      49.191
2015    3       24     9  48    5.8494   501.1    6.260      49.235
2015    3       24     9  54    5.8541   501.3    6.261      49.280
2015    3       24     9  59    5.8589   501.5    6.262      49.327
2015    3       24    10   5    5.8638   501.6    6.264      49.374
2015    3       24    10  10    5.8687   501.8    6.266      49.423
2015    3       24    10  16    5.8736   502.0    6.268      49.473
2015    3       24    10  21    5.8787   502.2    6.270      49.525
2015    3       24    10  27    5.8838   502.4    6.273      49.579
2015    3       24    10  33    5.8890   502.6    6.275      49.634
2015    3       24    10  38    5.8942   502.8    6.278      49.691
2015    3       24    10  44    5.8995   503.0    6.282      49.749
2015    3       24    10  49    5.9049   503.2    6.285      49.810
2015    3       24    10  55    5.9104   503.4    6.289      49.872
2015    3       24    11   1    5.9159   503.6    6.293      49.937
2015    3       24    11   6    5.9215   503.8    6.297      50.003
2015    3       24    11  12    5.9271   504.0    6.302      50.071
2015    3       24    11  17    5.9328   504.2    6.307      50.141
2015    3       24    11  23    5.9385   504.4    6.312      50.213
2015    3       24    11  29    5.9443   504.6    6.318      50.287
2015    3       24    11  34    5.9501   504.8    6.324      50.364
2015    3       24    11  40    5.9559   505.1    6.330      50.442
2015    3       24    11  45    5.9618   505.3    6.336      50.523
2015    3       24    11  51    5.9677   505.5    6.343      50.605
2015    3       24    11  57    5.9736   505.7    6.350      50.690
2015    3       24    12   2    5.9795   505.9    6.357      50.779
2015    3       24    12   8    5.9854   506.1    6.364      50.871
2015    3       24    12  13    5.9913   506.4    6.372      50.966
2015    3       24    12  19    5.9973   506.6    6.379      51.063
2015    3       24    12  24    6.0032   506.8    6.386      51.162
2015    3       24    12  30    6.0092   507.1    6.393      51.265
2015    3       24    12  36    6.0151   507.3    6.400      51.369
2015    3       24    12  41    6.0210   507.5    6.407      51.474
2015    3       24    12  47    6.0268   507.8    6.413      51.579
2015    3       24    12  52    6.0326   508.0    6.418      51.686
2015    3       24    12  58    6.0384   508.3    6.423      51.793
2015    3       24    13   4    6.0441   508.5    6.428      51.897
2015    3       24    13   9    6.0497   508.8    6.432      51.998
2015    3       24    13  15    6.0553   509.0    6.435      52.097
2015    3       24    13  20    6.0607   509.2    6.438      52.192
2015    3       24    13  26    6.0661   509.5    6.440      52.285
2015    3       24    13  32    6.0715   509.7    6.442      52.375
2015    3       24    13  37    6.0767   510.0    6.444      52.462
2015    3       24    13  43    6.0819   510.2    6.444      52.547
2015    3       24    13  48    6.0870   510.5    6.445      52.629
2015    3       24    13  54    6.0920   510.8    6.445      52.708
2015    3       24    14   0    6.0970   511.0    6.444      52.785
2015    3       24    14   5    6.1019   511.3    6.443      52.859
2015    3       24    14  11    6.1067   511.5    6.442      52.931
2015    3       24    14  16    6.1115   511.8    6.441      53.001
2015    3       24    14  22    6.1162   512.0    6.439      53.068
2015    3       24    14  28    6.1208   512.3    6.437      53.133
2015    3       24    14  33    6.1254   512.5    6.434      53.197
2015    3       24    14  39    6.1300   512.8    6.431      53.259
2015    3       24    14  44    6.1345   513.0    6.428      53.319
2015    3       24    14  50    6.1390   513.3    6.425      53.377
2015    3       24    14  55    6.1435   513.5    6.422      53.434
2015    3       24    15   1    6.1479   513.8    6.418      53.490
2015    3       24    15   7    6.1523   514.1    6.415      53.544
2015    3       24    15  12    6.1567   514.3    6.411      53.597
2015    3       24    15  18    6.1611   514.6    6.407      53.649
2015    3       24    15  23    6.1654   514.8    6.403      53.700
2015    3       24    15  29    6.1697   515.1    6.399      53.750
2015    3       24    15  35    6.1741   515.3    6.395      53.799
2015    3       24    15  40    6.1784   515.6    6.390      53.847
2015    3       24    15  46    6.1827   515.8    6.386      53.895
2015    3       24    15  51    6.1870   516.1    6.382      53.943
2015    3       24    15  57    6.1912   516.3    6.378      53.989
2015    3       24    16   3    6.1955   516.6    6.373      54.036
2015    3       24    16   8    6.1998   516.8    6.369      54.082
2015    3       24    16  14    6.2040   517.1    6.365      54.128
2015    3       24    16  19    6.2083   517.3    6.361      54.174
2015    3       24    16  25    6.2126   517.6    6.357      54.220
2015    3       24    16  31    6.2168   517.8    6.353      54.266
2015    3       24    16  36    6.2211   518.1    6.349      54.312
2015    3       24    16  42    6.2255   518.3    6.345      54.358
2015    3       24    16  47    6.2298   518.6    6.342      54.404
2015    3       24    16  53    6.2342   518.9    6.339      54.451
2015    3       24    16  59    6.2386   519.1    6.336      54.499
2015    3       24    17   4    6.2431   519.4    6.333      54.548
2015    3       24    17  10    6.2476   519.6    6.331      54.599
2015    3       24    17  15    6.2522   519.9    6.329      54.651
2015    3       24    17  21    6.2569   520.2    6.327      54.705
2015    3       24    17  26    6.2615   520.4    6.326      54.761
2015    3       24    17  32    6.2663   520.7    6.326      54.820
2015    3       24    17  38    6.2711   521.0    6.326      54.882
2015    3       24    17  43    6.2761   521.2    6.326      54.947
2015    3       24    17  49    6.2810   521.5    6.328      55.016
2015    3       24    17  54    6.2861   521.8    6.329      55.089
2015    3       24    18   0    6.2913   522.1    6.332      55.167
2015    3       24    18   6    6.2966   522.4    6.335      55.249
2015    3       24    18  11    6.3020   522.7    6.339      55.335
2015    3       24    18  17    6.3075   523.0    6.344      55.425
2015    3       24    18  22    6.3132   523.3    6.349      55.520
2015    3       24    18  28    6.3191   523.6    6.356      55.622
2015    3       24    18  34    6.3252   523.9    6.363      55.732
2015    3       24    18  39    6.3314   524.3    6.371      55.851
2015    3       24    18  45    6.3378   524.6    6.380      55.976
2015    3       24    18  50    6.3444   524.9    6.390      56.107
2015    3       24    18  56    6.3513   525.2    6.401      56.246
2015    3       24    19   2    6.3582   525.6    6.412      56.397
2015    3       24    19   7    6.3654   526.0    6.424      56.559
2015    3       24    19  13    6.3725   526.4    6.436      56.731
2015    3       24    19  18    6.3798   526.8    6.447      56.914
2015    3       24    19  24    6.3869   527.2    6.458      57.108
2015    3       24    19  30    6.3940   527.7    6.469      57.309
2015    3       24    19  35    6.4009   528.1    6.479      57.508
2015    3       24    19  41    6.4077   528.5    6.489      57.704
2015    3       24    19  46    6.4143   529.0    6.498      57.897
2015    3       24    19  52    6.4207   529.4    6.506      58.088
2015    3       24    19  57    6.4270   529.9    6.513      58.277
2015    3       24    20   3    6.4331   530.4    6.519      58.463
2015    3       24    20   9    6.4389   530.9    6.524      58.647
2015    3       24    20  14    6.4445   531.4    6.527      58.828
2015    3       24    20  20    6.4498   531.9    6.530      59.003
2015    3       24    20  25    6.4550   532.4    6.531      59.171
2015    3       24    20  31    6.4598   532.9    6.531      59.331
2015    3       24    20  37    6.4644   533.4    6.530      59.485
2015    3       24    20  42    6.4688   533.9    6.527      59.632
2015    3       24    20  48    6.4729   534.4    6.524      59.773
2015    3       24    20  53    6.4769   534.9    6.520      59.908
2015    3       24    20  59    6.4807   535.4    6.515      60.038
2015    3       24    21   5    6.4844   535.9    6.509      60.163
2015    3       24    21  10    6.4880   536.3    6.503      60.285
2015    3       24    21  16    6.4915   536.8    6.496      60.403
2015    3       24    21  21    6.4950   537.3    6.489      60.519
2015    3       24    21  27    6.4983   537.7    6.481      60.632
2015    3       24    21  33    6.5017   538.2    6.473      60.743
2015    3       24    21  38    6.5050   538.6    6.465      60.853
2015    3       24    21  44    6.5083   539.1    6.456      60.962
2015    3       24    21  49    6.5116   539.5    6.447      61.070
2015    3       24    21  55    6.5149   539.9    6.438      61.176
2015    3       24    22   1    6.5182   540.4    6.429      61.282
2015    3       24    22   6    6.5216   540.9    6.419      61.386
2015    3       24    22  12    6.5249   541.3    6.409      61.489
2015    3       24    22  17    6.5283   541.8    6.399      61.590
2015    3       24    22  23    6.5316   542.2    6.388      61.689
2015    3       24    22  28    6.5350   542.7    6.378      61.786
2015    3       24    22  34    6.5383   543.1    6.367      61.880
2015    3       24    22  40    6.5417   543.6    6.356      61.972
2015    3       24    22  45    6.5450   544.1    6.345      62.060
2015    3       24    22  51    6.5483   544.5    6.334      62.147
2015    3       24    22  56    6.5516   545.0    6.322      62.229
2015    3       24    23   2    6.5549   545.5    6.310      62.308
2015    3       24    23   8    6.5580   546.0    6.298      62.383
2015    3       24    23  13    6.5612   546.5    6.286      62.456
2015    3       24    23  19    6.5643   546.9    6.274      62.526
2015    3       24    23  24    6.5673   547.4    6.261      62.594
2015    3       24    23  30    6.5703   548.0    6.249      62.657
2015    3       24    23  36    6.5732   548.5    6.236      62.718
2015    3       24    23  41    6.5760   549.0    6.223      62.775
2015    3       24    23  47    6.5788   549.5    6.210      62.829
2015    3       24    23  52    6.5815   550.0    6.196      62.881
2015    3       24    23  58    6.5841   550.5    6.183      62.930
2015    3       25     0   4    6.5867   551.1    6.169      62.978
2015    3       25     0   9    6.5891   551.6    6.155      63.023
2015    3       25     0  15    6.5914   552.1    6.141      63.068
2015    3       25     0  20    6.5936   552.7    6.126      63.113
2015    3       25     0  26    6.5956   553.3    6.111      63.160
2015    3       25     0  32    6.5973   553.8    6.096      63.203
2015    3       25     0  37    6.5987   554.3    6.081      63.239
2015    3       25     0  43    6.5999   554.9    6.065      63.269
2015    3       25     0  48    6.6011   555.3    6.051      63.296
2015    3       25     0  54    6.6022   555.8    6.037      63.316
2015    3       25     0  59    6.6033   556.2    6.025      63.331
2015    3       25     1   5    6.6046   556.6    6.014      63.353
2015    3       25     1  11    6.6063   556.9    6.005      63.383
2015    3       25     1  16    6.6082   557.3    5.997      63.418
2015    3       25     1  22    6.6104   557.7    5.990      63.459
2015    3       25     1  27    6.6129   558.0    5.985      63.507
2015    3       25     1  33    6.6157   558.3    5.982      63.561
2015    3       25     1  39    6.6188   558.7    5.980      63.621
2015    3       25     1  44    6.6223   559.0    5.979      63.694
2015    3       25     1  50    6.6259   559.3    5.980      63.784
2015    3       25     1  55    6.6297   559.7    5.981      63.888
2015    3       25     2   1    6.6337   560.1    5.984      64.006
2015    3       25     2   7    6.6380   560.5    5.988      64.136
2015    3       25     2  12    6.6424   560.9    5.992      64.289
2015    3       25     2  18    6.6468   561.5    5.997      64.467
2015    3       25     2  23    6.6511   562.0    6.001      64.665
2015    3       25     2  29    6.6555   562.6    6.006      64.878
2015    3       25     2  35    6.6595   563.2    6.010      65.106
2015    3       25     2  40    6.6632   563.9    6.013      65.346
2015    3       25     2  46    6.6665   564.5    6.015      65.586
2015    3       25     2  51    6.6696   565.1    6.016      65.815
2015    3       25     2  57    6.6721   565.7    6.016      66.032
2015    3       25     3   2    6.6744   566.3    6.015      66.239
2015    3       25     3   8    6.6763   567.0    6.013      66.439
2015    3       25     3  14    6.6779   567.6    6.009      66.633
2015    3       25     3  19    6.6791   568.2    6.005      66.821
2015    3       25     3  25    6.6802   568.9    6.000      67.004
2015    3       25     3  30    6.6809   569.5    5.994      67.183
2015    3       25     3  36    6.6815   570.2    5.986      67.356
2015    3       25     3  42    6.6819   570.9    5.978      67.522
2015    3       25     3  47    6.6822   571.6    5.969      67.683
2015    3       25     3  53    6.6823   572.3    5.959      67.836
2015    3       25     3  58    6.6823   573.0    5.949      67.984
2015    3       25     4   4    6.6821   573.7    5.938      68.125
2015    3       25     4  10    6.6819   574.3    5.926      68.261
2015    3       25     4  15    6.6816   575.0    5.914      68.392
2015    3       25     4  21    6.6812   575.7    5.901      68.518
2015    3       25     4  26    6.6808   576.4    5.888      68.640
2015    3       25     4  32    6.6803   577.0    5.874      68.759
2015    3       25     4  38    6.6799   577.7    5.861      68.875
2015    3       25     4  43    6.6794   578.4    5.847      68.989
2015    3       25     4  49    6.6788   579.0    5.833      69.102
2015    3       25     4  54    6.6783   579.7    5.818      69.213
2015    3       25     5   0    6.6777   580.4    5.803      69.325
2015    3       25     5   6    6.6771   581.1    5.788      69.435
2015    3       25     5  11    6.6764   581.8    5.772      69.545
2015    3       25     5  17    6.6757   582.5    5.756      69.654
2015    3       25     5  22    6.6747   583.3    5.739      69.761
2015    3       25     5  28    6.6736   584.0    5.721      69.867
2015    3       25     5  33    6.6723   584.8    5.703      69.971
2015    3       25     5  39    6.6708   585.6    5.683      70.071
2015    3       25     5  45    6.6688   586.3    5.663      70.165
2015    3       25     5  50    6.6666   587.1    5.641      70.250
2015    3       25     5  56    6.6640   587.8    5.619      70.325
2015    3       25     6   1    6.6611   588.6    5.596      70.390
2015    3       25     6   7    6.6578   589.3    5.571      70.450
2015    3       25     6  13    6.6541   590.1    5.546      70.496
2015    3       25     6  18    6.6498   590.8    5.520      70.526
2015    3       25     6  24    6.6453   591.5    5.493      70.543
2015    3       25     6  29    6.6405   592.2    5.466      70.552
2015    3       25     6  35    6.6356   592.9    5.439      70.553
2015    3       25     6  41    6.6304   593.5    5.413      70.541
2015    3       25     6  46    6.6254   594.2    5.388      70.531
2015    3       25     6  52    6.6204   594.8    5.363      70.526
2015    3       25     6  57    6.6156   595.5    5.340      70.522
2015    3       25     7   3    6.6108   596.1    5.316      70.523
2015    3       25     7   9    6.6061   596.8    5.293      70.530
2015    3       25     7  14    6.6014   597.6    5.271      70.538
2015    3       25     7  20    6.5968   598.3    5.248      70.551
2015    3       25     7  25    6.5920   599.0    5.226      70.568
2015    3       25     7  31    6.5872   599.8    5.204      70.589
2015    3       25     7  37    6.5822   600.6    5.182      70.619
2015    3       25     7  42    6.5771   601.4    5.159      70.654
2015    3       25     7  48    6.5717   602.2    5.136      70.682
2015    3       25     7  53    6.5661   603.0    5.113      70.706
2015    3       25     7  59    6.5603   603.7    5.090      70.725
2015    3       25     8   4    6.5545   604.5    5.067      70.737
2015    3       25     8  10    6.5486   605.1    5.046      70.735
2015    3       25     8  16    6.5428   605.7    5.026      70.728
2015    3       25     8  21    6.5372   606.3    5.006      70.725
2015    3       25     8  27    6.5319   606.8    4.988      70.725
2015    3       25     8  32    6.5267   607.4    4.970      70.726
2015    3       25     8  38    6.5218   607.9    4.954      70.732
2015    3       25     8  44    6.5170   608.3    4.938      70.744
2015    3       25     8  49    6.5124   608.8    4.923      70.757
2015    3       25     8  55    6.5078   609.3    4.909      70.775
2015    3       25     9   0    6.5034   609.7    4.895      70.803
2015    3       25     9   6    6.4988   610.2    4.882      70.844
2015    3       25     9  12    6.4942   610.8    4.868      70.894
2015    3       25     9  17    6.4894   611.3    4.855      70.952
2015    3       25     9  23    6.4846   611.9    4.841      71.019
2015    3       25     9  28    6.4795   612.5    4.828      71.106
2015    3       25     9  34    6.4742   613.2    4.814      71.204
2015    3       25     9  40    6.4685   613.9    4.800      71.306
2015    3       25     9  45    6.4626   614.6    4.786      71.408
2015    3       25     9  51    6.4562   615.3    4.771      71.511
2015    3       25     9  56    6.4495   615.9    4.755      71.612
2015    3       25    10   2    6.4423   616.6    4.739      71.697
2015    3       25    10   7    6.4350   617.1    4.723      71.764
2015    3       25    10  13    6.4273   617.7    4.706      71.818
2015    3       25    10  19    6.4194   618.2    4.689      71.861
2015    3       25    10  24    6.4113   618.7    4.673      71.894
2015    3       25    10  30    6.4032   619.2    4.657      71.921
2015    3       25    10  35    6.3950   619.6    4.642      71.950
2015    3       25    10  41    6.3869   620.1    4.626      71.981
2015    3       25    10  47    6.3787   620.6    4.611      72.014
2015    3       25    10  52    6.3706   621.2    4.597      72.049
2015    3       25    10  58    6.3625   621.7    4.583      72.086
2015    3       25    11   3    6.3546   622.2    4.569      72.123
2015    3       25    11   9    6.3465   622.7    4.555      72.160
2015    3       25    11  15    6.3386   623.3    4.542      72.197
2015    3       25    11  20    6.3305   623.8    4.529      72.232
2015    3       25    11  26    6.3225   624.3    4.516      72.265
2015    3       25    11  31    6.3143   624.8    4.503      72.293
2015    3       25    11  37    6.3062   625.3    4.490      72.318
2015    3       25    11  43    6.2979   625.8    4.477      72.341
2015    3       25    11  48    6.2895   626.4    4.464      72.361
2015    3       25    11  54    6.2810   626.9    4.451      72.377
2015    3       25    11  59    6.2724   627.4    4.438      72.391
2015    3       25    12   5    6.2636   628.0    4.425      72.403
2015    3       25    12  11    6.2547   628.6    4.412      72.413
2015    3       25    12  16    6.2455   629.1    4.398      72.421
2015    3       25    12  22    6.2363   629.7    4.384      72.426
2015    3       25    12  27    6.2266   630.4    4.370      72.430
2015    3       25    12  33    6.2168   631.0    4.354      72.433
2015    3       25    12  38    6.2065   631.7    4.338      72.433
2015    3       25    12  44    6.1959   632.3    4.322      72.427
2015    3       25    12  50    6.1847   633.0    4.304      72.414
2015    3       25    12  55    6.1732   633.7    4.286      72.392
2015    3       25    13   1    6.1612   634.3    4.266      72.358
2015    3       25    13   6    6.1487   635.0    4.246      72.315
2015    3       25    13  12    6.1358   635.6    4.225      72.258
2015    3       25    13  18    6.1225   636.2    4.203      72.184
2015    3       25    13  23    6.1088   636.8    4.180      72.098
2015    3       25    13  29    6.0949   637.3    4.158      72.004
2015    3       25    13  34    6.0809   637.8    4.135      71.904
2015    3       25    13  40    6.0670   638.3    4.113      71.796
2015    3       25    13  46    6.0530   638.7    4.091      71.686
2015    3       25    13  51    6.0392   639.1    4.070      71.580
2015    3       25    13  57    6.0257   639.5    4.049      71.478
2015    3       25    14   2    6.0123   639.8    4.028      71.379
2015    3       25    14   8    5.9990   640.2    4.008      71.281
2015    3       25    14  14    5.9859   640.6    3.988      71.185
2015    3       25    14  19    5.9728   641.0    3.969      71.089
2015    3       25    14  25    5.9599   641.3    3.950      70.995
2015    3       25    14  30    5.9470   641.7    3.930      70.903
2015    3       25    14  36    5.9342   642.1    3.911      70.812
2015    3       25    14  41    5.9215   642.4    3.892      70.721
2015    3       25    14  47    5.9087   642.8    3.873      70.629
2015    3       25    14  53    5.8960   643.2    3.854      70.536
2015    3       25    14  58    5.8833   643.5    3.835      70.441
2015    3       25    15   4    5.8705   643.9    3.815      70.343
2015    3       25    15   9    5.8578   644.3    3.796      70.243
2015    3       25    15  15    5.8450   644.7    3.776      70.139
2015    3       25    15  21    5.8321   645.1    3.755      70.031
2015    3       25    15  26    5.8193   645.4    3.734      69.917
2015    3       25    15  32    5.8063   645.8    3.713      69.797
2015    3       25    15  37    5.7934   646.2    3.690      69.667
2015    3       25    15  43    5.7803   646.6    3.667      69.525
2015    3       25    15  49    5.7673   647.0    3.644      69.369
2015    3       25    15  54    5.7542   647.3    3.619      69.201
2015    3       25    16   0    5.7412   647.7    3.594      69.018
2015    3       25    16   5    5.7281   648.0    3.567      68.817
2015    3       25    16  11    5.7153   648.3    3.541      68.595
2015    3       25    16  17    5.7027   648.5    3.513      68.356
2015    3       25    16  22    5.6904   648.7    3.486      68.099
2015    3       25    16  28    5.6784   648.8    3.459      67.826
2015    3       25    16  33    5.6668   649.0    3.432      67.543
2015    3       25    16  39    5.6553   649.1    3.406      67.261
2015    3       25    16  45    5.6443   649.1    3.380      66.979
2015    3       25    16  50    5.6334   649.2    3.355      66.701
2015    3       25    16  56    5.6228   649.2    3.330      66.427
2015    3       25    17   1    5.6124   649.3    3.306      66.156
2015    3       25    17   7    5.6023   649.3    3.282      65.889
2015    3       25    17  12    5.5923   649.4    3.259      65.625
2015    3       25    17  18    5.5825   649.4    3.236      65.363
2015    3       25    17  24    5.5728   649.5    3.213      65.103
2015    3       25    17  29    5.5632   649.5    3.190      64.845
2015    3       25    17  35    5.5538   649.5    3.168      64.587
2015    3       25    17  40    5.5445   649.6    3.146      64.330
2015    3       25    17  46    5.5352   649.6    3.123      64.073
2015    3       25    17  52    5.5262   649.7    3.101      63.815
2015    3       25    17  57    5.5171   649.7    3.079      63.557
2015    3       25    18   3    5.5082   649.8    3.057      63.297
2015    3       25    18   8    5.4992   649.8    3.035      63.035
2015    3       25    18  14    5.4905   649.9    3.013      62.769
2015    3       25    18  20    5.4818   649.9    2.991      62.500
2015    3       25    18  25    5.4732   650.0    2.969      62.225
2015    3       25    18  31    5.4646   650.0    2.946      61.945
2015    3       25    18  36    5.4562   650.0    2.923      61.657
2015    3       25    18  42    5.4478   650.1    2.900      61.362
2015    3       25    18  48    5.4396   650.1    2.876      61.058
2015    3       25    18  53    5.4315   650.0    2.853      60.745
2015    3       25    18  59    5.4236   650.0    2.829      60.425
2015    3       25    19   4    5.4160   649.9    2.806      60.103
2015    3       25    19  10    5.4086   649.7    2.783      59.777
2015    3       25    19  15    5.4013   649.5    2.760      59.456
2015    3       25    19  21    5.3944   649.3    2.739      59.141
2015    3       25    19  27    5.3876   649.1    2.717      58.831
2015    3       25    19  32    5.3811   648.8    2.697      58.529
2015    3       25    19  38    5.3747   648.6    2.677      58.233
2015    3       25    19  43    5.3685   648.4    2.658      57.946
2015    3       25    19  49    5.3625   648.1    2.639      57.666
2015    3       25    19  55    5.3567   647.9    2.621      57.395
2015    3       25    20   0    5.3510   647.6    2.603      57.132
2015    3       25    20   6    5.3454   647.3    2.587      56.877
2015    3       25    20  11    5.3399   647.1    2.570      56.629
2015    3       25    20  17    5.3345   646.8    2.554      56.389
2015    3       25    20  23    5.3293   646.5    2.539      56.157
2015    3       25    20  28    5.3241   646.3    2.524      55.933
2015    3       25    20  34    5.3190   646.0    2.510      55.717
2015    3       25    20  39    5.3140   645.7    2.496      55.508
2015    3       25    20  45    5.3091   645.5    2.482      55.307
2015    3       25    20  51    5.3043   645.2    2.469      55.113
2015    3       25    20  56    5.2995   644.9    2.457      54.927
2015    3       25    21   2    5.2948   644.7    2.444      54.748
2015    3       25    21   7    5.2902   644.4    2.432      54.577
2015    3       25    21  13    5.2856   644.2    2.421      54.413
2015    3       25    21  19    5.2811   643.9    2.410      54.256
2015    3       25    21  24    5.2767   643.7    2.399      54.105
2015    3       25    21  30    5.2723   643.4    2.389      53.961
2015    3       25    21  35    5.2679   643.2    2.378      53.823
2015    3       25    21  41    5.2635   643.0    2.369      53.691
2015    3       25    21  46    5.2592   642.7    2.359      53.566
2015    3       25    21  52    5.2549   642.5    2.350      53.446
2015    3       25    21  58    5.2507   642.3    2.341      53.332
2015    3       25    22   3    5.2464   642.1    2.333      53.224
2015    3       25    22   9    5.2422   641.9    2.325      53.122
2015    3       25    22  14    5.2380   641.7    2.317      53.026
2015    3       25    22  20    5.2338   641.5    2.310      52.936
2015    3       25    22  26    5.2297   641.4    2.302      52.853
2015    3       25    22  31    5.2256   641.2    2.296      52.776
2015    3       25    22  37    5.2215   641.0    2.289      52.705
2015    3       25    22  42    5.2174   640.9    2.283      52.641
2015    3       25    22  48    5.2134   640.7    2.277      52.585
2015    3       25    22  54    5.2094   640.6    2.272      52.536
2015    3       25    22  59    5.2054   640.4    2.267      52.495
2015    3       25    23   5    5.2014   640.3    2.262      52.461
2015    3       25    23  10    5.1974   640.2    2.258      52.436
2015    3       25    23  16    5.1935   640.1    2.254      52.417
2015    3       25    23  22    5.1895   640.0    2.251      52.407
2015    3       25    23  27    5.1855   639.9    2.247      52.404
2015    3       25    23  33    5.1815   639.8    2.244      52.408
2015    3       25    23  38    5.1775   639.7    2.242      52.417
2015    3       25    23  44    5.1735   639.6    2.239      52.433
2015    3       25    23  49    5.1694   639.6    2.237      52.450
2015    3       25    23  55    5.1654   639.6    2.234      52.470
2015    3       26     0   1    5.1612   639.5    2.232      52.492
2015    3       26     0   6    5.1571   639.5    2.230      52.516
2015    3       26     0  12    5.1530   639.5    2.228      52.542
2015    3       26     0  17    5.1488   639.5    2.227      52.571
2015    3       26     0  23    5.1445   639.4    2.225      52.602
2015    3       26     0  29    5.1403   639.4    2.224      52.635
2015    3       26     0  34    5.1360   639.4    2.223      52.672
2015    3       26     0  40    5.1316   639.4    2.222      52.711
2015    3       26     0  45    5.1272   639.5    2.221      52.753
2015    3       26     0  51    5.1227   639.5    2.220      52.798
2015    3       26     0  57    5.1182   639.5    2.220      52.846
2015    3       26     1   2    5.1136   639.5    2.219      52.897
2015    3       26     1   8    5.1089   639.5    2.219      52.950
2015    3       26     1  13    5.1043   639.5    2.218      53.005
2015    3       26     1  19    5.0995   639.5    2.218      53.060
2015    3       26     1  25    5.0947   639.5    2.218      53.117
2015    3       26     1  30    5.0898   639.5    2.218      53.176
2015    3       26     1  36    5.0849   639.5    2.219      53.238
2015    3       26     1  41    5.0799   639.5    2.219      53.303
2015    3       26     1  47    5.0749   639.5    2.220      53.371
2015    3       26     1  52    5.0699   639.5    2.221      53.443
2015    3       26     1  58    5.0649   639.5    2.223      53.519
2015    3       26     2   4    5.0598   639.5    2.224      53.599
2015    3       26     2   9    5.0548   639.5    2.226      53.684
2015    3       26     2  15    5.0497   639.5    2.229      53.775
2015    3       26     2  20    5.0446   639.5    2.232      53.870
2015    3       26     2  26    5.0395   639.6    2.235      53.970
2015    3       26     2  32    5.0344   639.6    2.239      54.076
2015    3       26     2  37    5.0293   639.6    2.243      54.186
2015    3       26     2  43    5.0242   639.6    2.248      54.301
2015    3       26     2  48    5.0190   639.7    2.253      54.421
2015    3       26     2  54    5.0138   639.7    2.258      54.545
2015    3       26     3   0    5.0086   639.8    2.264      54.673
2015    3       26     3   5    5.0034   639.8    2.270      54.806
2015    3       26     3  11    4.9980   639.9    2.277      54.941
2015    3       26     3  16    4.9927   640.0    2.284      55.080
2015    3       26     3  22    4.9872   640.0    2.291      55.222
2015    3       26     3  28    4.9818   640.1    2.298      55.366
2015    3       26     3  33    4.9762   640.2    2.306      55.512
2015    3       26     3  39    4.9706   640.3    2.315      55.660
2015    3       26     3  44    4.9648   640.4    2.323      55.808
2015    3       26     3  50    4.9590   640.5    2.332      55.958
2015    3       26     3  56    4.9531   640.6    2.341      56.107
2015    3       26     4   1    4.9472   640.7    2.350      56.256
2015    3       26     4   7    4.9411   640.8    2.359      56.406
2015    3       26     4  12    4.9350   640.9    2.369      56.555
2015    3       26     4  18    4.9288   641.0    2.378      56.705
2015    3       26     4  23    4.9225   641.1    2.388      56.855
2015    3       26     4  29    4.9162   641.2    2.398      57.008
2015    3       26     4  35    4.9098   641.3    2.407      57.161
2015    3       26     4  40    4.9034   641.4    2.417      57.317
2015    3       26     4  46    4.8969   641.6    2.427      57.475
2015    3       26     4  51    4.8903   641.7    2.437      57.637
2015    3       26     4  57    4.8837   641.8    2.447      57.803
2015    3       26     5   3    4.8771   642.0    2.456      57.974
2015    3       26     5   8    4.8704   642.2    2.466      58.150
2015    3       26     5  14    4.8636   642.3    2.475      58.331
2015    3       26     5  19    4.8567   642.5    2.485      58.516
2015    3       26     5  25    4.8498   642.6    2.494      58.704
2015    3       26     5  31    4.8429   642.8    2.504      58.894
2015    3       26     5  36    4.8359   642.9    2.513      59.086
2015    3       26     5  42    4.8289   643.1    2.523      59.279
2015    3       26     5  47    4.8218   643.3    2.532      59.473
2015    3       26     5  53    4.8147   643.4    2.542      59.669
2015    3       26     5  59    4.8076   643.6    2.552      59.867
2015    3       26     6   4    4.8005   643.8    2.562      60.065
2015    3       26     6  10    4.7933   643.9    2.572      60.264
2015    3       26     6  15    4.7862   644.1    2.582      60.466
2015    3       26     6  21    4.7790   644.3    2.592      60.669
2015    3       26     6  26    4.7717   644.5    2.602      60.870
2015    3       26     6  32    4.7645   644.7    2.612      61.072
2015    3       26     6  38    4.7572   644.9    2.622      61.272
2015    3       26     6  43    4.7499   645.1    2.632      61.466
2015    3       26     6  49    4.7425   645.3    2.641      61.654
2015    3       26     6  54    4.7351   645.4    2.651      61.836
2015    3       26     7   0    4.7276   645.6    2.660      62.013
2015    3       26     7   6    4.7200   645.8    2.670      62.185
2015    3       26     7  11    4.7124   645.9    2.680      62.352
2015    3       26     7  17    4.7047   646.1    2.689      62.514
2015    3       26     7  22    4.6969   646.2    2.699      62.672
2015    3       26     7  28    4.6891   646.4    2.708      62.825
2015    3       26     7  34    4.6813   646.5    2.718      62.974
2015    3       26     7  39    4.6734   646.6    2.728      63.118
2015    3       26     7  45    4.6656   646.7    2.738      63.260
2015    3       26     7  50    4.6578   646.8    2.748      63.398
2015    3       26     7  56    4.6501   646.9    2.758      63.534
2015    3       26     8   2    4.6424   646.9    2.768      63.666
2015    3       26     8   7    4.6348   647.0    2.779      63.797
2015    3       26     8  13    4.6273   647.1    2.789      63.927
2015    3       26     8  18    4.6198   647.1    2.800      64.058
2015    3       26     8  24    4.6125   647.2    2.810      64.190
2015    3       26     8  30    4.6052   647.2    2.821      64.321
2015    3       26     8  35    4.5981   647.3    2.832      64.451
2015    3       26     8  41    4.5910   647.3    2.842      64.582
2015    3       26     8  46    4.5840   647.4    2.853      64.715
2015    3       26     8  52    4.5770   647.4    2.863      64.849
2015    3       26     8  57    4.5702   647.5    2.872      64.983
2015    3       26     9   3    4.5634   647.5    2.882      65.117
2015    3       26     9   9    4.5567   647.6    2.890      65.249
2015    3       26     9  14    4.5500   647.7    2.899      65.371
2015    3       26     9  20    4.5434   647.7    2.907      65.484
2015    3       26     9  25    4.5369   647.8    2.914      65.589
2015    3       26     9  31    4.5305   647.8    2.921      65.684
2015    3       26     9  37    4.5241   647.8    2.928      65.772
2015    3       26     9  42    4.5179   647.9    2.934      65.852
2015    3       26     9  48    4.5116   647.9    2.940      65.924
2015    3       26     9  53    4.5056   647.9    2.946      65.989
2015    3       26     9  59    4.4995   647.9    2.951      66.047
2015    3       26    10   5    4.4937   647.9    2.956      66.098
2015    3       26    10  10    4.4879   647.9    2.961      66.142
2015    3       26    10  16    4.4824   647.9    2.966      66.181
2015    3       26    10  21    4.4768   647.9    2.970      66.214
2015    3       26    10  27    4.4715   647.9    2.974      66.240
2015    3       26    10  33    4.4662   647.8    2.978      66.261
2015    3       26    10  38    4.4611   647.8    2.981      66.277
2015    3       26    10  44    4.4561   647.8    2.985      66.287
2015    3       26    10  49    4.4512   647.7    2.988      66.292
2015    3       26    10  55    4.4464   647.6    2.991      66.292
2015    3       26    11   0    4.4418   647.6    2.994      66.288
2015    3       26    11   6    4.4372   647.5    2.997      66.280
2015    3       26    11  12    4.4329   647.4    3.000      66.267
2015    3       26    11  17    4.4286   647.3    3.002      66.250
2015    3       26    11  23    4.4244   647.2    3.005      66.229
2015    3       26    11  28    4.4204   647.1    3.007      66.204
2015    3       26    11  34    4.4165   647.0    3.009      66.175
2015    3       26    11  40    4.4127   646.9    3.011      66.142
2015    3       26    11  45    4.4091   646.8    3.013      66.105
2015    3       26    11  51    4.4056   646.7    3.015      66.064
2015    3       26    11  56    4.4022   646.6    3.017      66.019
2015    3       26    12   2    4.3989   646.4    3.018      65.971
2015    3       26    12   8    4.3958   646.3    3.020      65.919
2015    3       26    12  13    4.3927   646.1    3.022      65.863
2015    3       26    12  19    4.3899   646.0    3.023      65.805
2015    3       26    12  24    4.3871   645.8    3.025      65.743
2015    3       26    12  30    4.3845   645.6    3.026      65.680
2015    3       26    12  36    4.3819   645.4    3.028      65.614
2015    3       26    12  41    4.3796   645.2    3.029      65.546
2015    3       26    12  47    4.3774   645.0    3.031      65.476
2015    3       26    12  52    4.3754   644.8    3.033      65.405
2015    3       26    12  58    4.3735   644.6    3.035      65.333
2015    3       26    13   4    4.3719   644.4    3.037      65.261
2015    3       26    13   9    4.3703   644.2    3.039      65.189
2015    3       26    13  15    4.3689   643.9    3.041      65.117
2015    3       26    13  20    4.3677   643.7    3.044      65.046
2015    3       26    13  26    4.3667   643.5    3.046      64.976
2015    3       26    13  31    4.3658   643.2    3.049      64.907
2015    3       26    13  37    4.3652   642.9    3.053      64.841
2015    3       26    13  43    4.3647   642.7    3.056      64.777
2015    3       26    13  48    4.3645   642.4    3.060      64.717
2015    3       26    13  54    4.3643   642.1    3.064      64.659
2015    3       26    13  59    4.3645   641.8    3.069      64.604
2015    3       26    14   5    4.3648   641.5    3.074      64.554
2015    3       26    14  11    4.3653   641.2    3.079      64.509
2015    3       26    14  16    4.3660   640.9    3.084      64.469
2015    3       26    14  22    4.3670   640.6    3.089      64.433
2015    3       26    14  27    4.3681   640.3    3.095      64.404
2015    3       26    14  33    4.3695   640.0    3.101      64.380
2015    3       26    14  39    4.3710   639.7    3.106      64.359
2015    3       26    14  44    4.3728   639.4    3.112      64.339
2015    3       26    14  50    4.3748   639.1    3.118      64.321
2015    3       26    14  55    4.3770   638.8    3.124      64.308
2015    3       26    15   1    4.3794   638.5    3.130      64.298
2015    3       26    15   7    4.3820   638.3    3.136      64.288
2015    3       26    15  12    4.3847   638.0    3.141      64.278
2015    3       26    15  18    4.3876   637.8    3.147      64.265
2015    3       26    15  23    4.3907   637.5    3.152      64.248
2015    3       26    15  29    4.3939   637.3    3.157      64.223
2015    3       26    15  34    4.3973   637.1    3.161      64.190
2015    3       26    15  40    4.4008   636.9    3.164      64.151
2015    3       26    15  46    4.4043   636.7    3.167      64.104
2015    3       26    15  51    4.4080   636.5    3.170      64.051
2015    3       26    15  57    4.4118   636.3    3.173      63.992
2015    3       26    16   2    4.4157   636.1    3.174      63.926
2015    3       26    16   8    4.4196   635.9    3.176      63.855
2015    3       26    16  14    4.4236   635.7    3.177      63.777
2015    3       26    16  19    4.4276   635.5    3.178      63.694
2015    3       26    16  25    4.4317   635.3    3.179      63.606
2015    3       26    16  30    4.4358   635.1    3.179      63.513
2015    3       26    16  36    4.4398   635.0    3.179      63.415
2015    3       26    16  42    4.4439   634.8    3.179      63.312
2015    3       26    16  47    4.4478   634.6    3.178      63.206
2015    3       26    16  53    4.4517   634.4    3.177      63.095
2015    3       26    16  58    4.4555   634.3    3.176      62.980
2015    3       26    17   4    4.4592   634.1    3.175      62.862
2015    3       26    17  10    4.4628   633.9    3.173      62.741
2015    3       26    17  15    4.4663   633.7    3.172      62.616
2015    3       26    17  21    4.4697   633.6    3.170      62.489
2015    3       26    17  26    4.4730   633.4    3.168      62.359
2015    3       26    17  32    4.4761   633.2    3.166      62.227
2015    3       26    17  37    4.4792   633.1    3.163      62.093
2015    3       26    17  43    4.4821   632.9    3.161      61.958
2015    3       26    17  49    4.4849   632.7    3.158      61.820
2015    3       26    17  54    4.4876   632.5    3.155      61.682
2015    3       26    18   0    4.4902   632.4    3.153      61.543
2015    3       26    18   5    4.4927   632.2    3.150      61.403
2015    3       26    18  11    4.4951   632.0    3.147      61.262
2015    3       26    18  17    4.4974   631.8    3.144      61.121
2015    3       26    18  22    4.4996   631.7    3.141      60.980
2015    3       26    18  28    4.5016   631.5    3.137      60.839
2015    3       26    18  33    4.5037   631.3    3.134      60.698
2015    3       26    18  39    4.5055   631.1    3.131      60.556
2015    3       26    18  45    4.5074   630.9    3.128      60.416
2015    3       26    18  50    4.5091   630.7    3.125      60.275
2015    3       26    18  56    4.5107   630.5    3.122      60.134
2015    3       26    19   1    4.5123   630.3    3.118      59.994
2015    3       26    19   7    4.5138   630.1    3.115      59.855
2015    3       26    19  13    4.5152   629.9    3.112      59.718
2015    3       26    19  18    4.5166   629.7    3.109      59.582
2015    3       26    19  24    4.5179   629.5    3.107      59.449
2015    3       26    19  29    4.5193   629.3    3.104      59.317
2015    3       26    19  35    4.5205   629.0    3.102      59.189
2015    3       26    19  41    4.5218   628.8    3.099      59.064
2015    3       26    19  46    4.5231   628.6    3.098      58.944
2015    3       26    19  52    4.5245   628.3    3.096      58.827
2015    3       26    19  57    4.5258   628.1    3.094      58.715
2015    3       26    20   3    4.5272   627.9    3.093      58.608
2015    3       26    20   8    4.5286   627.6    3.092      58.506
2015    3       26    20  14    4.5301   627.4    3.092      58.409
2015    3       26    20  20    4.5316   627.2    3.092      58.316
2015    3       26    20  25    4.5333   626.9    3.092      58.228
2015    3       26    20  31    4.5350   626.7    3.092      58.143
2015    3       26    20  36    4.5368   626.5    3.092      58.062
2015    3       26    20  42    4.5386   626.2    3.093      57.984
2015    3       26    20  48    4.5405   626.0    3.094      57.909
2015    3       26    20  53    4.5424   625.7    3.095      57.836
2015    3       26    20  59    4.5445   625.5    3.096      57.763
2015    3       26    21   4    4.5465   625.2    3.097      57.691
2015    3       26    21  10    4.5487   625.0    3.098      57.618
2015    3       26    21  16    4.5507   624.7    3.098      57.543
2015    3       26    21  21    4.5528   624.4    3.099      57.467
2015    3       26    21  27    4.5549   624.2    3.099      57.388
2015    3       26    21  32    4.5569   623.9    3.099      57.307
2015    3       26    21  38    4.5587   623.7    3.099      57.225
2015    3       26    21  44    4.5606   623.4    3.099      57.142
2015    3       26    21  49    4.5623   623.2    3.098      57.056
2015    3       26    21  55    4.5639   623.0    3.097      56.970
2015    3       26    22   0    4.5654   622.7    3.096      56.882
2015    3       26    22   6    4.5667   622.5    3.095      56.792
2015    3       26    22  11    4.5679   622.3    3.094      56.701
2015    3       26    22  17    4.5689   622.1    3.092      56.608
2015    3       26    22  23    4.5697   621.8    3.091      56.514
2015    3       26    22  28    4.5703   621.6    3.089      56.419
2015    3       26    22  34    4.5708   621.4    3.087      56.323
2015    3       26    22  39    4.5710   621.2    3.085      56.225
2015    3       26    22  45    4.5711   621.0    3.083      56.126
2015    3       26    22  51    4.5709   620.8    3.080      56.026
2015    3       26    22  56    4.5706   620.6    3.078      55.926
2015    3       26    23   2    4.5701   620.5    3.075      55.824
2015    3       26    23   7    4.5694   620.3    3.072      55.721
2015    3       26    23  13    4.5686   620.1    3.069      55.618
2015    3       26    23  19    4.5675   619.9    3.067      55.514
2015    3       26    23  24    4.5663   619.7    3.064      55.409
2015    3       26    23  30    4.5649   619.6    3.060      55.303
2015    3       26    23  35    4.5633   619.4    3.057      55.198
2015    3       26    23  41    4.5616   619.2    3.054      55.091
2015    3       26    23  47    4.5596   619.1    3.051      54.985
2015    3       26    23  52    4.5576   618.9    3.047      54.878
2015    3       26    23  58    4.5553   618.8    3.044      54.771
2015    3       27     0   3    4.5530   618.6    3.040      54.664
2015    3       27     0   9    4.5504   618.4    3.036      54.557
2015    3       27     0  15    4.5478   618.3    3.032      54.450
2015    3       27     0  20    4.5450   618.2    3.028      54.343
2015    3       27     0  26    4.5420   618.0    3.024      54.235
2015    3       27     0  31    4.5389   617.9    3.020      54.128
2015    3       27     0  37    4.5357   617.7    3.016      54.021
2015    3       27     0  42    4.5324   617.6    3.011      53.913
2015    3       27     0  48    4.5289   617.4    3.007      53.806
2015    3       27     0  54    4.5253   617.3    3.002      53.699
2015    3       27     0  59    4.5217   617.2    2.997      53.591
2015    3       27     1   5    4.5179   617.0    2.992      53.484
2015    3       27     1  10    4.5140   616.9    2.988      53.377
2015    3       27     1  16    4.5099   616.8    2.983      53.270
2015    3       27     1  22    4.5059   616.6    2.978      53.163
2015    3       27     1  27    4.5017   616.5    2.973      53.056
2015    3       27     1  33    4.4974   616.4    2.967      52.949
2015    3       27     1  38    4.4931   616.3    2.962      52.841
2015    3       27     1  44    4.4887   616.1    2.957      52.733
2015    3       27     1  50    4.4842   616.0    2.952      52.624
2015    3       27     1  55    4.4796   615.9    2.946      52.513
2015    3       27     2   1    4.4750   615.8    2.941      52.401
2015    3       27     2   6    4.4703   615.6    2.935      52.287
2015    3       27     2  12    4.4656   615.5    2.930      52.171
2015    3       27     2  18    4.4607   615.4    2.924      52.053
2015    3       27     2  23    4.4558   615.3    2.919      51.933
2015    3       27     2  29    4.4508   615.2    2.913      51.811
2015    3       27     2  34    4.4458   615.0    2.907      51.686
2015    3       27     2  40    4.4407   614.9    2.902      51.559
2015    3       27     2  46    4.4356   614.8    2.896      51.429
2015    3       27     2  51    4.4303   614.7    2.890      51.297
2015    3       27     2  57    4.4250   614.6    2.885      51.163
2015    3       27     3   2    4.4196   614.5    2.879      51.027
2015    3       27     3   8    4.4141   614.4    2.873      50.890
2015    3       27     3  13    4.4085   614.3    2.867      50.752
2015    3       27     3  19    4.4028   614.2    2.861      50.612
2015    3       27     3  25    4.3971   614.1    2.855      50.473
2015    3       27     3  30    4.3912   614.0    2.849      50.334
2015    3       27     3  36    4.3853   613.8    2.843      50.196
2015    3       27     3  41    4.3793   613.7    2.836      50.059
2015    3       27     3  47    4.3733   613.6    2.830      49.923
2015    3       27     3  53    4.3672   613.5    2.823      49.790
2015    3       27     3  58    4.3610   613.4    2.817      49.660
2015    3       27     4   4    4.3548   613.3    2.810      49.533
2015    3       27     4   9    4.3486   613.2    2.803      49.408
2015    3       27     4  15    4.3423   613.1    2.797      49.285
2015    3       27     4  21    4.3361   613.0    2.790      49.163
2015    3       27     4  26    4.3298   612.9    2.783      49.044
2015    3       27     4  32    4.3235   612.8    2.776      48.925
2015    3       27     4  37    4.3172   612.7    2.770      48.806
2015    3       27     4  43    4.3110   612.6    2.763      48.688
2015    3       27     4  49    4.3047   612.5    2.756      48.571
2015    3       27     4  54    4.2985   612.3    2.750      48.453
2015    3       27     5   0    4.2923   612.2    2.743      48.337
2015    3       27     5   5    4.2862   612.1    2.737      48.220
2015    3       27     5  11    4.2800   612.0    2.731      48.103
2015    3       27     5  16    4.2739   611.8    2.724      47.986
2015    3       27     5  22    4.2677   611.7    2.718      47.870
2015    3       27     5  28    4.2616   611.6    2.712      47.754
2015    3       27     5  33    4.2555   611.4    2.705      47.638
2015    3       27     5  39    4.2494   611.3    2.699      47.522
2015    3       27     5  44    4.2433   611.2    2.693      47.406
2015    3       27     5  50    4.2373   611.0    2.687      47.290
2015    3       27     5  56    4.2312   610.9    2.681      47.175
2015    3       27     6   1    4.2251   610.7    2.675      47.061
2015    3       27     6   7    4.2191   610.6    2.669      46.947
2015    3       27     6  12    4.2131   610.4    2.663      46.834
2015    3       27     6  18    4.2071   610.3    2.657      46.722
2015    3       27     6  24    4.2011   610.1    2.652      46.611
2015    3       27     6  29    4.1951   610.0    2.646      46.501
2015    3       27     6  35    4.1891   609.8    2.640      46.392
2015    3       27     6  40    4.1832   609.6    2.634      46.285
2015    3       27     6  46    4.1773   609.5    2.629      46.178
2015    3       27     6  52    4.1715   609.3    2.623      46.073
2015    3       27     6  57    4.1656   609.1    2.617      45.968
2015    3       27     7   3    4.1598   609.0    2.612      45.865
2015    3       27     7   8    4.1540   608.8    2.606      45.764
2015    3       27     7  14    4.1483   608.6    2.601      45.663
2015    3       27     7  20    4.1426   608.4    2.596      45.564
2015    3       27     7  25    4.1370   608.2    2.590      45.466
2015    3       27     7  31    4.1314   608.0    2.585      45.368
2015    3       27     7  36    4.1259   607.8    2.580      45.272
2015    3       27     7  42    4.1204   607.6    2.575      45.176
2015    3       27     7  47    4.1150   607.4    2.570      45.081
2015    3       27     7  53    4.1097   607.2    2.565      44.987
2015    3       27     7  59    4.1045   606.9    2.561      44.893
2015    3       27     8   4    4.0994   606.7    2.556      44.799
2015    3       27     8  10    4.0943   606.4    2.552      44.706
2015    3       27     8  15    4.0893   606.1    2.548      44.612
2015    3       27     8  21    4.0844   605.8    2.544      44.518
2015    3       27     8  27    4.0796   605.5    2.541      44.424
2015    3       27     8  32    4.0749   605.2    2.537      44.329
2015    3       27     8  38    4.0702   604.9    2.535      44.236
2015    3       27     8  43    4.0657   604.6    2.532      44.144
2015    3       27     8  49    4.0612   604.3    2.530      44.054
2015    3       27     8  55    4.0568   604.0    2.528      43.967
2015    3       27     9   0    4.0524   603.7    2.526      43.882
2015    3       27     9   6    4.0481   603.4    2.525      43.800
2015    3       27     9  11    4.0439   603.1    2.524      43.723
2015    3       27     9  17    4.0397   602.8    2.523      43.650
2015    3       27     9  23    4.0355   602.5    2.523      43.582
2015    3       27     9  28    4.0313   602.3    2.522      43.516
2015    3       27     9  34    4.0272   602.0    2.522      43.453
2015    3       27     9  39    4.0231   601.7    2.522      43.394
2015    3       27     9  45    4.0189   601.5    2.521      43.336
2015    3       27     9  51    4.0148   601.2    2.520      43.278
2015    3       27     9  56    4.0107   601.0    2.520      43.219
2015    3       27    10   2    4.0065   600.7    2.519      43.159
2015    3       27    10   7    4.0023   600.5    2.518      43.099
2015    3       27    10  13    3.9981   600.2    2.516      43.038
2015    3       27    10  18    3.9939   599.9    2.515      42.975
2015    3       27    10  24    3.9897   599.7    2.514      42.911
2015    3       27    10  30    3.9854   599.4    2.512      42.845
2015    3       27    10  35    3.9811   599.2    2.511      42.779
2015    3       27    10  41    3.9768   598.9    2.509      42.711
2015    3       27    10  46    3.9725   598.6    2.507      42.643
2015    3       27    10  52    3.9681   598.4    2.506      42.573
2015    3       27    10  58    3.9638   598.1    2.504      42.504
2015    3       27    11   3    3.9594   597.8    2.502      42.434
2015    3       27    11   9    3.9551   597.6    2.500      42.363
2015    3       27    11  14    3.9507   597.3    2.498      42.292
2015    3       27    11  20    3.9463   597.0    2.496      42.221
2015    3       27    11  26    3.9420   596.7    2.495      42.149
2015    3       27    11  31    3.9377   596.5    2.493      42.078
2015    3       27    11  37    3.9335   596.2    2.491      42.006
2015    3       27    11  42    3.9293   595.9    2.489      41.934
2015    3       27    11  48    3.9251   595.6    2.487      41.861
2015    3       27    11  54    3.9209   595.3    2.485      41.789
2015    3       27    11  59    3.9168   595.0    2.484      41.717
2015    3       27    12   5    3.9127   594.7    2.482      41.644
2015    3       27    12  10    3.9086   594.4    2.480      41.572
2015    3       27    12  16    3.9045   594.1    2.479      41.500
2015    3       27    12  21    3.9005   593.8    2.477      41.428
2015    3       27    12  27    3.8966   593.5    2.476      41.357
2015    3       27    12  33    3.8926   593.2    2.474      41.286
2015    3       27    12  38    3.8887   592.9    2.473      41.216
2015    3       27    12  44    3.8848   592.6    2.472      41.147
2015    3       27    12  49    3.8809   592.3    2.471      41.078
2015    3       27    12  55    3.8771   592.0    2.470      41.010
2015    3       27    13   1    3.8733   591.6    2.469      40.943
2015    3       27    13   6    3.8695   591.3    2.468      40.876
2015    3       27    13  12    3.8658   591.0    2.467      40.811
2015    3       27    13  17    3.8621   590.7    2.466      40.746
2015    3       27    13  23    3.8584   590.4    2.465      40.681
2015    3       27    13  29    3.8548   590.1    2.464      40.617
2015    3       27    13  34    3.8511   589.8    2.463      40.552
2015    3       27    13  40    3.8474   589.5    2.462      40.487
2015    3       27    13  45    3.8438   589.3    2.461      40.422
2015    3       27    13  51    3.8402   589.0    2.460      40.356
2015    3       27    13  57    3.8366   588.7    2.459      40.290
2015    3       27    14   2    3.8330   588.4    2.457      40.224
2015    3       27    14   8    3.8294   588.1    2.456      40.157
2015    3       27    14  13    3.8259   587.8    2.455      40.091
2015    3       27    14  19    3.8223   587.5    2.454      40.025
2015    3       27    14  25    3.8188   587.2    2.452      39.959
2015    3       27    14  30    3.8153   586.9    2.451      39.893
2015    3       27    14  36    3.8118   586.6    2.450      39.827
2015    3       27    14  41    3.8083   586.3    2.449      39.762
2015    3       27    14  47    3.8048   586.0    2.447      39.697
2015    3       27    14  52    3.8013   585.7    2.446      39.632
2015    3       27    14  58    3.7979   585.4    2.445      39.568
2015    3       27    15   4    3.7944   585.1    2.444      39.504
2015    3       27    15   9    3.7910   584.8    2.443      39.441
2015    3       27    15  15    3.7875   584.5    2.442      39.378
2015    3       27    15  20    3.7841   584.1    2.441      39.316
2015    3       27    15  26    3.7807   583.8    2.440      39.254
2015    3       27    15  32    3.7774   583.5    2.439      39.193
2015    3       27    15  37    3.7740   583.2    2.438      39.132
2015    3       27    15  43    3.7707   582.9    2.437      39.072
2015    3       27    15  48    3.7674   582.6    2.437      39.013
2015    3       27    15  54    3.7641   582.2    2.436      38.954
2015    3       27    16   0    3.7609   581.9    2.435      38.895
2015    3       27    16   5    3.7576   581.6    2.435      38.837
2015    3       27    16  11    3.7544   581.3    2.434      38.780
2015    3       27    16  16    3.7512   580.9    2.434      38.723
2015    3       27    16  22    3.7480   580.6    2.433      38.666
2015    3       27    16  28    3.7449   580.3    2.433      38.610
2015    3       27    16  33    3.7417   579.9    2.432      38.554
2015    3       27    16  39    3.7386   579.6    2.432      38.498
2015    3       27    16  44    3.7355   579.3    2.432      38.443
2015    3       27    16  50    3.7324   578.9    2.431      38.387
2015    3       27    16  56    3.7294   578.6    2.431      38.332
2015    3       27    17   1    3.7264   578.2    2.431      38.277
2015    3       27    17   7    3.7234   577.9    2.431      38.222
2015    3       27    17  12    3.7204   577.5    2.431      38.167
2015    3       27    17  18    3.7175   577.2    2.430      38.112
2015    3       27    17  23    3.7146   576.8    2.430      38.057
2015    3       27    17  29    3.7117   576.5    2.430      38.003
2015    3       27    17  35    3.7088   576.1    2.430      37.949
2015    3       27    17  40    3.7060   575.8    2.430      37.895
2015    3       27    17  46    3.7032   575.4    2.430      37.841
2015    3       27    17  51    3.7005   575.0    2.431      37.788
2015    3       27    17  57    3.6977   574.7    2.431      37.735
2015    3       27    18   3    3.6950   574.3    2.431      37.683
2015    3       27    18   8    3.6923   573.9    2.431      37.632
2015    3       27    18  14    3.6897   573.5    2.432      37.581
2015    3       27    18  19    3.6871   573.2    2.432      37.531
2015    3       27    18  25    3.6845   572.8    2.433      37.481
2015    3       27    18  31    3.6819   572.4    2.433      37.432
2015    3       27    18  36    3.6794   572.0    2.434      37.384
2015    3       27    18  42    3.6769   571.7    2.435      37.337
2015    3       27    18  47    3.6744   571.3    2.436      37.291
2015    3       27    18  53    3.6719   570.9    2.436      37.245
2015    3       27    18  59    3.6694   570.5    2.437      37.199
2015    3       27    19   4    3.6669   570.2    2.438      37.154
2015    3       27    19  10    3.6644   569.8    2.439      37.110
2015    3       27    19  15    3.6620   569.4    2.440      37.067
2015    3       27    19  21    3.6595   569.0    2.441      37.023
2015    3       27    19  26    3.6571   568.7    2.442      36.981
2015    3       27    19  32    3.6546   568.3    2.443      36.938
2015    3       27    19  38    3.6522   567.9    2.444      36.896
2015    3       27    19  43    3.6498   567.5    2.445      36.854
2015    3       27    19  49    3.6474   567.1    2.446      36.812
2015    3       27    19  54    3.6451   566.7    2.447      36.771
2015    3       27    20   0    3.6427   566.4    2.449      36.730
2015    3       27    20   6    3.6404   566.0    2.450      36.689
2015    3       27    20  11    3.6381   565.6    2.451      36.648
2015    3       27    20  17    3.6359   565.2    2.452      36.608
2015    3       27    20  22    3.6336   564.8    2.453      36.568
2015    3       27    20  28    3.6314   564.5    2.454      36.529
2015    3       27    20  34    3.6292   564.1    2.456      36.489
2015    3       27    20  39    3.6270   563.7    2.457      36.450
2015    3       27    20  45    3.6248   563.3    2.458      36.412
2015    3       27    20  50    3.6227   563.0    2.460      36.373
2015    3       27    20  56    3.6206   562.6    2.461      36.335
2015    3       27    21   2    3.6185   562.2    2.462      36.298
2015    3       27    21   7    3.6164   561.8    2.464      36.260
2015    3       27    21  13    3.6143   561.5    2.465      36.223
2015    3       27    21  18    3.6123   561.1    2.467      36.185
2015    3       27    21  24    3.6102   560.7    2.468      36.148
2015    3       27    21  30    3.6082   560.4    2.470      36.111
2015    3       27    21  35    3.6061   560.0    2.471      36.075
2015    3       27    21  41    3.6041   559.6    2.473      36.038
2015    3       27    21  46    3.6020   559.3    2.474      36.001
2015    3       27    21  52    3.6000   558.9    2.475      35.963
2015    3       27    21  57    3.5979   558.5    2.477      35.926
2015    3       27    22   3    3.5959   558.2    2.478      35.889
2015    3       27    22   9    3.5938   557.8    2.480      35.851
2015    3       27    22  14    3.5918   557.4    2.481      35.813
2015    3       27    22  20    3.5897   557.1    2.482      35.775
2015    3       27    22  25    3.5877   556.7    2.484      35.737
2015    3       27    22  31    3.5856   556.3    2.485      35.698
2015    3       27    22  37    3.5836   555.9    2.486      35.659
2015    3       27    22  42    3.5816   555.6    2.487      35.620
2015    3       27    22  48    3.5795   555.2    2.488      35.581
2015    3       27    22  53    3.5775   554.8    2.490      35.541
2015    3       27    22  59    3.5755   554.4    2.491      35.502
2015    3       27    23   5    3.5735   554.0    2.492      35.462
2015    3       27    23  10    3.5715   553.7    2.493      35.422
2015    3       27    23  16    3.5695   553.3    2.494      35.382
2015    3       27    23  21    3.5676   552.9    2.495      35.341
2015    3       27    23  27    3.5656   552.5    2.496      35.301
2015    3       27    23  33    3.5637   552.1    2.497      35.261
2015    3       27    23  38    3.5618   551.8    2.498      35.221
2015    3       27    23  44    3.5598   551.4    2.499      35.180
2015    3       27    23  49    3.5579   551.0    2.500      35.140
2015    3       27    23  55    3.5561   550.6    2.501      35.099
2015    3       28     0   1    3.5542   550.2    2.502      35.059
2015    3       28     0   6    3.5524   549.8    2.504      35.018
2015    3       28     0  12    3.5505   549.4    2.505      34.978
2015    3       28     0  17    3.5487   549.0    2.506      34.937
2015    3       28     0  23    3.5469   548.7    2.507      34.897
2015    3       28     0  28    3.5451   548.3    2.508      34.856
2015    3       28     0  34    3.5433   547.9    2.509      34.815
2015    3       28     0  40    3.5415   547.5    2.510      34.774
2015    3       28     0  45    3.5397   547.1    2.511      34.733
2015    3       28     0  51    3.5380   546.7    2.513      34.692
2015    3       28     0  56    3.5362   546.3    2.514      34.651
2015    3       28     1   2    3.5345   545.9    2.515      34.610
2015    3       28     1   8    3.5328   545.5    2.516      34.569
2015    3       28     1  13    3.5311   545.1    2.517      34.528
2015    3       28     1  19    3.5293   544.7    2.519      34.487
2015    3       28     1  24    3.5276   544.3    2.520      34.446
2015    3       28     1  30    3.5260   543.9    2.521      34.405
2015    3       28     1  36    3.5243   543.4    2.522      34.364
2015    3       28     1  41    3.5226   543.0    2.524      34.323
2015    3       28     1  47    3.5210   542.6    2.525      34.283
2015    3       28     1  52    3.5194   542.2    2.527      34.242
2015    3       28     1  58    3.5178   541.8    2.528      34.202
2015    3       28     2   4    3.5162   541.4    2.530      34.162
2015    3       28     2   9    3.5146   540.9    2.531      34.122
2015    3       28     2  15    3.5131   540.5    2.533      34.082
2015    3       28     2  20    3.5116   540.1    2.534      34.043
2015    3       28     2  26    3.5101   539.7    2.536      34.004
2015    3       28     2  32    3.5086   539.2    2.538      33.965
2015    3       28     2  37    3.5072   538.8    2.540      33.927
2015    3       28     2  43    3.5058   538.4    2.541      33.889
2015    3       28     2  48    3.5044   538.0    2.543      33.852
2015    3       28     2  54    3.5031   537.5    2.546      33.816
2015    3       28     2  59    3.5017   537.1    2.548      33.780
2015    3       28     3   5    3.5005   536.7    2.550      33.744
2015    3       28     3  11    3.4992   536.3    2.552      33.710
2015    3       28     3  16    3.4980   535.9    2.555      33.676
2015    3       28     3  22    3.4968   535.4    2.557      33.642
2015    3       28     3  27    3.4957   535.0    2.560      33.610
2015    3       28     3  33    3.4946   534.6    2.563      33.578
2015    3       28     3  39    3.4935   534.2    2.565      33.546
2015    3       28     3  44    3.4924   533.8    2.568      33.515
2015    3       28     3  50    3.4914   533.4    2.571      33.485
2015    3       28     3  55    3.4903   533.0    2.574      33.455
2015    3       28     4   1    3.4893   532.6    2.577      33.425
2015    3       28     4   7    3.4883   532.2    2.580      33.397
2015    3       28     4  12    3.4873   531.8    2.584      33.368
2015    3       28     4  18    3.4863   531.3    2.587      33.339
2015    3       28     4  23    3.4853   530.9    2.590      33.310
2015    3       28     4  29    3.4842   530.5    2.593      33.282
2015    3       28     4  35    3.4832   530.1    2.596      33.254
2015    3       28     4  40    3.4822   529.7    2.600      33.225
2015    3       28     4  46    3.4812   529.3    2.603      33.197
2015    3       28     4  51    3.4801   528.9    2.606      33.168
2015    3       28     4  57    3.4791   528.5    2.609      33.140
2015    3       28     5   2    3.4781   528.1    2.612      33.111
2015    3       28     5   8    3.4771   527.6    2.615      33.083
2015    3       28     5  14    3.4762   527.2    2.619      33.054
2015    3       28     5  19    3.4752   526.8    2.622      33.025
2015    3       28     5  25    3.4742   526.4    2.625      32.996
2015    3       28     5  30    3.4733   526.0    2.628      32.967
2015    3       28     5  36    3.4724   525.6    2.631      32.938
2015    3       28     5  42    3.4715   525.2    2.634      32.909
2015    3       28     5  47    3.4706   524.7    2.637      32.880
2015    3       28     5  53    3.4697   524.3    2.640      32.851
2015    3       28     5  58    3.4688   523.9    2.644      32.821
2015    3       28     6   4    3.4680   523.5    2.647      32.792
2015    3       28     6  10    3.4671   523.1    2.650      32.762
2015    3       28     6  15    3.4663   522.7    2.653      32.732
2015    3       28     6  21    3.4655   522.3    2.656      32.703
2015    3       28     6  26    3.4646   521.9    2.659      32.673
2015    3       28     6  32    3.4638   521.5    2.662      32.643
2015    3       28     6  38    3.4631   521.1    2.665      32.613
2015    3       28     6  43    3.4623   520.7    2.668      32.582
2015    3       28     6  49    3.4615   520.2    2.671      32.552
2015    3       28     6  54    3.4607   519.8    2.675      32.521
2015    3       28     7   0    3.4600   519.4    2.678      32.490
2015    3       28     7   6    3.4592   519.0    2.681      32.459
2015    3       28     7  11    3.4585   518.6    2.684      32.428
2015    3       28     7  17    3.4577   518.2    2.687      32.396
2015    3       28     7  22    3.4570   517.8    2.690      32.364
2015    3       28     7  28    3.4563   517.4    2.693      32.332
2015    3       28     7  33    3.4556   517.0    2.696      32.299
2015    3       28     7  39    3.4548   516.6    2.699      32.266
2015    3       28     7  45    3.4542   516.2    2.702      32.233
2015    3       28     7  50    3.4535   515.7    2.705      32.200
2015    3       28     7  56    3.4528   515.3    2.708      32.167
2015    3       28     8   1    3.4522   514.9    2.711      32.133
2015    3       28     8   7    3.4515   514.5    2.714      32.100
2015    3       28     8  13    3.4509   514.1    2.717      32.067
2015    3       28     8  18    3.4503   513.7    2.720      32.033
2015    3       28     8  24    3.4497   513.3    2.723      32.000
2015    3       28     8  29    3.4491   512.9    2.726      31.967
2015    3       28     8  35    3.4486   512.5    2.729      31.934
2015    3       28     8  41    3.4481   512.0    2.732      31.902
2015    3       28     8  46    3.4476   511.6    2.735      31.869
2015    3       28     8  52    3.4471   511.2    2.739      31.837
2015    3       28     8  57    3.4466   510.8    2.742      31.805
2015    3       28     9   3    3.4462   510.4    2.745      31.773
2015    3       28     9   9    3.4458   510.0    2.749      31.741
2015    3       28     9  14    3.4454   509.6    2.752      31.710
2015    3       28     9  20    3.4450   509.2    2.756      31.679
2015    3       28     9  25    3.4447   508.8    2.759      31.649
2015    3       28     9  31    3.4443   508.4    2.763      31.619
2015    3       28     9  37    3.4440   508.0    2.766      31.588
2015    3       28     9  42    3.4437   507.6    2.770      31.559
2015    3       28     9  48    3.4434   507.2    2.774      31.529
2015    3       28     9  53    3.4432   506.8    2.777      31.500
2015    3       28     9  59    3.4429   506.4    2.781      31.471
2015    3       28    10   4    3.4427   506.0    2.785      31.442
2015    3       28    10  10    3.4425   505.6    2.789      31.413
2015    3       28    10  16    3.4423   505.2    2.792      31.385
2015    3       28    10  21    3.4421   504.8    2.796      31.357
2015    3       28    10  27    3.4419   504.4    2.800      31.328
2015    3       28    10  32    3.4417   504.0    2.804      31.301
2015    3       28    10  38    3.4416   503.6    2.808      31.273
2015    3       28    10  44    3.4415   503.3    2.812      31.245
2015    3       28    10  49    3.4413   502.9    2.816      31.218
2015    3       28    10  55    3.4412   502.5    2.820      31.191
2015    3       28    11   0    3.4411   502.1    2.824      31.164
2015    3       28    11   6    3.4411   501.7    2.828      31.137
2015    3       28    11  12    3.4410   501.3    2.832      31.110
2015    3       28    11  17    3.4409   500.9    2.836      31.083
2015    3       28    11  23    3.4409   500.5    2.840      31.056
2015    3       28    11  28    3.4409   500.2    2.844      31.029
2015    3       28    11  34    3.4408   499.8    2.848      31.003
2015    3       28    11  40    3.4408   499.4    2.852      30.976
2015    3       28    11  45    3.4408   499.0    2.856      30.949
2015    3       28    11  51    3.4408   498.6    2.860      30.922
2015    3       28    11  56    3.4408   498.2    2.864      30.895
2015    3       28    12   2    3.4408   497.9    2.868      30.869
2015    3       28    12   8    3.4408   497.5    2.872      30.842
2015    3       28    12  13    3.4408   497.1    2.876      30.814
2015    3       28    12  19    3.4408   496.7    2.880      30.787
2015    3       28    12  24    3.4409   496.3    2.884      30.760
2015    3       28    12  30    3.4409   495.9    2.888      30.733
2015    3       28    12  35    3.4409   495.6    2.892      30.705
2015    3       28    12  41    3.4410   495.2    2.896      30.678
2015    3       28    12  47    3.4410   494.8    2.900      30.650
2015    3       28    12  52    3.4411   494.4    2.904      30.622
2015    3       28    12  58    3.4412   494.0    2.908      30.595
2015    3       28    13   3    3.4413   493.6    2.912      30.567
2015    3       28    13   9    3.4414   493.3    2.916      30.539
2015    3       28    13  15    3.4415   492.9    2.921      30.511
2015    3       28    13  20    3.4416   492.5    2.925      30.483
2015    3       28    13  26    3.4417   492.1    2.929      30.455
2015    3       28    13  31    3.4419   491.7    2.933      30.427
2015    3       28    13  37    3.4420   491.4    2.937      30.400
2015    3       28    13  43    3.4422   491.0    2.941      30.372
2015    3       28    13  48    3.4424   490.6    2.945      30.344
2015    3       28    13  54    3.4426   490.2    2.949      30.317
2015    3       28    13  59    3.4428   489.9    2.953      30.289
2015    3       28    14   5    3.4430   489.5    2.957      30.261
2015    3       28    14  11    3.4432   489.1    2.961      30.233
2015    3       28    14  16    3.4435   488.7    2.966      30.206
2015    3       28    14  22    3.4437   488.4    2.970      30.178
2015    3       28    14  27    3.4440   488.0    2.974      30.151
2015    3       28    14  33    3.4442   487.6    2.978      30.123
2015    3       28    14  39    3.4445   487.2    2.982      30.096
2015    3       28    14  44    3.4448   486.9    2.987      30.068
2015    3       28    14  50    3.4451   486.5    2.991      30.041
2015    3       28    14  55    3.4454   486.1    2.995      30.013
2015    3       28    15   1    3.4457   485.8    2.999      29.986
2015    3       28    15   6    3.4460   485.4    3.004      29.959
2015    3       28    15  12    3.4464   485.0    3.008      29.931
2015    3       28    15  18    3.4467   484.7    3.012      29.904
2015    3       28    15  23    3.4470   484.3    3.017      29.877
2015    3       28    15  29    3.4474   483.9    3.021      29.850
2015    3       28    15  34    3.4478   483.6    3.025      29.823
2015    3       28    15  40    3.4481   483.2    3.030      29.797
2015    3       28    15  46    3.4485   482.8    3.034      29.770
2015    3       28    15  51    3.4489   482.5    3.039      29.743
2015    3       28    15  57    3.4493   482.1    3.043      29.716
2015    3       28    16   2    3.4497   481.7    3.047      29.690
2015    3       28    16   8    3.4501   481.4    3.052      29.663
2015    3       28    16  14    3.4506   481.0    3.056      29.637
2015    3       28    16  19    3.4510   480.7    3.061      29.610
2015    3       28    16  25    3.4514   480.3    3.065      29.584
2015    3       28    16  30    3.4519   479.9    3.070      29.558
2015    3       28    16  36    3.4523   479.6    3.074      29.532
2015    3       28    16  42    3.4528   479.2    3.079      29.506
2015    3       28    16  47    3.4533   478.9    3.083      29.479
2015    3       28    16  53    3.4537   478.5    3.088      29.453
2015    3       28    16  58    3.4542   478.2    3.092      29.427
2015    3       28    17   4    3.4547   477.8    3.097      29.401
2015    3       28    17  10    3.4552   477.5    3.102      29.375
2015    3       28    17  15    3.4557   477.1    3.106      29.349
2015    3       28    17  21    3.4562   476.7    3.111      29.323
2015    3       28    17  26    3.4567   476.4    3.115      29.297
2015    3       28    17  32    3.4572   476.0    3.120      29.272
2015    3       28    17  37    3.4577   475.7    3.124      29.246
2015    3       28    17  43    3.4582   475.4    3.129      29.220
2015    3       28    17  49    3.4587   475.0    3.134      29.193
2015    3       28    17  54    3.4592   474.7    3.138      29.167
2015    3       28    18   0    3.4598   474.3    3.143      29.141
2015    3       28    18   5    3.4603   474.0    3.147      29.115
2015    3       28    18  11    3.4608   473.6    3.152      29.089
2015    3       28    18  17    3.4613   473.3    3.156      29.062
2015    3       28    18  22    3.4618   472.9    3.161      29.036
2015    3       28    18  28    3.4624   472.6    3.165      29.009
2015    3       28    18  33    3.4629   472.2    3.170      28.983
2015    3       28    18  39    3.4634   471.9    3.174      28.956
2015    3       28    18  45    3.4639   471.5    3.178      28.929
2015    3       28    18  50    3.4644   471.2    3.183      28.902
2015    3       28    18  56    3.4650   470.9    3.187      28.876
2015    3       28    19   1    3.4655   470.5    3.192      28.849
2015    3       28    19   7    3.4660   470.2    3.196      28.822
2015    3       28    19  13    3.4665   469.8    3.200      28.795
2015    3       28    19  18    3.4671   469.5    3.205      28.768
2015    3       28    19  24    3.4676   469.1    3.209      28.741
2015    3       28    19  29    3.4681   468.8    3.213      28.713
2015    3       28    19  35    3.4686   468.5    3.218      28.686
2015    3       28    19  41    3.4691   468.1    3.222      28.659
2015    3       28    19  46    3.4697   467.8    3.226      28.632
2015    3       28    19  52    3.4702   467.4    3.231      28.605
2015    3       28    19  57    3.4707   467.1    3.235      28.578
2015    3       28    20   3    3.4712   466.8    3.239      28.551
2015    3       28    20   8    3.4718   466.4    3.244      28.523
2015    3       28    20  14    3.4723   466.1    3.248      28.497
2015    3       28    20  20    3.4729   465.7    3.252      28.470
2015    3       28    20  25    3.4734   465.4    3.256      28.443
2015    3       28    20  31    3.4739   465.0    3.261      28.416
2015    3       28    20  36    3.4745   464.7    3.265      28.389
2015    3       28    20  42    3.4750   464.4    3.269      28.362
2015    3       28    20  48    3.4756   464.0    3.274      28.336
2015    3       28    20  53    3.4761   463.7    3.278      28.309
2015    3       28    20  59    3.4767   463.4    3.282      28.283
2015    3       28    21   4    3.4773   463.0    3.287      28.257
2015    3       28    21  10    3.4778   462.7    3.291      28.231
2015    3       28    21  16    3.4784   462.3    3.296      28.205
2015    3       28    21  21    3.4790   462.0    3.300      28.179
2015    3       28    21  27    3.4796   461.7    3.304      28.153
2015    3       28    21  32    3.4802   461.3    3.309      28.127
2015    3       28    21  38    3.4807   461.0    3.313      28.102
2015    3       28    21  44    3.4813   460.7    3.318      28.076
2015    3       28    21  49    3.4819   460.3    3.322      28.051
2015    3       28    21  55    3.4825   460.0    3.327      28.026
2015    3       28    22   0    3.4831   459.7    3.331      28.001
2015    3       28    22   6    3.4837   459.3    3.336      27.976
2015    3       28    22  11    3.4843   459.0    3.341      27.951
2015    3       28    22  17    3.4849   458.7    3.345      27.926
2015    3       28    22  23    3.4855   458.3    3.350      27.901
2015    3       28    22  28    3.4861   458.0    3.354      27.877
2015    3       28    22  34    3.4868   457.7    3.359      27.852
2015    3       28    22  39    3.4874   457.3    3.364      27.828
2015    3       28    22  45    3.4880   457.0    3.368      27.804
2015    3       28    22  51    3.4886   456.7    3.373      27.779
2015    3       28    22  56    3.4892   456.3    3.378      27.755
2015    3       28    23   2    3.4898   456.0    3.382      27.731
2015    3       28    23   7    3.4904   455.7    3.387      27.707
2015    3       28    23  13    3.4911   455.4    3.392      27.682
2015    3       28    23  19    3.4917   455.0    3.396      27.658
2015    3       28    23  24    3.4923   454.7    3.401      27.634
2015    3       28    23  30    3.4929   454.4    3.406      27.610
2015    3       28    23  35    3.4935   454.0    3.410      27.586
2015    3       28    23  41    3.4941   453.7    3.415      27.562
2015    3       28    23  47    3.4947   453.4    3.420      27.538
2015    3       28    23  52    3.4954   453.1    3.425      27.514
2015    3       28    23  58    3.4960   452.7    3.429      27.489
2015    3       29     0   3    3.4966   452.4    3.434      27.465
2015    3       29     0   9    3.4972   452.1    3.439      27.441
2015    3       29     0  15    3.4978   451.8    3.443      27.417
2015    3       29     0  20    3.4984   451.4    3.448      27.393
2015    3       29     0  26    3.4990   451.1    3.453      27.369
2015    3       29     0  31    3.4997   450.8    3.457      27.345
2015    3       29     0  37    3.5003   450.5    3.462      27.321
2015    3       29     0  42    3.5009   450.1    3.467      27.296
2015    3       29     0  48    3.5015   449.8    3.472      27.272
2015    3       29     0  54    3.5021   449.5    3.476      27.248
2015    3       29     0  59    3.5027   449.2    3.481      27.224
2015    3       29     1   5    3.5033   448.8    3.486      27.200
2015    3       29     1  10    3.5039   448.5    3.490      27.176
2015    3       29     1  16    3.5046   448.2    3.495      27.151
2015    3       29     1  22    3.5052   447.9    3.500      27.127
2015    3       29     1  27    3.5058   447.6    3.504      27.103
2015    3       29     1  33    3.5064   447.2    3.509      27.079
2015    3       29     1  38    3.5070   446.9    3.514      27.055
2015    3       29     1  44    3.5076   446.6    3.518      27.031
2015    3       29     1  50    3.5082   446.3    3.523      27.007
2015    3       29     1  55    3.5089   445.9    3.528      26.983
2015    3       29     2   1    3.5095   445.6    3.533      26.959
2015    3       29     2   6    3.5101   445.3    3.537      26.935
2015    3       29     2  12    3.5107   445.0    3.542      26.911
2015    3       29     2  18    3.5113   444.7    3.547      26.887
2015    3       29     2  23    3.5120   444.3    3.552      26.863
2015    3       29     2  29    3.5126   444.0    3.556      26.840
2015    3       29     2  34    3.5132   443.7    3.561      26.816
2015    3       29     2  40    3.5138   443.4    3.566      26.792
2015    3       29     2  46    3.5145   443.1    3.571      26.769
2015    3       29     2  51    3.5151   442.7    3.575      26.745
2015    3       29     2  57    3.5157   442.4    3.580      26.722
2015    3       29     3   2    3.5164   442.1    3.585      26.698
2015    3       29     3   8    3.5170   441.8    3.590      26.675
2015    3       29     3  13    3.5176   441.5    3.595      26.652
2015    3       29     3  19    3.5183   441.2    3.600      26.629
2015    3       29     3  25    3.5189   440.8    3.604      26.605
2015    3       29     3  30    3.5195   440.5    3.609      26.582
2015    3       29     3  36    3.5202   440.2    3.614      26.559
2015    3       29     3  41    3.5208   439.9    3.619      26.536
2015    3       29     3  47    3.5214   439.6    3.624      26.514
2015    3       29     3  53    3.5221   439.3    3.629      26.491
2015    3       29     3  58    3.5227   439.0    3.634      26.468
2015    3       29     4   4    3.5234   438.6    3.639      26.445
2015    3       29     4   9    3.5240   438.3    3.644      26.422
2015    3       29     4  15    3.5247   438.0    3.649      26.400
2015    3       29     4  21    3.5253   437.7    3.654      26.377
2015    3       29     4  26    3.5260   437.4    3.659      26.355
2015    3       29     4  32    3.5266   437.1    3.664      26.332
2015    3       29     4  37    3.5273   436.8    3.669      26.310
2015    3       29     4  43    3.5279   436.4    3.674      26.288
2015    3       29     4  49    3.5286   436.1    3.679      26.266
2015    3       29     4  54    3.5292   435.8    3.684      26.243
2015    3       29     5   0    3.5299   435.5    3.689      26.221
2015    3       29     5   5    3.5306   435.2    3.694      26.199
2015    3       29     5  11    3.5312   434.9    3.699      26.177
2015    3       29     5  17    3.5319   434.6    3.704      26.155
2015    3       29     5  22    3.5326   434.3    3.709      26.133
2015    3       29     5  28    3.5332   434.0    3.714      26.111
2015    3       29     5  33    3.5339   433.6    3.719      26.090
2015    3       29     5  39    3.5346   433.3    3.725      26.068
2015    3       29     5  44    3.5353   433.0    3.730      26.046
2015    3       29     5  50    3.5359   432.7    3.735      26.024
2015    3       29     5  56    3.5366   432.4    3.740      26.003
2015    3       29     6   1    3.5373   432.1    3.745      25.981
2015    3       29     6   7    3.5380   431.8    3.750      25.960
2015    3       29     6  12    3.5387   431.5    3.755      25.938
2015    3       29     6  18    3.5394   431.2    3.761      25.917
2015    3       29     6  24    3.5401   430.9    3.766      25.895
2015    3       29     6  29    3.5408   430.6    3.771      25.874
2015    3       29     6  35    3.5415   430.3    3.776      25.853
2015    3       29     6  40    3.5422   430.0    3.781      25.831
2015    3       29     6  46    3.5429   429.7    3.787      25.810
2015    3       29     6  52    3.5436   429.3    3.792      25.789
2015    3       29     6  57    3.5443   429.0    3.797      25.768
2015    3       29     7   3    3.5450   428.7    3.802      25.747
2015    3       29     7   8    3.5457   428.4    3.808      25.726
2015    3       29     7  14    3.5465   428.1    3.813      25.705
2015    3       29     7  20    3.5472   427.8    3.818      25.684
2015    3       29     7  25    3.5479   427.5    3.823      25.663
2015    3       29     7  31    3.5486   427.2    3.829      25.642
2015    3       29     7  36    3.5494   426.9    3.834      25.621
2015    3       29     7  42    3.5501   426.6    3.839      25.600
2015    3       29     7  48    3.5509   426.3    3.844      25.580
2015    3       29     7  53    3.5516   426.0    3.850      25.559
2015    3       29     7  59    3.5523   425.7    3.855      25.538
2015    3       29     8   4    3.5531   425.4    3.860      25.518
2015    3       29     8  10    3.5538   425.1    3.866      25.497
2015    3       29     8  15    3.5546   424.8    3.871      25.476
2015    3       29     8  21    3.5553   424.5    3.876      25.456
2015    3       29     8  27    3.5561   424.2    3.882      25.436
2015    3       29     8  32    3.5568   423.9    3.887      25.415
2015    3       29     8  38    3.5576   423.6    3.892      25.395
2015    3       29     8  43    3.5584   423.3    3.898      25.374
2015    3       29     8  49    3.5591   423.0    3.903      25.354
2015    3       29     8  55    3.5599   422.7    3.909      25.334
2015    3       29     9   0    3.5607   422.4    3.914      25.314
2015    3       29     9   6    3.5614   422.1    3.919      25.293
2015    3       29     9  11    3.5622   421.8    3.925      25.273
2015    3       29     9  17    3.5630   421.5    3.930      25.253
2015    3       29     9  23    3.5638   421.2    3.936      25.233
2015    3       29     9  28    3.5645   420.9    3.941      25.213
2015    3       29     9  34    3.5653   420.6    3.946      25.193
2015    3       29     9  39    3.5661   420.4    3.952      25.173
2015    3       29     9  45    3.5669   420.1    3.957      25.154
2015    3       29     9  51    3.5676   419.8    3.963      25.134
2015    3       29     9  56    3.5684   419.5    3.968      25.114
2015    3       29    10   2    3.5692   419.2    3.974      25.094
2015    3       29    10   7    3.5700   418.9    3.979      25.075
2015    3       29    10  13    3.5708   418.6    3.985      25.055
2015    3       29    10  19    3.5716   418.3    3.990      25.035
2015    3       29    10  24    3.5724   418.0    3.996      25.016
2015    3       29    10  30    3.5732   417.7    4.001      24.996
2015    3       29    10  35    3.5740   417.4    4.007      24.977
2015    3       29    10  41    3.5748   417.1    4.012      24.957
2015    3       29    10  46    3.5756   416.8    4.018      24.938
2015    3       29    10  52    3.5764   416.6    4.023      24.919
2015    3       29    10  58    3.5772   416.3    4.029      24.900
2015    3       29    11   3    3.5780   416.0    4.034      24.880
2015    3       29    11   9    3.5788   415.7    4.040      24.861
2015    3       29    11  14    3.5796   415.4    4.046      24.842
2015    3       29    11  20    3.5804   415.1    4.051      24.823
2015    3       29    11  26    3.5812   414.8    4.057      24.804
2015    3       29    11  31    3.5820   414.5    4.062      24.785
2015    3       29    11  37    3.5828   414.2    4.068      24.766
2015    3       29    11  42    3.5837   414.0    4.073      24.747
2015    3       29    11  48    3.5845   413.7    4.079      24.728
2015    3       29    11  54    3.5853   413.4    4.085      24.710
2015    3       29    11  59    3.5861   413.1    4.090      24.691
2015    3       29    12   5    3.5869   412.8    4.096      24.672
2015    3       29    12  10    3.5878   412.5    4.102      24.654
2015    3       29    12  16    3.5886   412.3    4.107      24.635
2015    3       29    12  22    3.5894   412.0    4.113      24.616
2015    3       29    12  27    3.5903   411.7    4.119      24.598
2015    3       29    12  33    3.5911   411.4    4.124      24.579
2015    3       29    12  38    3.5919   411.1    4.130      24.561
2015    3       29    12  44    3.5928   410.8    4.136      24.543
2015    3       29    12  50    3.5936   410.6    4.141      24.524
2015    3       29    12  55    3.5944   410.3    4.147      24.506
2015    3       29    13   1    3.5953   410.0    4.153      24.488
2015    3       29    13   6    3.5961   409.7    4.158      24.469
2015    3       29    13  12    3.5970   409.4    4.164      24.451
2015    3       29    13  17    3.5978   409.2    4.170      24.433
2015    3       29    13  23    3.5987   408.9    4.175      24.415
2015    3       29    13  29    3.5995   408.6    4.181      24.397
2015    3       29    13  34    3.6004   408.3    4.187      24.379
2015    3       29    13  40    3.6012   408.0    4.192      24.360
2015    3       29    13  45    3.6021   407.8    4.198      24.343
2015    3       29    13  51    3.6030   407.5    4.204      24.325
2015    3       29    13  57    3.6038   407.2    4.210      24.307
2015    3       29    14   2    3.6047   406.9    4.215      24.289
2015    3       29    14   8    3.6056   406.6    4.221      24.271
2015    3       29    14  13    3.6065   406.4    4.227      24.253
2015    3       29    14  19    3.6073   406.1    4.232      24.235
2015    3       29    14  25    3.6082   405.8    4.238      24.218
2015    3       29    14  30    3.6091   405.5    4.244      24.200
2015    3       29    14  36    3.6099   405.3    4.250      24.182
2015    3       29    14  41    3.6108   405.0    4.255      24.164
2015    3       29    14  47    3.6117   404.7    4.261      24.147
2015    3       29    14  53    3.6126   404.4    4.267      24.129
2015    3       29    14  58    3.6135   404.2    4.273      24.112
2015    3       29    15   4    3.6143   403.9    4.278      24.094
2015    3       29    15   9    3.6152   403.6    4.284      24.077
2015    3       29    15  15    3.6161   403.4    4.290      24.059
2015    3       29    15  21    3.6170   403.1    4.296      24.042
2015    3       29    15  26    3.6179   402.8    4.301      24.024
2015    3       29    15  32    3.6188   402.5    4.307      24.007
2015    3       29    15  37    3.6197   402.3    4.313      23.990
2015    3       29    15  43    3.6206   402.0    4.319      23.973
2015    3       29    15  49    3.6215   401.7    4.325      23.956
2015    3       29    15  54    3.6224   401.5    4.330      23.938
2015    3       29    16   0    3.6233   401.2    4.336      23.921
2015    3       29    16   5    3.6242   400.9    4.342      23.904
2015    3       29    16  11    3.6251   400.6    4.348      23.887
2015    3       29    16  16    3.6260   400.4    4.354      23.870
2015    3       29    16  22    3.6269   400.1    4.360      23.854
2015    3       29    16  28    3.6278   399.8    4.366      23.837
2015    3       29    16  33    3.6287   399.6    4.372      23.820
2015    3       29    16  39    3.6296   399.3    4.377      23.803
2015    3       29    16  44    3.6305   399.0    4.383      23.787
2015    3       29    16  50    3.6315   398.8    4.389      23.770
2015    3       29    16  56    3.6324   398.5    4.395      23.754
2015    3       29    17   1    3.6333   398.2    4.401      23.737
2015    3       29    17   7    3.6342   398.0    4.407      23.721
2015    3       29    17  12    3.6352   397.7    4.413      23.705
2015    3       29    17  18    3.6361   397.4    4.419      23.688
2015    3       29    17  24    3.6370   397.2    4.425      23.672
2015    3       29    17  29    3.6380   396.9    4.431      23.656
2015    3       29    17  35    3.6389   396.6    4.438      23.640
2015    3       29    17  40    3.6399   396.4    4.444      23.624
2015    3       29    17  46    3.6408   396.1    4.450      23.608
2015    3       29    17  52    3.6418   395.8    4.456      23.593
2015    3       29    17  57    3.6428   395.6    4.462      23.577
2015    3       29    18   3    3.6437   395.3    4.468      23.562
2015    3       29    18   8    3.6447   395.0    4.475      23.546
2015    3       29    18  14    3.6457   394.8    4.481      23.531
2015    3       29    18  19    3.6467   394.5    4.487      23.516
2015    3       29    18  25    3.6477   394.3    4.494      23.500
2015    3       29    18  31    3.6487   394.0    4.500      23.485
2015    3       29    18  36    3.6497   393.7    4.506      23.470
2015    3       29    18  42    3.6507   393.5    4.513      23.456
2015    3       29    18  47    3.6517   393.2    4.519      23.441
2015    3       29    18  53    3.6527   393.0    4.526      23.426
2015    3       29    18  59    3.6538   392.7    4.532      23.412
2015    3       29    19   4    3.6548   392.4    4.539      23.397
2015    3       29    19  10    3.6558   392.2    4.545      23.383
2015    3       29    19  15    3.6569   391.9    4.552      23.369
2015    3       29    19  21    3.6580   391.7    4.558      23.354
2015    3       29    19  27    3.6590   391.4    4.565      23.340
2015    3       29    19  32    3.6601   391.1    4.571      23.326
2015    3       29    19  38    3.6612   390.9    4.578      23.313
2015    3       29    19  43    3.6622   390.6    4.585      23.299
2015    3       29    19  49    3.6633   390.4    4.591      23.285
2015    3       29    19  55    3.6644   390.1    4.598      23.271
2015    3       29    20   0    3.6655   389.9    4.605      23.258
2015    3       29    20   6    3.6666   389.6    4.611      23.244
2015    3       29    20  11    3.6677   389.4    4.618      23.231
2015    3       29    20  17    3.6688   389.1    4.625      23.218
2015    3       29    20  23    3.6699   388.9    4.632      23.204
2015    3       29    20  28    3.6710   388.6    4.638      23.191
2015    3       29    20  34    3.6722   388.4    4.645      23.178
2015    3       29    20  39    3.6733   388.1    4.652      23.165
2015    3       29    20  45    3.6744   387.9    4.659      23.151
2015    3       29    20  51    3.6755   387.6    4.665      23.139
2015    3       29    20  56    3.6767   387.4    4.672      23.125
2015    3       29    21   2    3.6778   387.1    4.679      23.112
2015    3       29    21   7    3.6790   386.9    4.686      23.099
2015    3       29    21  13    3.6801   386.6    4.692      23.087
2015    3       29    21  18    3.6813   386.4    4.699      23.074
2015    3       29    21  24    3.6824   386.1    4.706      23.061
2015    3       29    21  30    3.6836   385.9    4.713      23.048
2015    3       29    21  35    3.6847   385.6    4.719      23.035
2015    3       29    21  41    3.6859   385.4    4.726      23.022
2015    3       29    21  46    3.6871   385.1    4.733      23.009
2015    3       29    21  52    3.6882   384.9    4.740      22.996
2015    3       29    21  58    3.6894   384.7    4.746      22.983
2015    3       29    22   3    3.6905   384.4    4.753      22.971
2015    3       29    22   9    3.6917   384.2    4.760      22.958
2015    3       29    22  14    3.6929   383.9    4.766      22.945
2015    3       29    22  20    3.6941   383.7    4.773      22.932
2015    3       29    22  26    3.6952   383.5    4.780      22.919
2015    3       29    22  31    3.6964   383.2    4.787      22.906
2015    3       29    22  37    3.6976   383.0    4.793      22.893
2015    3       29    22  42    3.6988   382.7    4.800      22.881
2015    3       29    22  48    3.7000   382.5    4.807      22.868
2015    3       29    22  54    3.7012   382.3    4.813      22.855
2015    3       29    22  59    3.7023   382.0    4.820      22.842
2015    3       29    23   5    3.7035   381.8    4.827      22.830
2015    3       29    23  10    3.7047   381.6    4.833      22.817
2015    3       29    23  16    3.7059   381.3    4.840      22.804
2015    3       29    23  21    3.7071   381.1    4.846      22.791
2015    3       29    23  27    3.7083   380.8    4.853      22.779
2015    3       29    23  33    3.7096   380.6    4.860      22.766
2015    3       29    23  38    3.7108   380.4    4.866      22.754
2015    3       29    23  44    3.7120   380.1    4.873      22.741
2015    3       29    23  49    3.7132   379.9    4.880      22.729
2015    3       29    23  55    3.7144   379.7    4.887      22.716
2015    3       30     0   1    3.7157   379.4    4.893      22.704
2015    3       30     0   6    3.7169   379.2    4.900      22.692
2015    3       30     0  12    3.7182   379.0    4.907      22.680
2015    3       30     0  17    3.7194   378.7    4.914      22.668
2015    3       30     0  23    3.7207   378.5    4.920      22.656
2015    3       30     0  29    3.7219   378.3    4.927      22.644
2015    3       30     0  34    3.7232   378.1    4.934      22.632
2015    3       30     0  40    3.7245   377.8    4.941      22.620
2015    3       30     0  45    3.7258   377.6    4.948      22.608
2015    3       30     0  51    3.7271   377.4    4.955      22.597
2015    3       30     0  57    3.7284   377.1    4.962      22.586
2015    3       30     1   2    3.7297   376.9    4.969      22.574
2015    3       30     1   8    3.7310   376.7    4.976      22.563
2015    3       30     1  13    3.7323   376.5    4.983      22.552
2015    3       30     1  19    3.7337   376.2    4.990      22.541
2015    3       30     1  25    3.7350   376.0    4.997      22.531
2015    3       30     1  30    3.7364   375.8    5.004      22.520
2015    3       30     1  36    3.7377   375.6    5.011      22.510
2015    3       30     1  41    3.7391   375.3    5.018      22.499
2015    3       30     1  47    3.7405   375.1    5.025      22.489
2015    3       30     1  52    3.7419   374.9    5.033      22.479
2015    3       30     1  58    3.7433   374.7    5.040      22.469
2015    3       30     2   4    3.7447   374.4    5.047      22.459
2015    3       30     2   9    3.7461   374.2    5.055      22.450
2015    3       30     2  15    3.7475   374.0    5.062      22.440
2015    3       30     2  20    3.7489   373.8    5.069      22.431
2015    3       30     2  26    3.7503   373.6    5.077      22.422
2015    3       30     2  32    3.7518   373.3    5.084      22.413
2015    3       30     2  37    3.7532   373.1    5.092      22.404
2015    3       30     2  43    3.7547   372.9    5.099      22.395
2015    3       30     2  48    3.7561   372.7    5.107      22.386
2015    3       30     2  54    3.7576   372.5    5.114      22.378
2015    3       30     3   0    3.7591   372.3    5.122      22.369
2015    3       30     3   5    3.7605   372.0    5.129      22.360
2015    3       30     3  11    3.7620   371.8    5.137      22.352
2015    3       30     3  16    3.7635   371.6    5.144      22.344
2015    3       30     3  22    3.7650   371.4    5.152      22.336
2015    3       30     3  28    3.7665   371.2    5.160      22.328
2015    3       30     3  33    3.7680   371.0    5.167      22.320
2015    3       30     3  39    3.7695   370.8    5.175      22.312
2015    3       30     3  44    3.7710   370.5    5.182      22.304
2015    3       30     3  50    3.7725   370.3    5.190      22.296
2015    3       30     3  56    3.7740   370.1    5.198      22.288
2015    3       30     4   1    3.7755   369.9    5.205      22.281
2015    3       30     4   7    3.7770   369.7    5.213      22.273
2015    3       30     4  12    3.7786   369.5    5.220      22.265
2015    3       30     4  18    3.7801   369.3    5.228      22.258
2015    3       30     4  23    3.7816   369.1    5.236      22.250
2015    3       30     4  29    3.7831   368.9    5.243      22.243
2015    3       30     4  35    3.7846   368.7    5.251      22.235
2015    3       30     4  40    3.7862   368.5    5.258      22.228
2015    3       30     4  46    3.7877   368.3    5.266      22.220
2015    3       30     4  51    3.7892   368.1    5.273      22.213
2015    3       30     4  57    3.7907   367.8    5.281      22.205
2015    3       30     5   3    3.7923   367.6    5.288      22.198
2015    3       30     5   8    3.7938   367.4    5.296      22.191
2015    3       30     5  14    3.7953   367.2    5.303      22.183
2015    3       30     5  19    3.7969   367.0    5.311      22.176
2015    3       30     5  25    3.7984   366.8    5.318      22.169
2015    3       30     5  31    3.7999   366.6    5.325      22.161
2015    3       30     5  36    3.8015   366.4    5.333      22.154
2015    3       30     5  42    3.8030   366.2    5.340      22.147
2015    3       30     5  47    3.8046   366.0    5.348      22.139
2015    3       30     5  53    3.8062   365.8    5.355      22.132
2015    3       30     5  59    3.8077   365.6    5.362      22.125
2015    3       30     6   4    3.8093   365.4    5.370      22.118
2015    3       30     6  10    3.8108   365.2    5.377      22.110
2015    3       30     6  15    3.8124   365.0    5.385      22.103
2015    3       30     6  21    3.8140   364.8    5.392      22.096
2015    3       30     6  27    3.8156   364.6    5.399      22.089
2015    3       30     6  32    3.8172   364.4    5.407      22.082
2015    3       30     6  38    3.8188   364.2    5.414      22.075
2015    3       30     6  43    3.8203   364.0    5.421      22.069
2015    3       30     6  49    3.8220   363.8    5.429      22.062
2015    3       30     6  54    3.8236   363.6    5.436      22.055
2015    3       30     7   0    3.8252   363.5    5.443      22.048
2015    3       30     7   6    3.8268   363.3    5.451      22.042
2015    3       30     7  11    3.8284   363.1    5.458      22.035
2015    3       30     7  17    3.8301   362.9    5.466      22.029
2015    3       30     7  22    3.8317   362.7    5.473      22.022
2015    3       30     7  28    3.8334   362.5    5.480      22.016
2015    3       30     7  34    3.8350   362.3    5.488      22.010
2015    3       30     7  39    3.8367   362.1    5.495      22.003
2015    3       30     7  45    3.8384   361.9    5.503      21.997
2015    3       30     7  50    3.8401   361.7    5.510      21.991
2015    3       30     7  56    3.8417   361.5    5.518      21.985
2015    3       30     8   2    3.8434   361.3    5.525      21.980
2015    3       30     8   7    3.8451   361.1    5.533      21.974
2015    3       30     8  13    3.8469   361.0    5.540      21.968
2015    3       30     8  18    3.8486   360.8    5.548      21.963
2015    3       30     8  24    3.8503   360.6    5.556      21.957
2015    3       30     8  30    3.8520   360.4    5.563      21.952
2015    3       30     8  35    3.8538   360.2    5.571      21.947
2015    3       30     8  41    3.8555   360.0    5.579      21.942
2015    3       30     8  46    3.8573   359.8    5.586      21.936
2015    3       30     8  52    3.8590   359.6    5.594      21.931
2015    3       30     8  58    3.8608   359.5    5.602      21.927
2015    3       30     9   3    3.8626   359.3    5.609      21.922
2015    3       30     9   9    3.8644   359.1    5.617      21.917
2015    3       30     9  14    3.8662   358.9    5.625      21.913
2015    3       30     9  20    3.8680   358.7    5.633      21.908
2015    3       30     9  25    3.8698   358.5    5.641      21.904
2015    3       30     9  31    3.8716   358.4    5.648      21.899
2015    3       30     9  37    3.8734   358.2    5.656      21.895
2015    3       30     9  42    3.8752   358.0    5.664      21.891
2015    3       30     9  48    3.8771   357.8    5.672      21.887
2015    3       30     9  53    3.8789   357.6    5.680      21.883
2015    3       30     9  59    3.8807   357.5    5.688      21.879
2015    3       30    10   5    3.8826   357.3    5.696      21.876
2015    3       30    10  10    3.8844   357.1    5.704      21.872
2015    3       30    10  16    3.8863   356.9    5.712      21.868
2015    3       30    10  21    3.8882   356.7    5.719      21.865
2015    3       30    10  27    3.8900   356.6    5.727      21.861
2015    3       30    10  33    3.8919   356.4    5.735      21.858
2015    3       30    10  38    3.8938   356.2    5.743      21.855
2015    3       30    10  44    3.8957   356.0    5.751      21.852
2015    3       30    10  49    3.8976   355.9    5.759      21.848
2015    3       30    10  55    3.8995   355.7    5.767      21.845
2015    3       30    11   1    3.9014   355.5    5.775      21.842
2015    3       30    11   6    3.9033   355.3    5.783      21.839
2015    3       30    11  12    3.9052   355.2    5.791      21.836
2015    3       30    11  17    3.9071   355.0    5.799      21.834
2015    3       30    11  23    3.9090   354.8    5.807      21.831
2015    3       30    11  29    3.9109   354.6    5.816      21.828
2015    3       30    11  34    3.9129   354.5    5.824      21.826
2015    3       30    11  40    3.9148   354.3    5.832      21.823
2015    3       30    11  45    3.9167   354.1    5.840      21.820
2015    3       30    11  51    3.9187   354.0    5.848      21.818
2015    3       30    11  57    3.9206   353.8    5.856      21.815
2015    3       30    12   2    3.9226   353.6    5.864      21.813
2015    3       30    12   8    3.9245   353.4    5.872      21.811
2015    3       30    12  13    3.9265   353.3    5.880      21.808
2015    3       30    12  19    3.9285   353.1    5.888      21.806
2015    3       30    12  24    3.9304   352.9    5.896      21.804
2015    3       30    12  30    3.9324   352.8    5.904      21.802
2015    3       30    12  36    3.9344   352.6    5.912      21.800
2015    3       30    12  41    3.9364   352.4    5.920      21.798
2015    3       30    12  47    3.9384   352.3    5.928      21.796
2015    3       30    12  52    3.9404   352.1    5.936      21.794
2015    3       30    12  58    3.9424   351.9    5.944      21.792
2015    3       30    13   4    3.9444   351.8    5.952      21.791
2015    3       30    13   9    3.9464   351.6    5.960      21.789
2015    3       30    13  15    3.9484   351.4    5.968      21.787
2015    3       30    13  20    3.9505   351.3    5.976      21.786
2015    3       30    13  26    3.9525   351.1    5.985      21.784
2015    3       30    13  32    3.9546   350.9    5.993      21.783
2015    3       30    13  37    3.9566   350.8    6.001      21.781
2015    3       30    13  43    3.9587   350.6    6.009      21.780
2015    3       30    13  48    3.9607   350.5    6.017      21.778
2015    3       30    13  54    3.9628   350.3    6.025      21.777
2015    3       30    14   0    3.9649   350.1    6.033      21.776
2015    3       30    14   5    3.9670   350.0    6.041      21.775
2015    3       30    14  11    3.9691   349.8    6.049      21.774
2015    3       30    14  16    3.9712   349.6    6.057      21.773
2015    3       30    14  22    3.9733   349.5    6.066      21.772
2015    3       30    14  28    3.9754   349.3    6.074      21.771
2015    3       30    14  33    3.9775   349.2    6.082      21.770
2015    3       30    14  39    3.9796   349.0    6.090      21.769
2015    3       30    14  44    3.9818   348.8    6.098      21.768
2015    3       30    14  50    3.9839   348.7    6.106      21.768
2015    3       30    14  55    3.9861   348.5    6.115      21.767
2015    3       30    15   1    3.9883   348.4    6.123      21.766
2015    3       30    15   7    3.9904   348.2    6.131      21.766
2015    3       30    15  12    3.9926   348.1    6.139      21.765
2015    3       30    15  18    3.9948   347.9    6.147      21.765
2015    3       30    15  23    3.9970   347.7    6.156      21.765
2015    3       30    15  29    3.9992   347.6    6.164      21.765
2015    3       30    15  35    4.0015   347.4    6.172      21.764
2015    3       30    15  40    4.0037   347.3    6.181      21.764
2015    3       30    15  46    4.0059   347.1    6.189      21.764
2015    3       30    15  51    4.0082   347.0    6.197      21.764
2015    3       30    15  57    4.0104   346.8    6.206      21.764
2015    3       30    16   3    4.0127   346.7    6.214      21.764
2015    3       30    16   8    4.0150   346.5    6.222      21.765
2015    3       30    16  14    4.0172   346.3    6.231      21.765
2015    3       30    16  19    4.0195   346.2    6.239      21.765
2015    3       30    16  25    4.0218   346.0    6.248      21.765
2015    3       30    16  31    4.0241   345.9    6.256      21.766
2015    3       30    16  36    4.0265   345.7    6.264      21.766
2015    3       30    16  42    4.0288   345.6    6.273      21.767
2015    3       30    16  47    4.0311   345.4    6.281      21.768
2015    3       30    16  53    4.0335   345.3    6.290      21.768
2015    3       30    16  59    4.0358   345.1    6.298      21.769
2015    3       30    17   4    4.0382   345.0    6.307      21.770
2015    3       30    17  10    4.0406   344.8    6.316      21.771
2015    3       30    17  15    4.0430   344.7    6.324      21.772
2015    3       30    17  21    4.0453   344.5    6.333      21.773
2015    3       30    17  26    4.0477   344.4    6.341      21.774
2015    3       30    17  32    4.0502   344.2    6.350      21.775
2015    3       30    17  38    4.0526   344.1    6.359      21.776
2015    3       30    17  43    4.0550   344.0    6.367      21.777
2015    3       30    17  49    4.0574   343.8    6.376      21.778
2015    3       30    17  54    4.0599   343.7    6.384      21.780
2015    3       30    18   0    4.0624   343.5    6.393      21.781
2015    3       30    18   6    4.0648   343.4    6.402      21.782
2015    3       30    18  11    4.0673   343.2    6.411      21.784
2015    3       30    18  17    4.0698   343.1    6.419      21.785
2015    3       30    18  22    4.0723   342.9    6.428      21.787
2015    3       30    18  28    4.0748   342.8    6.437      21.788
2015    3       30    18  34    4.0773   342.7    6.446      21.790
2015    3       30    18  39    4.0798   342.5    6.454      21.792
2015    3       30    18  45    4.0823   342.4    6.463      21.794
2015    3       30    18  50    4.0849   342.2    6.472      21.796
2015    3       30    18  56    4.0874   342.1    6.481      21.797
2015    3       30    19   2    4.0900   341.9    6.490      21.799
2015    3       30    19   7    4.0925   341.8    6.498      21.801
2015    3       30    19  13    4.0951   341.7    6.507      21.803
2015    3       30    19  18    4.0977   341.5    6.516      21.805
2015    3       30    19  24    4.1003   341.4    6.525      21.808
2015    3       30    19  30    4.1029   341.2    6.534      21.810
2015    3       30    19  35    4.1055   341.1    6.543      21.812
2015    3       30    19  41    4.1081   341.0    6.552      21.814
2015    3       30    19  46    4.1108   340.8    6.561      21.816
2015    3       30    19  52    4.1134   340.7    6.569      21.819
2015    3       30    19  57    4.1161   340.5    6.578      21.821
2015    3       30    20   3    4.1187   340.4    6.587      21.824
2015    3       30    20   9    4.1214   340.3    6.596      21.826
2015    3       30    20  14    4.1241   340.1    6.605      21.829
2015    3       30    20  20    4.1268   340.0    6.614      21.831
2015    3       30    20  25    4.1295   339.9    6.623      21.834
2015    3       30    20  31    4.1322   339.7    6.632      21.837
2015    3       30    20  37    4.1349   339.6    6.641      21.839
2015    3       30    20  42    4.1376   339.5    6.650      21.842
2015    3       30    20  48    4.1404   339.3    6.660      21.845
2015    3       30    20  53    4.1431   339.2    6.669      21.848
2015    3       30    20  59    4.1459   339.1    6.678      21.851
2015    3       30    21   5    4.1487   338.9    6.687      21.854
2015    3       30    21  10    4.1514   338.8    6.696      21.857
2015    3       30    21  16    4.1542   338.7    6.705      21.860
2015    3       30    21  21    4.1570   338.5    6.714      21.863
2015    3       30    21  27    4.1599   338.4    6.723      21.866
2015    3       30    21  33    4.1627   338.3    6.733      21.869
2015    3       30    21  38    4.1655   338.1    6.742      21.872
2015    3       30    21  44    4.1684   338.0    6.751      21.876
2015    3       30    21  49    4.1712   337.9    6.760      21.879
2015    3       30    21  55    4.1741   337.7    6.769      21.882
2015    3       30    22   0    4.1770   337.6    6.779      21.886
2015    3       30    22   6    4.1799   337.5    6.788      21.889
2015    3       30    22  12    4.1828   337.3    6.797      21.893
2015    3       30    22  17    4.1857   337.2    6.807      21.897
2015    3       30    22  23    4.1886   337.1    6.816      21.900
2015    3       30    22  28    4.1915   337.0    6.825      21.904
2015    3       30    22  34    4.1945   336.8    6.835      21.908
2015    3       30    22  40    4.1974   336.7    6.844      21.912
2015    3       30    22  45    4.2004   336.6    6.853      21.916
2015    3       30    22  51    4.2034   336.5    6.863      21.919
2015    3       30    22  56    4.2064   336.3    6.872      21.924
2015    3       30    23   2    4.2094   336.2    6.882      21.927
2015    3       30    23   8    4.2124   336.1    6.891      21.932
2015    3       30    23  13    4.2154   336.0    6.901      21.936
2015    3       30    23  19    4.2185   335.8    6.910      21.940
2015    3       30    23  24    4.2215   335.7    6.920      21.944
2015    3       30    23  30    4.2246   335.6    6.929      21.949
2015    3       30    23  36    4.2277   335.5    6.939      21.953
2015    3       30    23  41    4.2308   335.3    6.949      21.958
2015    3       30    23  47    4.2339   335.2    6.958      21.962
2015    3       30    23  52    4.2370   335.1    6.968      21.967
2015    3       30    23  58    4.2402   335.0    6.977      21.972
2015    3       31     0   4    4.2434   334.8    6.987      21.976
2015    3       31     0   9    4.2465   334.7    6.997      21.981
2015    3       31     0  15    4.2497   334.6    7.007      21.986
2015    3       31     0  20    4.2529   334.5    7.016      21.991
2015    3       31     0  26    4.2561   334.4    7.026      21.996
2015    3       31     0  31    4.2594   334.2    7.036      22.001
2015    3       31     0  37    4.2626   334.1    7.046      22.006
2015    3       31     0  43    4.2659   334.0    7.056      22.012
2015    3       31     0  48    4.2691   333.9    7.066      22.017
2015    3       31     0  54    4.2724   333.8    7.076      22.022
2015    3       31     0  59    4.2757   333.6    7.086      22.028
2015    3       31     1   5    4.2790   333.5    7.095      22.033
2015    3       31     1  11    4.2824   333.4    7.105      22.039
2015    3       31     1  16    4.2857   333.3    7.115      22.044
2015    3       31     1  22    4.2891   333.2    7.125      22.050
2015    3       31     1  27    4.2925   333.1    7.136      22.056
2015    3       31     1  33    4.2959   332.9    7.146      22.062
2015    3       31     1  39    4.2993   332.8    7.156      22.068
2015    3       31     1  44    4.3027   332.7    7.166      22.074
2015    3       31     1  50    4.3061   332.6    7.176      22.080
2015    3       31     1  55    4.3096   332.5    7.186      22.086
2015    3       31     2   1    4.3131   332.4    7.196      22.092
2015    3       31     2   7    4.3166   332.3    7.207      22.098
2015    3       31     2  12    4.3201   332.1    7.217      22.105
2015    3       31     2  18    4.3236   332.0    7.227      22.111
2015    3       31     2  23    4.3271   331.9    7.237      22.117
2015    3       31     2  29    4.3307   331.8    7.248      22.124
2015    3       31     2  35    4.3342   331.7    7.258      22.131
2015    3       31     2  40    4.3378   331.6    7.268      22.137
2015    3       31     2  46    4.3414   331.5    7.279      22.144
2015    3       31     2  51    4.3450   331.4    7.289      22.151
2015    3       31     2  57    4.3486   331.3    7.299      22.158
2015    3       31     3   3    4.3523   331.1    7.310      22.165
2015    3       31     3   8    4.3559   331.0    7.320      22.172
2015    3       31     3  14    4.3596   330.9    7.331      22.178
2015    3       31     3  19    4.3633   330.8    7.341      22.186
2015    3       31     3  25    4.3670   330.7    7.352      22.193
2015    3       31     3  30    4.3707   330.6    7.362      22.200
2015    3       31     3  36    4.3744   330.5    7.373      22.207
2015    3       31     3  42    4.3782   330.4    7.383      22.214
2015    3       31     3  47    4.3819   330.3    7.394      22.222
2015    3       31     3  53    4.3857   330.2    7.405      22.229
2015    3       31     3  58    4.3895   330.1    7.415      22.236
2015    3       31     4   4    4.3933   330.0    7.426      22.244
2015    3       31     4  10    4.3971   329.9    7.436      22.252
2015    3       31     4  15    4.4009   329.8    7.447      22.259
2015    3       31     4  21    4.4048   329.7    7.458      22.267
2015    3       31     4  26    4.4086   329.6    7.468      22.274
2015    3       31     4  32    4.4125   329.4    7.479      22.282
2015    3       31     4  38    4.4164   329.3    7.490      22.290
2015    3       31     4  43    4.4203   329.2    7.501      22.298
2015    3       31     4  49    4.4242   329.1    7.511      22.306
2015    3       31     4  54    4.4282   329.0    7.522      22.314
2015    3       31     5   0    4.4321   328.9    7.533      22.321
2015    3       31     5   6    4.4361   328.8    7.544      22.329
2015    3       31     5  11    4.4401   328.7    7.554      22.337
2015    3       31     5  17    4.4441   328.6    7.565      22.346
2015    3       31     5  22    4.4481   328.5    7.576      22.354
2015    3       31     5  28    4.4521   328.4    7.587      22.362
2015    3       31     5  34    4.4562   328.3    7.598      22.370
2015    3       31     5  39    4.4603   328.2    7.609      22.378
2015    3       31     5  45    4.4643   328.1    7.620      22.387
2015    3       31     5  50    4.4685   328.0    7.631      22.395
2015    3       31     5  56    4.4726   327.9    7.642      22.404
2015    3       31     6   1    4.4767   327.8    7.653      22.412
2015    3       31     6   7    4.4809   327.7    7.664      22.421
2015    3       31     6  13    4.4851   327.6    7.675      22.429
2015    3       31     6  18    4.4893   327.6    7.686      22.438
2015    3       31     6  24    4.4935   327.5    7.697      22.447
2015    3       31     6  29    4.4977   327.4    7.709      22.456
2015    3       31     6  35    4.5020   327.3    7.720      22.465
2015    3       31     6  41    4.5063   327.2    7.731      22.474
2015    3       31     6  46    4.5106   327.1    7.742      22.483
2015    3       31     6  52    4.5149   327.0    7.754      22.492
2015    3       31     6  57    4.5193   326.9    7.765      22.501
2015    3       31     7   3    4.5236   326.8    7.776      22.510
2015    3       31     7   9    4.5280   326.7    7.788      22.519
2015    3       31     7  14    4.5324   326.6    7.799      22.529
2015    3       31     7  20    4.5369   326.5    7.811      22.538
2015    3       31     7  25    4.5413   326.4    7.822      22.547
2015    3       31     7  31    4.5458   326.3    7.834      22.557
2015    3       31     7  37    4.5503   326.2    7.845      22.567
2015    3       31     7  42    4.5549   326.1    7.857      22.576
2015    3       31     7  48    4.5594   326.1    7.869      22.586
2015    3       31     7  53    4.5640   326.0    7.880      22.596
2015    3       31     7  59    4.5686   325.9    7.892      22.606
2015    3       31     8   5    4.5732   325.8    7.904      22.616
2015    3       31     8  10    4.5779   325.7    7.916      22.626
2015    3       31     8  16    4.5825   325.6    7.928      22.637
2015    3       31     8  21    4.5872   325.5    7.940      22.647
2015    3       31     8  27    4.5919   325.4    7.952      22.657
2015    3       31     8  32    4.5967   325.3    7.964      22.668
2015    3       31     8  38    4.6015   325.2    7.976      22.678
2015    3       31     8  44    4.6062   325.2    7.988      22.689
2015    3       31     8  49    4.6111   325.1    8.000      22.699
2015    3       31     8  55    4.6159   325.0    8.012      22.710
2015    3       31     9   0    4.6208   324.9    8.024      22.721
2015    3       31     9   6    4.6257   324.8    8.036      22.732
2015    3       31     9  12    4.6306   324.7    8.049      22.743
2015    3       31     9  17    4.6355   324.6    8.061      22.754
2015    3       31     9  23    4.6405   324.6    8.074      22.765
2015    3       31     9  28    4.6455   324.5    8.086      22.777
2015    3       31     9  34    4.6505   324.4    8.098      22.788
2015    3       31     9  40    4.6555   324.3    8.111      22.800
2015    3       31     9  45    4.6606   324.2    8.124      22.811
2015    3       31     9  51    4.6657   324.1    8.136      22.823
2015    3       31     9  56    4.6708   324.1    8.149      22.835
2015    3       31    10   2    4.6759   324.0    8.161      22.846
2015    3       31    10   8    4.6811   323.9    8.174      22.858
2015    3       31    10  13    4.6863   323.8    8.187      22.870
2015    3       31    10  19    4.6915   323.7    8.200      22.883
2015    3       31    10  24    4.6967   323.6    8.213      22.895
2015    3       31    10  30    4.7020   323.6    8.226      22.907
2015    3       31    10  36    4.7073   323.5    8.239      22.919
2015    3       31    10  41    4.7126   323.4    8.252      22.932
2015    3       31    10  47    4.7179   323.3    8.265      22.944
2015    3       31    10  52    4.7233   323.2    8.278      22.957
2015    3       31    10  58    4.7287   323.2    8.291      22.970
2015    3       31    11   3    4.7341   323.1    8.304      22.983
2015    3       31    11   9    4.7395   323.0    8.317      22.996
2015    3       31    11  15    4.7450   322.9    8.331      23.009
2015    3       31    11  20    4.7505   322.8    8.344      23.022
2015    3       31    11  26    4.7560   322.8    8.357      23.035
2015    3       31    11  31    4.7615   322.7    8.371      23.048
2015    3       31    11  37    4.7671   322.6    8.384      23.062
2015    3       31    11  43    4.7727   322.5    8.398      23.075
2015    3       31    11  48    4.7783   322.5    8.411      23.089
2015    3       31    11  54    4.7840   322.4    8.425      23.103
2015    3       31    11  59    4.7897   322.3    8.438      23.116
2015    3       31    12   5    4.7954   322.2    8.452      23.130
2015    3       31    12  11    4.8011   322.2    8.466      23.144
2015    3       31    12  16    4.8068   322.1    8.480      23.159
2015    3       31    12  22    4.8126   322.0    8.494      23.173
2015    3       31    12  27    4.8185   321.9    8.507      23.187
2015    3       31    12  33    4.8243   321.9    8.521      23.201
2015    3       31    12  39    4.8302   321.8    8.535      23.216
2015    3       31    12  44    4.8361   321.7    8.550      23.231
2015    3       31    12  50    4.8420   321.6    8.564      23.245
2015    3       31    12  55    4.8480   321.6    8.578      23.260
2015    3       31    13   1    4.8540   321.5    8.592      23.275
2015    3       31    13   7    4.8601   321.4    8.607      23.290
2015    3       31    13  12    4.8661   321.4    8.621      23.306
2015    3       31    13  18    4.8722   321.3    8.636      23.321
2015    3       31    13  23    4.8784   321.2    8.650      23.337
2015    3       31    13  29    4.8845   321.1    8.665      23.352
2015    3       31    13  34    4.8908   321.1    8.679      23.368
2015    3       31    13  40    4.8970   321.0    8.694      23.384
2015    3       31    13  46    4.9033   320.9    8.709      23.399
2015    3       31    13  51    4.9096   320.9    8.724      23.416
2015    3       31    13  57    4.9160   320.8    8.739      23.432
2015    3       31    14   2    4.9224   320.7    8.754      23.448
2015    3       31    14   8    4.9288   320.7    8.769      23.465
2015    3       31    14  14    4.9353   320.6    8.785      23.481
2015    3       31    14  19    4.9418   320.5    8.800      23.498
2015    3       31    14  25    4.9483   320.5    8.816      23.515
2015    3       31    14  30    4.9549   320.4    8.831      23.532
2015    3       31    14  36    4.9616   320.3    8.847      23.549
2015    3       31    14  42    4.9683   320.3    8.863      23.566
2015    3       31    14  47    4.9750   320.2    8.879      23.584
2015    3       31    14  53    4.9817   320.1    8.894      23.601
2015    3       31    14  58    4.9886   320.1    8.911      23.619
2015    3       31    15   4    4.9954   320.0    8.927      23.637
2015    3       31    15  10    5.0023   319.9    8.943      23.654
2015    3       31    15  15    5.0093   319.9    8.959      23.673
2015    3       31    15  21    5.0163   319.8    8.976      23.691
2015    3       31    15  26    5.0233   319.8    8.992      23.709
2015    3       31    15  32    5.0305   319.7    9.009      23.728
2015    3       31    15  38    5.0376   319.6    9.026      23.746
2015    3       31    15  43    5.0448   319.6    9.043      23.765
2015    3       31    15  49    5.0521   319.5    9.060      23.784
2015    3       31    15  54    5.0594   319.4    9.077      23.803
2015    3       31    16   0    5.0667   319.4    9.094      23.823
2015    3       31    16   5    5.0742   319.3    9.112      23.842
2015    3       31    16  11    5.0816   319.3    9.129      23.862
2015    3       31    16  17    5.0892   319.2    9.147      23.881
2015    3       31    16  22    5.0968   319.1    9.164      23.901
2015    3       31    16  28    5.1044   319.1    9.182      23.922
2015    3       31    16  33    5.1121   319.0    9.200      23.942
2015    3       31    16  39    5.1199   319.0    9.218      23.962
2015    3       31    16  45    5.1277   318.9    9.236      23.983
2015    3       31    16  50    5.1357   318.9    9.254      24.003
2015    3       31    16  56    5.1436   318.8    9.272      24.024
2015    3       31    17   1    5.1516   318.7    9.291      24.045
2015    3       31    17   7    5.1597   318.7    9.309      24.067
2015    3       31    17  13    5.1678   318.6    9.328      24.088
2015    3       31    17  18    5.1760   318.6    9.347      24.109
2015    3       31    17  24    5.1842   318.5    9.365      24.131
2015    3       31    17  29    5.1925   318.5    9.384      24.152
2015    3       31    17  35    5.2009   318.4    9.403      24.174
2015    3       31    17  41    5.2093   318.3    9.422      24.196
2015    3       31    17  46    5.2178   318.3    9.441      24.218
2015    3       31    17  52    5.2263   318.2    9.460      24.241
2015    3       31    17  57    5.2349   318.2    9.480      24.263
2015    3       31    18   3    5.2435   318.1    9.499      24.285
2015    3       31    18   8    5.2522   318.1    9.518      24.308
2015    3       31    18  14    5.2609   318.0    9.538      24.330
2015    3       31    18  20    5.2697   318.0    9.557      24.353
2015    3       31    18  25    5.2785   317.9    9.577      24.376
2015    3       31    18  31    5.2874   317.9    9.596      24.398
2015    3       31    18  36    5.2962   317.8    9.616      24.421
2015    3       31    18  42    5.3052   317.8    9.635      24.444
2015    3       31    18  48    5.3142   317.7    9.655      24.467
2015    3       31    18  53    5.3232   317.7    9.675      24.490
2015    3       31    18  59    5.3323   317.6    9.694      24.513
2015    3       31    19   4    5.3414   317.6    9.714      24.537
2015    3       31    19  10    5.3506   317.5    9.734      24.560
2015    3       31    19  16    5.3598   317.5    9.754      24.583
2015    3       31    19  21    5.3690   317.4    9.773      24.606
2015    3       31    19  27    5.3784   317.4    9.793      24.629
2015    3       31    19  32    5.3877   317.3    9.813      24.653
2015    3       31    19  38    5.3971   317.3    9.833      24.676
2015    3       31    19  44    5.4065   317.2    9.853      24.699
2015    3       31    19  49    5.4160   317.2    9.873      24.722
2015    3       31    19  55    5.4256   317.1    9.893      24.746
2015    3       31    20   0    5.4352   317.1    9.913      24.769
2015    3       31    20   6    5.4448   317.0    9.934      24.792
2015    3       31    20  12    5.4545   317.0    9.954      24.815
2015    3       31    20  17    5.4643   316.9    9.974      24.838
2015    3       31    20  23    5.4741   316.9    9.994      24.861
2015    3       31    20  28    5.4840   316.8   10.015      24.884
2015    3       31    20  34    5.4939   316.8   10.036      24.907
2015    3       31    20  39    5.5039   316.7   10.056      24.930
2015    3       31    20  45    5.5140   316.6   10.077      24.953
2015    3       31    20  51    5.5241   316.6   10.098      24.977
2015    3       31    20  56    5.5343   316.5   10.119      25.000
2015    3       31    21   2    5.5446   316.5   10.140      25.023
2015    3       31    21   7    5.5549   316.4   10.162      25.046
2015    3       31    21  13    5.5653   316.4   10.183      25.069
2015    3       31    21  19    5.5758   316.3   10.205      25.091
2015    3       31    21  24    5.5864   316.3   10.226      25.115
2015    3       31    21  30    5.5970   316.2   10.249      25.138
2015    3       31    21  35    5.6077   316.2   10.271      25.161
2015    3       31    21  41    5.6185   316.1   10.293      25.184
2015    3       31    21  47    5.6294   316.1   10.316      25.208
2015    3       31    21  52    5.6403   316.0   10.339      25.231
2015    3       31    21  58    5.6514   315.9   10.363      25.255
2015    3       31    22   3    5.6625   315.9   10.386      25.279
2015    3       31    22   9    5.6738   315.8   10.410      25.303
2015    3       31    22  15    5.6851   315.8   10.435      25.328
2015    3       31    22  20    5.6966   315.7   10.460      25.353
2015    3       31    22  26    5.7081   315.7   10.485      25.379
2015    3       31    22  31    5.7198   315.6   10.510      25.405
2015    3       31    22  37    5.7316   315.5   10.537      25.431
2015    3       31    22  43    5.7435   315.5   10.563      25.459
2015    3       31    22  48    5.7556   315.4   10.591      25.486
2015    3       31    22  54    5.7678   315.4   10.618      25.515
2015    3       31    22  59    5.7802   315.3   10.647      25.545
2015    3       31    23   5    5.7927   315.3   10.676      25.575
2015    3       31    23  10    5.8054   315.2   10.705      25.606
2015    3       31    23  16    5.8182   315.2   10.736      25.639
2015    3       31    23  22    5.8312   315.1   10.767      25.672
2015    3       31    23  27    5.8443   315.1   10.798      25.706
2015    3       31    23  33    5.8576   315.0   10.830      25.741
2015    3       31    23  38    5.8711   315.0   10.863      25.778
2015    3       31    23  44    5.8848   314.9   10.897      25.815
2015    3       31    23  50    5.8986   314.9   10.931      25.854
2015    3       31    23  55    5.9126   314.9   10.966      25.894
2015    4        1     0   1    5.9267   314.8   11.002      25.934
