year    month   day   hour  minute  B_enl V_enl   n_enl       T_enl
[year] [month] [day] [hour][minute] [nT]  [km/s]  [cm-3]      [kK]
2015    3       23     0   3    4.7788   442.4    6.392      38.409
2015    3       23     0   9    4.7791   442.3    6.393      38.400
2015    3       23     0  14    4.7795   442.3    6.394      38.391
2015    3       23     0  20    4.7798   442.3    6.395      38.382
2015    3       23     0  25    4.7801   442.3    6.396      38.373
2015    3       23     0  31    4.7805   442.2    6.397      38.364
2015    3       23     0  37    4.7808   442.2    6.398      38.355
2015    3       23     0  42    4.7812   442.2    6.399      38.346
2015    3       23     0  48    4.7815   442.1    6.400      38.337
2015    3       23     0  53    4.7819   442.1    6.401      38.328
2015    3       23     0  59    4.7822   442.1    6.402      38.319
2015    3       23     1   4    4.7825   442.1    6.404      38.310
2015    3       23     1  10    4.7829   442.0    6.405      38.302
2015    3       23     1  15    4.7832   442.0    6.406      38.293
2015    3       23     1  21    4.7836   442.0    6.407      38.284
2015    3       23     1  27    4.7839   442.0    6.408      38.275
2015    3       23     1  32    4.7842   441.9    6.409      38.266
2015    3       23     1  38    4.7846   441.9    6.410      38.257
2015    3       23     1  43    4.7849   441.9    6.411      38.248
2015    3       23     1  49    4.7852   441.9    6.412      38.239
2015    3       23     1  54    4.7856   441.8    6.412      38.230
2015    3       23     2   0    4.7859   441.8    6.413      38.221
2015    3       23     2   5    4.7862   441.8    6.414      38.212
2015    3       23     2  11    4.7866   441.8    6.415      38.203
2015    3       23     2  17    4.7869   441.7    6.416      38.193
2015    3       23     2  22    4.7872   441.7    6.417      38.184
2015    3       23     2  28    4.7875   441.7    6.417      38.174
2015    3       23     2  33    4.7878   441.6    6.418      38.165
2015    3       23     2  39    4.7881   441.6    6.419      38.155
2015    3       23     2  44    4.7885   441.6    6.419      38.146
2015    3       23     2  50    4.7888   441.6    6.420      38.136
2015    3       23     2  55    4.7891   441.5    6.420      38.126
2015    3       23     3   1    4.7894   441.5    6.421      38.116
2015    3       23     3   7    4.7897   441.5    6.421      38.106
2015    3       23     3  12    4.7900   441.4    6.422      38.096
2015    3       23     3  18    4.7904   441.4    6.422      38.086
2015    3       23     3  23    4.7907   441.4    6.423      38.076
2015    3       23     3  29    4.7910   441.4    6.423      38.065
2015    3       23     3  34    4.7914   441.3    6.424      38.055
2015    3       23     3  40    4.7917   441.3    6.424      38.045
2015    3       23     3  45    4.7921   441.3    6.424      38.034
2015    3       23     3  51    4.7924   441.2    6.425      38.024
2015    3       23     3  57    4.7928   441.2    6.425      38.013
2015    3       23     4   2    4.7931   441.2    6.425      38.003
2015    3       23     4   8    4.7935   441.1    6.426      37.992
2015    3       23     4  13    4.7939   441.1    6.426      37.981
2015    3       23     4  19    4.7943   441.1    6.426      37.971
2015    3       23     4  24    4.7946   441.1    6.427      37.960
2015    3       23     4  30    4.7950   441.0    6.427      37.949
2015    3       23     4  35    4.7954   441.0    6.427      37.938
2015    3       23     4  41    4.7958   441.0    6.427      37.927
2015    3       23     4  47    4.7962   440.9    6.428      37.916
2015    3       23     4  52    4.7966   440.9    6.428      37.905
2015    3       23     4  58    4.7970   440.9    6.428      37.894
2015    3       23     5   3    4.7974   440.8    6.428      37.883
2015    3       23     5   9    4.7978   440.8    6.429      37.871
2015    3       23     5  14    4.7982   440.8    6.429      37.860
2015    3       23     5  20    4.7986   440.8    6.429      37.848
2015    3       23     5  25    4.7990   440.7    6.429      37.836
2015    3       23     5  31    4.7993   440.7    6.430      37.825
2015    3       23     5  36    4.7997   440.7    6.430      37.813
2015    3       23     5  42    4.8001   440.6    6.430      37.800
2015    3       23     5  48    4.8005   440.6    6.430      37.788
2015    3       23     5  53    4.8009   440.6    6.431      37.776
2015    3       23     5  59    4.8012   440.5    6.431      37.763
2015    3       23     6   4    4.8016   440.5    6.431      37.750
2015    3       23     6  10    4.8020   440.5    6.431      37.737
2015    3       23     6  15    4.8024   440.4    6.432      37.724
2015    3       23     6  21    4.8028   440.4    6.432      37.711
2015    3       23     6  26    4.8031   440.4    6.432      37.697
2015    3       23     6  32    4.8035   440.3    6.433      37.684
2015    3       23     6  38    4.8039   440.3    6.433      37.670
2015    3       23     6  43    4.8043   440.3    6.433      37.657
2015    3       23     6  49    4.8047   440.2    6.434      37.643
2015    3       23     6  54    4.8051   440.2    6.434      37.630
2015    3       23     7   0    4.8055   440.2    6.435      37.616
2015    3       23     7   5    4.8059   440.1    6.435      37.602
2015    3       23     7  11    4.8063   440.1    6.435      37.589
2015    3       23     7  16    4.8068   440.1    6.436      37.575
2015    3       23     7  22    4.8072   440.0    6.437      37.562
2015    3       23     7  28    4.8076   440.0    6.437      37.548
2015    3       23     7  33    4.8081   440.0    6.438      37.535
2015    3       23     7  39    4.8085   439.9    6.438      37.521
2015    3       23     7  44    4.8090   439.9    6.439      37.508
2015    3       23     7  50    4.8094   439.9    6.440      37.495
2015    3       23     7  55    4.8099   439.8    6.441      37.482
2015    3       23     8   1    4.8103   439.8    6.441      37.468
2015    3       23     8   6    4.8108   439.8    6.442      37.456
2015    3       23     8  12    4.8113   439.7    6.443      37.443
2015    3       23     8  18    4.8118   439.7    6.444      37.430
2015    3       23     8  23    4.8123   439.7    6.445      37.417
2015    3       23     8  29    4.8128   439.6    6.446      37.404
2015    3       23     8  34    4.8133   439.6    6.448      37.392
2015    3       23     8  40    4.8139   439.6    6.449      37.380
2015    3       23     8  45    4.8144   439.5    6.450      37.368
2015    3       23     8  51    4.8149   439.5    6.451      37.356
2015    3       23     8  56    4.8155   439.5    6.453      37.344
2015    3       23     9   2    4.8161   439.4    6.454      37.332
2015    3       23     9   8    4.8167   439.4    6.456      37.321
2015    3       23     9  13    4.8173   439.3    6.457      37.310
2015    3       23     9  19    4.8179   439.3    6.459      37.299
2015    3       23     9  24    4.8185   439.3    6.461      37.288
2015    3       23     9  30    4.8192   439.2    6.462      37.278
2015    3       23     9  35    4.8198   439.2    6.464      37.267
2015    3       23     9  41    4.8205   439.2    6.466      37.257
2015    3       23     9  46    4.8212   439.1    6.468      37.248
2015    3       23     9  52    4.8219   439.1    6.470      37.238
2015    3       23     9  58    4.8227   439.0    6.472      37.229
2015    3       23    10   3    4.8234   439.0    6.475      37.221
2015    3       23    10   9    4.8242   439.0    6.477      37.212
2015    3       23    10  14    4.8250   438.9    6.479      37.204
2015    3       23    10  20    4.8259   438.9    6.481      37.197
2015    3       23    10  25    4.8267   438.9    6.484      37.189
2015    3       23    10  31    4.8276   438.8    6.486      37.182
2015    3       23    10  36    4.8285   438.8    6.489      37.175
2015    3       23    10  42    4.8294   438.8    6.491      37.169
2015    3       23    10  48    4.8304   438.7    6.493      37.163
2015    3       23    10  53    4.8314   438.7    6.496      37.157
2015    3       23    10  59    4.8323   438.6    6.498      37.151
2015    3       23    11   4    4.8333   438.6    6.500      37.146
2015    3       23    11  10    4.8343   438.6    6.502      37.141
2015    3       23    11  15    4.8353   438.6    6.504      37.135
2015    3       23    11  21    4.8364   438.5    6.506      37.129
2015    3       23    11  26    4.8373   438.5    6.507      37.122
2015    3       23    11  32    4.8384   438.5    6.509      37.116
2015    3       23    11  37    4.8393   438.4    6.511      37.109
2015    3       23    11  43    4.8403   438.4    6.512      37.101
2015    3       23    11  49    4.8413   438.4    6.514      37.094
2015    3       23    11  54    4.8423   438.3    6.515      37.086
2015    3       23    12   0    4.8433   438.3    6.516      37.078
2015    3       23    12   5    4.8443   438.3    6.517      37.070
2015    3       23    12  11    4.8453   438.2    6.518      37.061
2015    3       23    12  16    4.8462   438.2    6.519      37.052
2015    3       23    12  22    4.8472   438.2    6.520      37.043
2015    3       23    12  27    4.8481   438.2    6.521      37.034
2015    3       23    12  33    4.8491   438.1    6.522      37.024
2015    3       23    12  39    4.8500   438.1    6.522      37.014
2015    3       23    12  44    4.8509   438.1    6.523      37.004
2015    3       23    12  50    4.8518   438.0    6.524      36.994
2015    3       23    12  55    4.8528   438.0    6.524      36.983
2015    3       23    13   1    4.8537   438.0    6.525      36.971
2015    3       23    13   6    4.8545   438.0    6.525      36.960
2015    3       23    13  12    4.8554   437.9    6.525      36.948
2015    3       23    13  17    4.8563   437.9    6.526      36.936
2015    3       23    13  23    4.8572   437.9    6.526      36.924
2015    3       23    13  29    4.8581   437.8    6.526      36.911
2015    3       23    13  34    4.8590   437.8    6.526      36.899
2015    3       23    13  40    4.8598   437.8    6.527      36.886
2015    3       23    13  45    4.8607   437.8    6.527      36.873
2015    3       23    13  51    4.8616   437.7    6.527      36.859
2015    3       23    13  56    4.8624   437.7    6.527      36.846
2015    3       23    14   2    4.8633   437.7    6.527      36.833
2015    3       23    14   7    4.8642   437.6    6.527      36.819
2015    3       23    14  13    4.8651   437.6    6.527      36.805
2015    3       23    14  19    4.8659   437.6    6.527      36.791
2015    3       23    14  24    4.8668   437.6    6.527      36.777
2015    3       23    14  30    4.8677   437.5    6.527      36.763
2015    3       23    14  35    4.8686   437.5    6.527      36.749
2015    3       23    14  41    4.8695   437.5    6.527      36.735
2015    3       23    14  46    4.8704   437.4    6.527      36.721
2015    3       23    14  52    4.8713   437.4    6.527      36.707
2015    3       23    14  57    4.8723   437.4    6.527      36.692
2015    3       23    15   3    4.8732   437.3    6.527      36.678
2015    3       23    15   9    4.8742   437.3    6.527      36.664
2015    3       23    15  14    4.8751   437.3    6.527      36.650
2015    3       23    15  20    4.8761   437.2    6.528      36.635
2015    3       23    15  25    4.8771   437.2    6.528      36.621
2015    3       23    15  31    4.8781   437.2    6.528      36.607
2015    3       23    15  36    4.8791   437.1    6.528      36.593
2015    3       23    15  42    4.8801   437.1    6.529      36.579
2015    3       23    15  47    4.8811   437.1    6.529      36.565
2015    3       23    15  53    4.8822   437.0    6.530      36.551
2015    3       23    15  59    4.8832   437.0    6.530      36.538
2015    3       23    16   4    4.8843   437.0    6.531      36.524
2015    3       23    16  10    4.8854   436.9    6.531      36.511
2015    3       23    16  15    4.8866   436.9    6.532      36.498
2015    3       23    16  21    4.8877   436.8    6.533      36.485
2015    3       23    16  26    4.8889   436.8    6.534      36.473
2015    3       23    16  32    4.8900   436.8    6.535      36.460
2015    3       23    16  37    4.8913   436.7    6.536      36.448
2015    3       23    16  43    4.8925   436.7    6.538      36.437
2015    3       23    16  48    4.8937   436.6    6.539      36.425
2015    3       23    16  54    4.8950   436.6    6.541      36.414
2015    3       23    17   0    4.8963   436.6    6.542      36.403
2015    3       23    17   5    4.8976   436.5    6.544      36.393
2015    3       23    17  11    4.8990   436.5    6.546      36.383
2015    3       23    17  16    4.9004   436.4    6.548      36.374
2015    3       23    17  22    4.9018   436.4    6.550      36.366
2015    3       23    17  27    4.9032   436.4    6.552      36.357
2015    3       23    17  33    4.9047   436.3    6.555      36.349
2015    3       23    17  38    4.9061   436.3    6.557      36.342
2015    3       23    17  44    4.9077   436.2    6.560      36.335
2015    3       23    17  50    4.9092   436.2    6.562      36.328
2015    3       23    17  55    4.9108   436.2    6.565      36.323
2015    3       23    18   1    4.9124   436.1    6.568      36.317
2015    3       23    18   6    4.9140   436.1    6.570      36.312
2015    3       23    18  12    4.9157   436.0    6.573      36.307
2015    3       23    18  17    4.9174   436.0    6.576      36.303
2015    3       23    18  23    4.9191   436.0    6.579      36.299
2015    3       23    18  28    4.9208   435.9    6.582      36.295
2015    3       23    18  34    4.9225   435.9    6.584      36.291
2015    3       23    18  40    4.9242   435.9    6.587      36.287
2015    3       23    18  45    4.9259   435.8    6.590      36.282
2015    3       23    18  51    4.9277   435.8    6.593      36.278
2015    3       23    18  56    4.9294   435.8    6.595      36.273
2015    3       23    19   2    4.9311   435.7    6.598      36.269
2015    3       23    19   7    4.9329   435.7    6.601      36.264
2015    3       23    19  13    4.9346   435.7    6.603      36.259
2015    3       23    19  18    4.9364   435.6    6.606      36.254
2015    3       23    19  24    4.9382   435.6    6.609      36.250
2015    3       23    19  30    4.9399   435.5    6.611      36.245
2015    3       23    19  35    4.9417   435.5    6.614      36.240
2015    3       23    19  41    4.9435   435.5    6.616      36.234
2015    3       23    19  46    4.9452   435.4    6.619      36.229
2015    3       23    19  52    4.9470   435.4    6.622      36.224
2015    3       23    19  57    4.9488   435.4    6.624      36.219
2015    3       23    20   3    4.9506   435.3    6.627      36.214
2015    3       23    20   8    4.9524   435.3    6.629      36.208
2015    3       23    20  14    4.9542   435.3    6.632      36.203
2015    3       23    20  20    4.9560   435.2    6.634      36.197
2015    3       23    20  25    4.9578   435.2    6.636      36.192
2015    3       23    20  31    4.9596   435.2    6.639      36.186
2015    3       23    20  36    4.9614   435.1    6.641      36.181
2015    3       23    20  42    4.9632   435.1    6.643      36.175
2015    3       23    20  47    4.9651   435.0    6.646      36.170
2015    3       23    20  53    4.9670   435.0    6.648      36.164
2015    3       23    20  58    4.9688   435.0    6.650      36.159
2015    3       23    21   4    4.9707   434.9    6.653      36.153
2015    3       23    21  10    4.9727   434.9    6.655      36.148
2015    3       23    21  15    4.9746   434.8    6.657      36.142
2015    3       23    21  21    4.9766   434.8    6.660      36.137
2015    3       23    21  26    4.9786   434.8    6.662      36.132
2015    3       23    21  32    4.9806   434.7    6.664      36.127
2015    3       23    21  37    4.9827   434.7    6.667      36.122
2015    3       23    21  43    4.9848   434.6    6.669      36.117
2015    3       23    21  48    4.9869   434.6    6.671      36.112
2015    3       23    21  54    4.9891   434.6    6.674      36.108
2015    3       23    21  59    4.9913   434.5    6.676      36.104
2015    3       23    22   5    4.9936   434.5    6.679      36.100
2015    3       23    22  11    4.9959   434.4    6.681      36.096
2015    3       23    22  16    4.9983   434.4    6.684      36.093
2015    3       23    22  22    5.0007   434.4    6.687      36.090
2015    3       23    22  27    5.0031   434.3    6.690      36.087
2015    3       23    22  33    5.0056   434.3    6.692      36.084
2015    3       23    22  38    5.0082   434.2    6.695      36.082
2015    3       23    22  44    5.0107   434.2    6.698      36.080
2015    3       23    22  49    5.0134   434.2    6.701      36.078
2015    3       23    22  55    5.0160   434.1    6.704      36.076
2015    3       23    23   1    5.0187   434.1    6.708      36.075
2015    3       23    23   6    5.0213   434.0    6.711      36.074
2015    3       23    23  12    5.0240   434.0    6.714      36.073
2015    3       23    23  17    5.0267   434.0    6.717      36.073
2015    3       23    23  23    5.0294   433.9    6.721      36.072
2015    3       23    23  28    5.0321   433.9    6.724      36.073
2015    3       23    23  34    5.0348   433.9    6.728      36.073
2015    3       23    23  39    5.0374   433.8    6.731      36.073
2015    3       23    23  45    5.0401   433.8    6.735      36.074
2015    3       23    23  51    5.0428   433.8    6.738      36.075
2015    3       23    23  56    5.0455   433.7    6.742      36.076
2015    3       24     0   2    5.0482   433.7    6.745      36.078
2015    3       24     0   7    5.0509   433.7    6.748      36.079
2015    3       24     0  13    5.0535   433.6    6.752      36.081
2015    3       24     0  18    5.0562   433.6    6.755      36.083
2015    3       24     0  24    5.0589   433.6    6.758      36.084
2015    3       24     0  29    5.0616   433.5    6.761      36.085
2015    3       24     0  35    5.0643   433.5    6.765      36.087
2015    3       24     0  41    5.0670   433.5    6.768      36.088
2015    3       24     0  46    5.0697   433.4    6.771      36.089
2015    3       24     0  52    5.0724   433.4    6.774      36.090
2015    3       24     0  57    5.0752   433.4    6.777      36.091
2015    3       24     1   3    5.0779   433.3    6.780      36.092
2015    3       24     1   8    5.0807   433.3    6.783      36.093
2015    3       24     1  14    5.0835   433.2    6.787      36.093
2015    3       24     1  19    5.0863   433.2    6.790      36.094
2015    3       24     1  25    5.0891   433.2    6.793      36.095
2015    3       24     1  31    5.0919   433.1    6.796      36.096
2015    3       24     1  36    5.0948   433.1    6.800      36.097
2015    3       24     1  42    5.0977   433.0    6.803      36.098
2015    3       24     1  47    5.1006   433.0    6.806      36.099
2015    3       24     1  53    5.1035   433.0    6.810      36.100
2015    3       24     1  58    5.1065   432.9    6.814      36.102
2015    3       24     2   4    5.1095   432.9    6.817      36.103
2015    3       24     2   9    5.1125   432.9    6.821      36.104
2015    3       24     2  15    5.1155   432.8    6.825      36.106
2015    3       24     2  21    5.1186   432.8    6.828      36.108
2015    3       24     2  26    5.1217   432.7    6.832      36.110
2015    3       24     2  32    5.1249   432.7    6.836      36.112
2015    3       24     2  37    5.1281   432.7    6.840      36.114
2015    3       24     2  43    5.1313   432.6    6.844      36.117
2015    3       24     2  48    5.1346   432.6    6.849      36.119
2015    3       24     2  54    5.1379   432.5    6.853      36.122
2015    3       24     2  59    5.1413   432.5    6.857      36.125
2015    3       24     3   5    5.1448   432.5    6.862      36.128
2015    3       24     3  10    5.1483   432.4    6.867      36.132
2015    3       24     3  16    5.1518   432.4    6.872      36.136
2015    3       24     3  22    5.1555   432.3    6.877      36.140
2015    3       24     3  27    5.1592   432.3    6.882      36.144
2015    3       24     3  33    5.1630   432.2    6.887      36.149
2015    3       24     3  38    5.1669   432.2    6.893      36.155
2015    3       24     3  44    5.1708   432.2    6.898      36.161
2015    3       24     3  49    5.1749   432.1    6.904      36.167
2015    3       24     3  55    5.1790   432.1    6.911      36.174
2015    3       24     4   0    5.1833   432.0    6.917      36.182
2015    3       24     4   6    5.1876   432.0    6.924      36.191
2015    3       24     4  12    5.1921   431.9    6.932      36.200
2015    3       24     4  17    5.1967   431.9    6.939      36.211
2015    3       24     4  23    5.2014   431.9    6.947      36.223
2015    3       24     4  28    5.2063   431.8    6.956      36.236
2015    3       24     4  34    5.2113   431.8    6.965      36.249
2015    3       24     4  39    5.2164   431.8    6.974      36.265
2015    3       24     4  45    5.2216   431.7    6.984      36.282
2015    3       24     4  50    5.2269   431.7    6.994      36.301
2015    3       24     4  56    5.2324   431.7    7.005      36.322
2015    3       24     5   2    5.2380   431.6    7.015      36.345
2015    3       24     5   7    5.2437   431.6    7.027      36.371
2015    3       24     5  13    5.2495   431.6    7.038      36.398
2015    3       24     5  18    5.2555   431.6    7.050      36.426
2015    3       24     5  24    5.2614   431.6    7.063      36.455
2015    3       24     5  29    5.2675   431.6    7.075      36.486
2015    3       24     5  35    5.2736   431.6    7.087      36.519
2015    3       24     5  40    5.2797   431.6    7.100      36.554
2015    3       24     5  46    5.2858   431.6    7.112      36.591
2015    3       24     5  52    5.2918   431.7    7.124      36.629
2015    3       24     5  57    5.2977   431.7    7.136      36.669
2015    3       24     6   3    5.3037   431.7    7.147      36.710
2015    3       24     6   8    5.3095   431.8    7.158      36.751
2015    3       24     6  14    5.3153   431.8    7.168      36.791
2015    3       24     6  19    5.3210   431.8    7.178      36.830
2015    3       24     6  25    5.3267   431.9    7.188      36.867
2015    3       24     6  30    5.3322   431.9    7.197      36.904
2015    3       24     6  36    5.3376   431.9    7.206      36.940
2015    3       24     6  42    5.3429   432.0    7.215      36.975
2015    3       24     6  47    5.3482   432.0    7.223      37.009
2015    3       24     6  53    5.3533   432.0    7.230      37.042
2015    3       24     6  58    5.3585   432.1    7.238      37.074
2015    3       24     7   4    5.3635   432.1    7.245      37.106
2015    3       24     7   9    5.3685   432.1    7.251      37.137
2015    3       24     7  15    5.3734   432.1    7.258      37.167
2015    3       24     7  20    5.3783   432.2    7.264      37.196
2015    3       24     7  26    5.3832   432.2    7.270      37.225
2015    3       24     7  32    5.3880   432.2    7.275      37.252
2015    3       24     7  37    5.3928   432.2    7.281      37.279
2015    3       24     7  43    5.3976   432.3    7.286      37.305
2015    3       24     7  48    5.4024   432.3    7.291      37.331
2015    3       24     7  54    5.4071   432.3    7.295      37.356
2015    3       24     7  59    5.4119   432.3    7.300      37.380
2015    3       24     8   5    5.4167   432.3    7.305      37.404
2015    3       24     8  10    5.4214   432.3    7.309      37.427
2015    3       24     8  16    5.4262   432.3    7.313      37.450
2015    3       24     8  21    5.4310   432.4    7.318      37.473
2015    3       24     8  27    5.4358   432.4    7.322      37.495
2015    3       24     8  33    5.4406   432.4    7.326      37.517
2015    3       24     8  38    5.4455   432.4    7.330      37.539
2015    3       24     8  44    5.4503   432.4    7.334      37.561
2015    3       24     8  49    5.4552   432.4    7.338      37.582
2015    3       24     8  55    5.4601   432.4    7.342      37.604
2015    3       24     9   0    5.4651   432.4    7.346      37.626
2015    3       24     9   6    5.4701   432.5    7.350      37.648
2015    3       24     9  11    5.4752   432.5    7.354      37.669
2015    3       24     9  17    5.4803   432.5    7.358      37.691
2015    3       24     9  23    5.4855   432.5    7.362      37.714
2015    3       24     9  28    5.4907   432.5    7.366      37.736
2015    3       24     9  34    5.4960   432.5    7.370      37.759
2015    3       24     9  39    5.5013   432.5    7.374      37.782
2015    3       24     9  45    5.5068   432.6    7.379      37.806
2015    3       24     9  50    5.5123   432.6    7.383      37.831
2015    3       24     9  56    5.5179   432.6    7.388      37.856
2015    3       24    10   1    5.5236   432.6    7.393      37.882
2015    3       24    10   7    5.5294   432.6    7.398      37.908
2015    3       24    10  13    5.5353   432.7    7.403      37.935
2015    3       24    10  18    5.5413   432.7    7.408      37.964
2015    3       24    10  24    5.5474   432.7    7.414      37.993
2015    3       24    10  29    5.5537   432.8    7.420      38.024
2015    3       24    10  35    5.5600   432.8    7.426      38.055
2015    3       24    10  40    5.5665   432.8    7.433      38.088
2015    3       24    10  46    5.5732   432.9    7.440      38.122
2015    3       24    10  51    5.5799   432.9    7.447      38.157
2015    3       24    10  57    5.5863   432.9    7.454      38.192
2015    3       24    11   1    5.5918   433.0    7.460      38.225
2015    3       24    11   5    5.5975   433.0    7.467      38.259
2015    3       24    11  10    5.6033   433.1    7.474      38.294
2015    3       24    11  14    5.6090   433.1    7.481      38.330
2015    3       24    11  19    5.6148   433.1    7.489      38.366
2015    3       24    11  23    5.6207   433.2    7.497      38.404
2015    3       24    11  27    5.6266   433.2    7.505      38.443
2015    3       24    11  31    5.6325   433.3    7.514      38.482
2015    3       24    11  36    5.6385   433.3    7.522      38.523
2015    3       24    11  40    5.6446   433.4    7.532      38.564
2015    3       24    11  44    5.6507   433.4    7.541      38.607
2015    3       24    11  48    5.6569   433.5    7.551      38.650
2015    3       24    11  53    5.6632   433.5    7.562      38.695
2015    3       24    11  57    5.6696   433.6    7.573      38.741
2015    3       24    12   1    5.6759   433.7    7.584      38.788
2015    3       24    12   5    5.6824   433.7    7.595      38.837
2015    3       24    12   9    5.6889   433.8    7.608      38.888
2015    3       24    12  14    5.6954   433.9    7.620      38.941
2015    3       24    12  18    5.7020   433.9    7.633      38.995
2015    3       24    12  22    5.7087   434.0    7.646      39.050
2015    3       24    12  26    5.7153   434.1    7.659      39.107
2015    3       24    12  31    5.7221   434.2    7.673      39.165
2015    3       24    12  35    5.7288   434.3    7.687      39.223
2015    3       24    12  39    5.7355   434.4    7.702      39.283
2015    3       24    12  43    5.7421   434.5    7.716      39.346
2015    3       24    12  47    5.7488   434.6    7.731      39.410
2015    3       24    12  52    5.7554   434.7    7.746      39.476
2015    3       24    12  56    5.7619   434.8    7.760      39.543
2015    3       24    13   0    5.7684   434.9    7.775      39.612
2015    3       24    13   4    5.7747   435.0    7.790      39.683
2015    3       24    13   8    5.7810   435.1    7.804      39.756
2015    3       24    13  12    5.7871   435.3    7.819      39.831
2015    3       24    13  17    5.7932   435.4    7.833      39.907
2015    3       24    13  21    5.7992   435.5    7.846      39.983
2015    3       24    13  25    5.8051   435.7    7.860      40.060
2015    3       24    13  29    5.8109   435.8    7.873      40.137
2015    3       24    13  33    5.8166   436.0    7.885      40.216
2015    3       24    13  38    5.8222   436.1    7.897      40.295
2015    3       24    13  42    5.8277   436.2    7.909      40.376
2015    3       24    13  46    5.8332   436.4    7.920      40.456
2015    3       24    13  50    5.8385   436.5    7.931      40.538
2015    3       24    13  54    5.8438   436.7    7.941      40.620
2015    3       24    13  59    5.8489   436.8    7.951      40.702
2015    3       24    14   3    5.8540   437.0    7.960      40.784
2015    3       24    14   7    5.8590   437.1    7.969      40.866
2015    3       24    14  11    5.8639   437.2    7.977      40.947
2015    3       24    14  15    5.8689   437.4    7.985      41.027
2015    3       24    14  20    5.8737   437.5    7.993      41.106
2015    3       24    14  24    5.8785   437.7    8.000      41.185
2015    3       24    14  28    5.8832   437.8    8.007      41.263
2015    3       24    14  32    5.8879   437.9    8.013      41.340
2015    3       24    14  37    5.8926   438.1    8.019      41.416
2015    3       24    14  41    5.8972   438.2    8.025      41.492
2015    3       24    14  45    5.9018   438.3    8.031      41.566
2015    3       24    14  49    5.9064   438.5    8.036      41.641
2015    3       24    14  54    5.9109   438.6    8.041      41.714
2015    3       24    14  58    5.9155   438.8    8.045      41.786
2015    3       24    15   2    5.9200   438.9    8.050      41.858
2015    3       24    15   6    5.9245   439.0    8.054      41.929
2015    3       24    15  11    5.9290   439.1    8.058      41.999
2015    3       24    15  15    5.9335   439.3    8.061      42.068
2015    3       24    15  19    5.9380   439.4    8.065      42.137
2015    3       24    15  23    5.9425   439.5    8.068      42.205
2015    3       24    15  28    5.9470   439.7    8.071      42.272
2015    3       24    15  32    5.9515   439.8    8.073      42.338
2015    3       24    15  36    5.9560   439.9    8.076      42.404
2015    3       24    15  40    5.9605   440.1    8.078      42.469
2015    3       24    15  45    5.9650   440.2    8.080      42.533
2015    3       24    15  49    5.9696   440.3    8.082      42.597
2015    3       24    15  53    5.9741   440.4    8.084      42.659
2015    3       24    15  58    5.9787   440.6    8.085      42.722
2015    3       24    16   2    5.9833   440.7    8.086      42.783
2015    3       24    16   6    5.9880   440.8    8.088      42.844
2015    3       24    16  11    5.9927   441.0    8.089      42.905
2015    3       24    16  15    5.9974   441.1    8.089      42.965
2015    3       24    16  20    6.0022   441.2    8.090      43.024
2015    3       24    16  24    6.0070   441.4    8.091      43.082
2015    3       24    16  28    6.0118   441.5    8.091      43.140
2015    3       24    16  33    6.0167   441.6    8.091      43.198
2015    3       24    16  37    6.0216   441.8    8.092      43.254
2015    3       24    16  42    6.0265   441.9    8.092      43.310
2015    3       24    16  46    6.0314   442.1    8.091      43.365
2015    3       24    16  51    6.0364   442.2    8.091      43.420
2015    3       24    16  55    6.0414   442.3    8.091      43.475
2015    3       24    16  59    6.0465   442.5    8.091      43.528
2015    3       24    17   4    6.0515   442.6    8.090      43.582
2015    3       24    17   8    6.0567   442.8    8.090      43.635
2015    3       24    17  13    6.0617   442.9    8.089      43.687
2015    3       24    17  17    6.0670   443.1    8.089      43.739
2015    3       24    17  22    6.0722   443.2    8.088      43.792
2015    3       24    17  26    6.0775   443.4    8.087      43.844
2015    3       24    17  31    6.0828   443.5    8.087      43.896
2015    3       24    17  35    6.0881   443.7    8.086      43.947
2015    3       24    17  40    6.0935   443.8    8.085      43.999
2015    3       24    17  45    6.0990   444.0    8.085      44.051
2015    3       24    17  49    6.1044   444.1    8.084      44.103
2015    3       24    17  54    6.1099   444.3    8.084      44.154
2015    3       24    17  58    6.1155   444.4    8.083      44.206
2015    3       24    18   3    6.1210   444.6    8.083      44.258
2015    3       24    18   7    6.1266   444.8    8.082      44.310
2015    3       24    18  12    6.1322   444.9    8.082      44.362
2015    3       24    18  16    6.1378   445.1    8.082      44.415
2015    3       24    18  21    6.1435   445.3    8.082      44.468
2015    3       24    18  26    6.1492   445.4    8.082      44.521
2015    3       24    18  30    6.1549   445.6    8.082      44.575
2015    3       24    18  35    6.1606   445.8    8.083      44.629
2015    3       24    18  40    6.1663   445.9    8.083      44.684
2015    3       24    18  44    6.1720   446.1    8.084      44.739
2015    3       24    18  49    6.1778   446.3    8.085      44.794
2015    3       24    18  53    6.1835   446.5    8.086      44.850
2015    3       24    18  58    6.1893   446.6    8.087      44.906
2015    3       24    19   3    6.1950   446.8    8.089      44.963
2015    3       24    19   7    6.2008   447.0    8.090      45.020
2015    3       24    19  12    6.2065   447.2    8.092      45.078
2015    3       24    19  17    6.2122   447.4    8.094      45.136
2015    3       24    19  21    6.2179   447.5    8.097      45.196
2015    3       24    19  26    6.2236   447.7    8.100      45.255
2015    3       24    19  31    6.2293   447.9    8.103      45.316
2015    3       24    19  35    6.2349   448.1    8.106      45.377
2015    3       24    19  40    6.2406   448.3    8.110      45.438
2015    3       24    19  45    6.2462   448.5    8.114      45.501
2015    3       24    19  49    6.2518   448.7    8.118      45.564
2015    3       24    19  54    6.2573   448.9    8.122      45.628
2015    3       24    19  59    6.2628   449.1    8.127      45.694
2015    3       24    20   3    6.2682   449.3    8.132      45.760
2015    3       24    20   8    6.2736   449.4    8.137      45.828
2015    3       24    20  13    6.2788   449.6    8.143      45.898
2015    3       24    20  17    6.2840   449.8    8.149      45.968
2015    3       24    20  22    6.2891   450.0    8.155      46.041
2015    3       24    20  27    6.2942   450.2    8.161      46.115
2015    3       24    20  31    6.2992   450.5    8.168      46.190
2015    3       24    20  36    6.3041   450.7    8.175      46.267
2015    3       24    20  41    6.3089   450.9    8.182      46.346
2015    3       24    20  46    6.3137   451.1    8.189      46.427
2015    3       24    20  50    6.3184   451.3    8.196      46.512
2015    3       24    20  55    6.3231   451.5    8.203      46.600
2015    3       24    21   0    6.3277   451.7    8.210      46.691
2015    3       24    21   4    6.3323   452.0    8.218      46.785
2015    3       24    21   9    6.3368   452.2    8.225      46.881
2015    3       24    21  14    6.3414   452.4    8.233      46.980
2015    3       24    21  19    6.3459   452.6    8.241      47.081
2015    3       24    21  23    6.3504   452.9    8.249      47.182
2015    3       24    21  28    6.3548   453.1    8.257      47.286
2015    3       24    21  33    6.3593   453.3    8.265      47.392
2015    3       24    21  38    6.3638   453.6    8.274      47.500
2015    3       24    21  42    6.3683   453.8    8.282      47.610
2015    3       24    21  47    6.3728   454.1    8.291      47.722
2015    3       24    21  52    6.3774   454.3    8.299      47.835
2015    3       24    21  57    6.3819   454.6    8.308      47.951
2015    3       24    22   1    6.3865   454.9    8.317      48.069
2015    3       24    22   6    6.3911   455.1    8.326      48.188
2015    3       24    22  11    6.3957   455.4    8.335      48.309
2015    3       24    22  16    6.4003   455.7    8.343      48.431
2015    3       24    22  20    6.4049   455.9    8.352      48.554
2015    3       24    22  25    6.4095   456.2    8.361      48.678
2015    3       24    22  30    6.4141   456.5    8.369      48.801
2015    3       24    22  35    6.4187   456.8    8.378      48.925
2015    3       24    22  39    6.4233   457.1    8.387      49.050
2015    3       24    22  44    6.4280   457.3    8.395      49.177
2015    3       24    22  49    6.4326   457.6    8.403      49.306
2015    3       24    22  54    6.4373   457.9    8.411      49.438
2015    3       24    22  59    6.4420   458.3    8.418      49.570
2015    3       24    23   3    6.4467   458.6    8.425      49.704
2015    3       24    23   8    6.4515   458.9    8.431      49.840
2015    3       24    23  13    6.4562   459.2    8.436      49.977
2015    3       24    23  18    6.4610   459.6    8.441      50.116
2015    3       24    23  23    6.4657   459.9    8.445      50.253
2015    3       24    23  27    6.4704   460.2    8.448      50.387
2015    3       24    23  32    6.4750   460.6    8.450      50.518
2015    3       24    23  37    6.4795   460.9    8.452      50.646
2015    3       24    23  42    6.4840   461.2    8.453      50.772
2015    3       24    23  47    6.4883   461.6    8.453      50.895
2015    3       24    23  51    6.4927   461.9    8.452      51.016
2015    3       24    23  56    6.4969   462.2    8.450      51.135
2015    3       25     0   1    6.5010   462.6    8.448      51.250
2015    3       25     0   6    6.5051   462.9    8.445      51.363
2015    3       25     0  11    6.5091   463.2    8.442      51.474
2015    3       25     0  15    6.5130   463.6    8.438      51.583
2015    3       25     0  20    6.5169   463.9    8.433      51.689
2015    3       25     0  25    6.5207   464.3    8.428      51.793
2015    3       25     0  30    6.5245   464.6    8.422      51.895
2015    3       25     0  35    6.5282   465.0    8.416      51.996
2015    3       25     0  39    6.5318   465.3    8.409      52.094
2015    3       25     0  44    6.5353   465.7    8.401      52.191
2015    3       25     0  49    6.5388   466.0    8.393      52.285
2015    3       25     0  54    6.5422   466.4    8.385      52.379
2015    3       25     0  59    6.5456   466.7    8.377      52.470
2015    3       25     1   4    6.5488   467.1    8.367      52.560
2015    3       25     1   8    6.5521   467.4    8.358      52.649
2015    3       25     1  13    6.5552   467.8    8.348      52.736
2015    3       25     1  18    6.5583   468.1    8.338      52.822
2015    3       25     1  23    6.5613   468.4    8.328      52.906
2015    3       25     1  28    6.5643   468.8    8.318      52.990
2015    3       25     1  32    6.5672   469.1    8.307      53.073
2015    3       25     1  37    6.5701   469.5    8.296      53.155
2015    3       25     1  42    6.5729   469.8    8.285      53.236
2015    3       25     1  47    6.5757   470.2    8.274      53.316
2015    3       25     1  52    6.5784   470.5    8.263      53.396
2015    3       25     1  57    6.5811   470.8    8.252      53.476
2015    3       25     2   2    6.5838   471.2    8.241      53.555
2015    3       25     2   6    6.5864   471.5    8.229      53.634
2015    3       25     2  11    6.5889   471.9    8.218      53.712
2015    3       25     2  16    6.5914   472.2    8.207      53.790
2015    3       25     2  21    6.5938   472.6    8.195      53.868
2015    3       25     2  26    6.5962   472.9    8.183      53.945
2015    3       25     2  31    6.5986   473.3    8.172      54.022
2015    3       25     2  35    6.6008   473.6    8.160      54.099
2015    3       25     2  40    6.6031   474.0    8.148      54.175
2015    3       25     2  45    6.6052   474.3    8.137      54.250
2015    3       25     2  50    6.6073   474.7    8.125      54.325
2015    3       25     2  55    6.6094   475.0    8.113      54.399
2015    3       25     3   0    6.6114   475.4    8.101      54.472
2015    3       25     3   4    6.6133   475.7    8.089      54.545
2015    3       25     3   9    6.6152   476.1    8.078      54.617
2015    3       25     3  14    6.6170   476.5    8.066      54.687
2015    3       25     3  19    6.6187   476.8    8.054      54.757
2015    3       25     3  24    6.6204   477.2    8.042      54.827
2015    3       25     3  29    6.6220   477.5    8.031      54.895
2015    3       25     3  34    6.6235   477.9    8.019      54.963
2015    3       25     3  39    6.6251   478.3    8.008      55.031
2015    3       25     3  43    6.6265   478.6    7.996      55.098
2015    3       25     3  48    6.6279   479.0    7.985      55.165
2015    3       25     3  53    6.6293   479.3    7.974      55.231
2015    3       25     3  58    6.6306   479.7    7.963      55.298
2015    3       25     4   3    6.6319   480.0    7.953      55.364
2015    3       25     4   8    6.6331   480.4    7.943      55.432
2015    3       25     4  13    6.6343   480.8    7.933      55.500
2015    3       25     4  18    6.6354   481.1    7.923      55.569
2015    3       25     4  22    6.6365   481.5    7.914      55.639
2015    3       25     4  27    6.6376   481.8    7.905      55.709
2015    3       25     4  32    6.6386   482.2    7.897      55.780
2015    3       25     4  37    6.6396   482.5    7.889      55.851
2015    3       25     4  42    6.6406   482.9    7.881      55.924
2015    3       25     4  47    6.6416   483.3    7.874      55.998
2015    3       25     4  52    6.6425   483.6    7.868      56.075
2015    3       25     4  57    6.6435   484.0    7.861      56.153
2015    3       25     5   2    6.6445   484.4    7.856      56.232
2015    3       25     5   7    6.6454   484.7    7.850      56.313
2015    3       25     5  11    6.6463   485.1    7.845      56.396
2015    3       25     5  16    6.6472   485.5    7.840      56.480
2015    3       25     5  21    6.6481   485.9    7.835      56.566
2015    3       25     5  26    6.6489   486.3    7.831      56.652
2015    3       25     5  31    6.6497   486.7    7.827      56.741
2015    3       25     5  36    6.6504   487.1    7.823      56.831
2015    3       25     5  41    6.6511   487.5    7.819      56.921
2015    3       25     5  46    6.6517   487.9    7.816      57.011
2015    3       25     5  51    6.6523   488.3    7.812      57.103
2015    3       25     5  56    6.6528   488.7    7.809      57.197
2015    3       25     6   1    6.6533   489.1    7.806      57.296
2015    3       25     6   6    6.6539   489.5    7.802      57.397
2015    3       25     6  11    6.6543   490.0    7.799      57.501
2015    3       25     6  16    6.6549   490.4    7.795      57.608
2015    3       25     6  21    6.6554   490.8    7.790      57.718
2015    3       25     6  26    6.6559   491.3    7.785      57.831
2015    3       25     6  31    6.6564   491.7    7.780      57.947
2015    3       25     6  36    6.6570   492.2    7.774      58.062
2015    3       25     6  41    6.6574   492.6    7.768      58.176
2015    3       25     6  46    6.6579   493.0    7.761      58.286
2015    3       25     6  51    6.6582   493.5    7.754      58.395
2015    3       25     6  56    6.6585   493.9    7.746      58.502
2015    3       25     7   1    6.6586   494.4    7.738      58.609
2015    3       25     7   6    6.6588   494.8    7.729      58.714
2015    3       25     7  11    6.6588   495.3    7.720      58.819
2015    3       25     7  16    6.6588   495.7    7.710      58.923
2015    3       25     7  21    6.6586   496.2    7.700      59.026
2015    3       25     7  26    6.6585   496.6    7.689      59.130
2015    3       25     7  31    6.6582   497.1    7.678      59.234
2015    3       25     7  36    6.6579   497.6    7.667      59.338
2015    3       25     7  41    6.6574   498.0    7.655      59.444
2015    3       25     7  46    6.6569   498.5    7.642      59.550
2015    3       25     7  51    6.6563   499.0    7.630      59.657
2015    3       25     7  56    6.6556   499.5    7.616      59.764
2015    3       25     8   1    6.6548   500.0    7.602      59.871
2015    3       25     8   6    6.6539   500.5    7.588      59.977
2015    3       25     8  11    6.6529   501.0    7.573      60.083
2015    3       25     8  16    6.6518   501.5    7.558      60.188
2015    3       25     8  21    6.6505   502.0    7.542      60.290
2015    3       25     8  26    6.6492   502.5    7.526      60.388
2015    3       25     8  32    6.6477   503.0    7.510      60.483
2015    3       25     8  37    6.6462   503.5    7.493      60.575
2015    3       25     8  42    6.6444   504.0    7.475      60.664
2015    3       25     8  47    6.6426   504.5    7.458      60.749
2015    3       25     8  52    6.6406   505.0    7.440      60.831
2015    3       25     8  57    6.6386   505.5    7.421      60.910
2015    3       25     9   2    6.6363   505.9    7.403      60.987
2015    3       25     9   7    6.6341   506.4    7.383      61.061
2015    3       25     9  12    6.6316   506.9    7.364      61.133
2015    3       25     9  18    6.6291   507.4    7.344      61.201
2015    3       25     9  23    6.6265   507.9    7.324      61.268
2015    3       25     9  28    6.6238   508.4    7.304      61.332
2015    3       25     9  33    6.6210   508.9    7.284      61.395
2015    3       25     9  38    6.6181   509.4    7.263      61.457
2015    3       25     9  43    6.6151   509.9    7.243      61.517
2015    3       25     9  48    6.6121   510.4    7.222      61.576
2015    3       25     9  54    6.6090   510.9    7.201      61.636
2015    3       25     9  59    6.6058   511.4    7.180      61.696
2015    3       25    10   4    6.6024   511.9    7.159      61.757
2015    3       25    10   9    6.5990   512.5    7.137      61.819
2015    3       25    10  14    6.5953   513.0    7.115      61.880
2015    3       25    10  20    6.5916   513.6    7.093      61.941
2015    3       25    10  25    6.5876   514.2    7.069      62.001
2015    3       25    10  30    6.5835   514.7    7.046      62.059
2015    3       25    10  35    6.5790   515.3    7.021      62.117
2015    3       25    10  40    6.5744   515.9    6.995      62.172
2015    3       25    10  46    6.5694   516.4    6.969      62.223
2015    3       25    10  51    6.5641   517.0    6.942      62.268
2015    3       25    10  56    6.5585   517.5    6.914      62.308
2015    3       25    11   1    6.5526   518.1    6.885      62.341
2015    3       25    11   6    6.5463   518.6    6.856      62.368
2015    3       25    11  12    6.5397   519.2    6.825      62.392
2015    3       25    11  17    6.5328   519.7    6.794      62.411
2015    3       25    11  22    6.5255   520.3    6.762      62.421
2015    3       25    11  27    6.5178   520.8    6.730      62.422
2015    3       25    11  33    6.5100   521.3    6.697      62.418
2015    3       25    11  38    6.5019   521.8    6.664      62.408
2015    3       25    11  43    6.4937   522.3    6.632      62.394
2015    3       25    11  48    6.4854   522.7    6.600      62.373
2015    3       25    11  54    6.4771   523.2    6.569      62.347
2015    3       25    11  59    6.4688   523.7    6.538      62.324
2015    3       25    12   4    6.4607   524.2    6.508      62.304
2015    3       25    12  10    6.4525   524.6    6.479      62.285
2015    3       25    12  15    6.4444   525.1    6.450      62.269
2015    3       25    12  20    6.4361   525.6    6.421      62.254
2015    3       25    12  25    6.4280   526.1    6.393      62.240
2015    3       25    12  31    6.4198   526.6    6.365      62.227
2015    3       25    12  36    6.4116   527.1    6.338      62.215
2015    3       25    12  41    6.4033   527.6    6.311      62.203
2015    3       25    12  47    6.3950   528.1    6.284      62.193
2015    3       25    12  52    6.3866   528.6    6.257      62.182
2015    3       25    12  57    6.3782   529.1    6.231      62.172
2015    3       25    13   3    6.3697   529.6    6.204      62.163
2015    3       25    13   8    6.3612   530.1    6.178      62.154
2015    3       25    13  13    6.3525   530.6    6.152      62.145
2015    3       25    13  19    6.3439   531.1    6.126      62.136
2015    3       25    13  24    6.3352   531.6    6.101      62.127
2015    3       25    13  29    6.3266   532.1    6.075      62.118
2015    3       25    13  35    6.3180   532.6    6.050      62.108
2015    3       25    13  40    6.3094   533.0    6.026      62.096
2015    3       25    13  45    6.3008   533.5    6.001      62.083
2015    3       25    13  51    6.2922   533.9    5.977      62.068
2015    3       25    13  56    6.2836   534.4    5.954      62.052
2015    3       25    14   1    6.2751   534.8    5.930      62.035
2015    3       25    14   7    6.2665   535.3    5.907      62.018
2015    3       25    14  12    6.2580   535.7    5.885      62.001
2015    3       25    14  17    6.2494   536.1    5.862      61.985
2015    3       25    14  23    6.2409   536.5    5.840      61.970
2015    3       25    14  28    6.2324   537.0    5.818      61.957
2015    3       25    14  34    6.2239   537.4    5.797      61.945
2015    3       25    14  39    6.2154   537.8    5.776      61.935
2015    3       25    14  44    6.2069   538.2    5.755      61.927
2015    3       25    14  50    6.1983   538.6    5.734      61.922
2015    3       25    14  55    6.1898   539.0    5.713      61.921
2015    3       25    15   1    6.1812   539.4    5.693      61.922
2015    3       25    15   6    6.1726   539.8    5.672      61.925
2015    3       25    15  11    6.1639   540.3    5.652      61.930
2015    3       25    15  17    6.1552   540.7    5.632      61.936
2015    3       25    15  22    6.1464   541.1    5.612      61.941
2015    3       25    15  28    6.1376   541.5    5.592      61.947
2015    3       25    15  33    6.1287   541.9    5.571      61.950
2015    3       25    15  39    6.1197   542.3    5.551      61.950
2015    3       25    15  44    6.1106   542.7    5.531      61.946
2015    3       25    15  49    6.1015   543.1    5.511      61.938
2015    3       25    15  55    6.0923   543.5    5.491      61.927
2015    3       25    16   0    6.0830   543.9    5.470      61.911
2015    3       25    16   6    6.0736   544.3    5.450      61.891
2015    3       25    16  11    6.0642   544.7    5.429      61.867
2015    3       25    16  17    6.0546   545.0    5.409      61.840
2015    3       25    16  22    6.0450   545.4    5.388      61.810
2015    3       25    16  28    6.0353   545.8    5.367      61.775
2015    3       25    16  33    6.0255   546.2    5.346      61.736
2015    3       25    16  38    6.0156   546.5    5.325      61.694
2015    3       25    16  44    6.0057   546.9    5.305      61.650
2015    3       25    16  49    5.9957   547.3    5.284      61.602
2015    3       25    16  55    5.9857   547.7    5.263      61.553
2015    3       25    17   0    5.9756   548.1    5.243      61.504
2015    3       25    17   6    5.9655   548.4    5.223      61.455
2015    3       25    17  11    5.9552   548.8    5.202      61.406
2015    3       25    17  17    5.9449   549.2    5.181      61.360
2015    3       25    17  22    5.9345   549.7    5.161      61.315
2015    3       25    17  28    5.9240   550.1    5.139      61.270
2015    3       25    17  33    5.9133   550.5    5.118      61.225
2015    3       25    17  39    5.9025   550.9    5.096      61.178
2015    3       25    17  44    5.8914   551.3    5.073      61.130
2015    3       25    17  50    5.8802   551.8    5.050      61.079
2015    3       25    17  55    5.8687   552.2    5.026      61.025
2015    3       25    18   1    5.8569   552.6    5.002      60.962
2015    3       25    18   6    5.8448   553.0    4.977      60.891
2015    3       25    18  12    5.8324   553.4    4.951      60.811
2015    3       25    18  17    5.8197   553.8    4.924      60.721
2015    3       25    18  23    5.8069   554.2    4.897      60.626
2015    3       25    18  29    5.7938   554.6    4.870      60.523
2015    3       25    18  34    5.7804   555.0    4.841      60.407
2015    3       25    18  40    5.7669   555.4    4.813      60.279
2015    3       25    18  45    5.7532   555.7    4.785      60.141
2015    3       25    18  51    5.7395   556.0    4.756      59.996
2015    3       25    18  56    5.7258   556.3    4.728      59.846
2015    3       25    19   2    5.7121   556.6    4.701      59.686
2015    3       25    19   7    5.6985   556.9    4.675      59.523
2015    3       25    19  13    5.6852   557.1    4.650      59.365
2015    3       25    19  18    5.6720   557.4    4.625      59.213
2015    3       25    19  24    5.6589   557.6    4.601      59.065
2015    3       25    19  29    5.6460   557.9    4.577      58.922
2015    3       25    19  35    5.6333   558.1    4.554      58.781
2015    3       25    19  41    5.6207   558.3    4.532      58.644
2015    3       25    19  46    5.6082   558.6    4.510      58.508
2015    3       25    19  52    5.5958   558.8    4.489      58.376
2015    3       25    19  57    5.5835   559.0    4.468      58.246
2015    3       25    20   3    5.5714   559.2    4.447      58.118
2015    3       25    20   8    5.5593   559.4    4.427      57.991
2015    3       25    20  14    5.5474   559.6    4.408      57.865
2015    3       25    20  19    5.5355   559.8    4.389      57.739
2015    3       25    20  25    5.5237   559.9    4.370      57.613
2015    3       25    20  31    5.5119   560.1    4.352      57.488
2015    3       25    20  36    5.5003   560.2    4.334      57.362
2015    3       25    20  42    5.4886   560.4    4.317      57.236
2015    3       25    20  47    5.4771   560.5    4.300      57.110
2015    3       25    20  53    5.4655   560.6    4.283      56.983
2015    3       25    20  58    5.4541   560.8    4.267      56.856
2015    3       25    21   4    5.4427   560.9    4.251      56.729
2015    3       25    21   9    5.4313   561.0    4.235      56.602
2015    3       25    21  15    5.4200   561.1    4.220      56.477
2015    3       25    21  21    5.4087   561.2    4.205      56.352
2015    3       25    21  26    5.3975   561.3    4.190      56.228
2015    3       25    21  32    5.3862   561.4    4.176      56.106
2015    3       25    21  37    5.3750   561.5    4.162      55.984
2015    3       25    21  43    5.3638   561.6    4.147      55.864
2015    3       25    21  48    5.3526   561.7    4.133      55.745
2015    3       25    21  54    5.3415   561.7    4.119      55.626
2015    3       25    21  59    5.3304   561.8    4.106      55.506
2015    3       25    22   5    5.3192   561.9    4.092      55.387
2015    3       25    22  10    5.3082   561.9    4.079      55.267
2015    3       25    22  16    5.2971   562.0    4.065      55.148
2015    3       25    22  22    5.2860   562.0    4.052      55.029
2015    3       25    22  27    5.2749   562.0    4.039      54.911
2015    3       25    22  33    5.2639   562.1    4.027      54.792
2015    3       25    22  38    5.2529   562.1    4.014      54.674
2015    3       25    22  44    5.2419   562.1    4.002      54.556
2015    3       25    22  49    5.2309   562.1    3.990      54.438
2015    3       25    22  55    5.2200   562.1    3.978      54.320
2015    3       25    23   0    5.2091   562.1    3.966      54.203
2015    3       25    23   6    5.1982   562.1    3.954      54.086
2015    3       25    23  12    5.1873   562.0    3.943      53.969
2015    3       25    23  17    5.1765   562.0    3.932      53.852
2015    3       25    23  23    5.1656   562.0    3.920      53.735
2015    3       25    23  28    5.1549   562.0    3.909      53.619
2015    3       25    23  34    5.1441   561.9    3.899      53.502
2015    3       25    23  39    5.1335   561.9    3.888      53.386
2015    3       25    23  45    5.1228   561.8    3.877      53.270
2015    3       25    23  50    5.1122   561.8    3.867      53.154
2015    3       25    23  56    5.1016   561.7    3.857      53.038
2015    3       26     0   2    5.0911   561.6    3.847      52.923
2015    3       26     0   7    5.0805   561.6    3.837      52.808
2015    3       26     0  13    5.0701   561.5    3.827      52.693
2015    3       26     0  18    5.0596   561.4    3.817      52.578
2015    3       26     0  24    5.0492   561.3    3.808      52.464
2015    3       26     0  29    5.0389   561.2    3.798      52.349
2015    3       26     0  35    5.0286   561.1    3.789      52.235
2015    3       26     0  40    5.0183   561.0    3.780      52.121
2015    3       26     0  46    5.0081   560.9    3.771      52.008
2015    3       26     0  52    4.9979   560.8    3.762      51.894
2015    3       26     0  57    4.9877   560.7    3.753      51.781
2015    3       26     1   3    4.9776   560.6    3.745      51.669
2015    3       26     1   8    4.9676   560.4    3.736      51.556
2015    3       26     1  14    4.9576   560.3    3.728      51.444
2015    3       26     1  19    4.9477   560.2    3.720      51.333
2015    3       26     1  25    4.9378   560.0    3.712      51.222
2015    3       26     1  30    4.9281   559.9    3.704      51.111
2015    3       26     1  36    4.9184   559.7    3.697      51.002
2015    3       26     1  42    4.9089   559.6    3.690      50.893
2015    3       26     1  47    4.8993   559.4    3.682      50.786
2015    3       26     1  53    4.8900   559.2    3.675      50.680
2015    3       26     1  58    4.8807   559.1    3.668      50.575
2015    3       26     2   4    4.8716   558.9    3.662      50.471
2015    3       26     2   9    4.8625   558.8    3.655      50.369
2015    3       26     2  15    4.8536   558.6    3.648      50.268
2015    3       26     2  20    4.8448   558.4    3.642      50.169
2015    3       26     2  26    4.8361   558.3    3.636      50.071
2015    3       26     2  31    4.8274   558.1    3.629      49.975
2015    3       26     2  37    4.8190   558.0    3.623      49.880
2015    3       26     2  43    4.8105   557.8    3.617      49.785
2015    3       26     2  48    4.8022   557.6    3.611      49.692
2015    3       26     2  54    4.7939   557.5    3.605      49.599
2015    3       26     2  59    4.7858   557.3    3.599      49.507
2015    3       26     3   5    4.7777   557.1    3.594      49.416
2015    3       26     3  10    4.7698   557.0    3.588      49.325
2015    3       26     3  16    4.7619   556.8    3.582      49.235
2015    3       26     3  21    4.7541   556.6    3.577      49.145
2015    3       26     3  27    4.7464   556.4    3.572      49.056
2015    3       26     3  33    4.7388   556.2    3.566      48.966
2015    3       26     3  38    4.7312   556.0    3.562      48.877
2015    3       26     3  44    4.7238   555.8    3.557      48.787
2015    3       26     3  49    4.7164   555.6    3.552      48.698
2015    3       26     3  55    4.7090   555.4    3.548      48.609
2015    3       26     4   0    4.7017   555.2    3.543      48.520
2015    3       26     4   6    4.6945   555.0    3.539      48.431
2015    3       26     4  11    4.6873   554.8    3.535      48.342
2015    3       26     4  17    4.6802   554.6    3.531      48.254
2015    3       26     4  23    4.6731   554.4    3.527      48.168
2015    3       26     4  28    4.6661   554.2    3.524      48.084
2015    3       26     4  34    4.6590   554.1    3.520      48.000
2015    3       26     4  39    4.6520   553.9    3.517      47.918
2015    3       26     4  45    4.6450   553.7    3.513      47.837
2015    3       26     4  50    4.6380   553.5    3.509      47.758
2015    3       26     4  56    4.6309   553.4    3.505      47.679
2015    3       26     5   1    4.6239   553.2    3.502      47.599
2015    3       26     5   7    4.6169   553.0    3.498      47.519
2015    3       26     5  13    4.6099   552.8    3.494      47.439
2015    3       26     5  18    4.6029   552.7    3.490      47.358
2015    3       26     5  24    4.5959   552.5    3.485      47.277
2015    3       26     5  29    4.5889   552.3    3.481      47.196
2015    3       26     5  35    4.5819   552.1    3.477      47.114
2015    3       26     5  40    4.5748   551.9    3.473      47.033
2015    3       26     5  46    4.5679   551.8    3.469      46.951
2015    3       26     5  51    4.5609   551.6    3.465      46.870
2015    3       26     5  57    4.5539   551.4    3.460      46.788
2015    3       26     6   3    4.5469   551.2    3.456      46.706
2015    3       26     6   8    4.5400   551.0    3.452      46.624
2015    3       26     6  14    4.5331   550.8    3.448      46.542
2015    3       26     6  19    4.5262   550.6    3.444      46.459
2015    3       26     6  25    4.5193   550.4    3.440      46.377
2015    3       26     6  30    4.5125   550.2    3.436      46.295
2015    3       26     6  36    4.5057   550.0    3.432      46.212
2015    3       26     6  41    4.4989   549.8    3.428      46.130
2015    3       26     6  47    4.4922   549.6    3.424      46.047
2015    3       26     6  53    4.4855   549.4    3.420      45.965
2015    3       26     6  58    4.4789   549.2    3.416      45.882
2015    3       26     7   4    4.4723   549.0    3.412      45.800
2015    3       26     7   9    4.4657   548.8    3.408      45.718
2015    3       26     7  15    4.4592   548.6    3.405      45.637
2015    3       26     7  20    4.4527   548.4    3.401      45.555
2015    3       26     7  26    4.4463   548.1    3.398      45.474
2015    3       26     7  31    4.4399   547.9    3.394      45.394
2015    3       26     7  37    4.4336   547.7    3.391      45.313
2015    3       26     7  42    4.4273   547.5    3.388      45.234
2015    3       26     7  48    4.4211   547.2    3.385      45.155
2015    3       26     7  54    4.4149   547.0    3.382      45.077
2015    3       26     7  59    4.4088   546.8    3.379      44.999
2015    3       26     8   5    4.4028   546.5    3.376      44.923
2015    3       26     8  10    4.3967   546.3    3.373      44.847
2015    3       26     8  16    4.3908   546.1    3.371      44.772
2015    3       26     8  21    4.3849   545.8    3.368      44.697
2015    3       26     8  27    4.3790   545.6    3.366      44.623
2015    3       26     8  32    4.3732   545.3    3.363      44.551
2015    3       26     8  38    4.3674   545.1    3.361      44.479
2015    3       26     8  44    4.3617   544.8    3.359      44.407
2015    3       26     8  49    4.3560   544.6    3.357      44.337
2015    3       26     8  55    4.3504   544.3    3.355      44.267
2015    3       26     9   0    4.3448   544.1    3.353      44.198
2015    3       26     9   6    4.3392   543.8    3.351      44.129
2015    3       26     9  11    4.3337   543.6    3.349      44.061
2015    3       26     9  17    4.3282   543.3    3.347      43.993
2015    3       26     9  22    4.3228   543.0    3.345      43.926
2015    3       26     9  28    4.3174   542.8    3.343      43.859
2015    3       26     9  34    4.3120   542.5    3.341      43.793
2015    3       26     9  39    4.3067   542.3    3.340      43.727
2015    3       26     9  45    4.3014   542.0    3.338      43.660
2015    3       26     9  50    4.2961   541.7    3.336      43.594
2015    3       26     9  56    4.2909   541.5    3.334      43.528
2015    3       26    10   1    4.2857   541.2    3.332      43.462
2015    3       26    10   7    4.2806   540.9    3.330      43.396
2015    3       26    10  12    4.2755   540.7    3.329      43.330
2015    3       26    10  18    4.2704   540.4    3.327      43.263
2015    3       26    10  24    4.2653   540.1    3.325      43.197
2015    3       26    10  29    4.2603   539.8    3.323      43.131
2015    3       26    10  35    4.2554   539.6    3.321      43.064
2015    3       26    10  40    4.2504   539.3    3.319      42.998
2015    3       26    10  46    4.2456   539.0    3.317      42.932
2015    3       26    10  51    4.2407   538.8    3.315      42.866
2015    3       26    10  57    4.2359   538.5    3.313      42.799
2015    3       26    11   2    4.2311   538.2    3.311      42.733
2015    3       26    11   8    4.2263   538.0    3.309      42.667
2015    3       26    11  14    4.2216   537.7    3.308      42.600
2015    3       26    11  19    4.2169   537.4    3.306      42.534
2015    3       26    11  25    4.2122   537.2    3.304      42.468
2015    3       26    11  30    4.2076   536.9    3.302      42.401
2015    3       26    11  36    4.2029   536.6    3.300      42.334
2015    3       26    11  41    4.1983   536.4    3.298      42.268
2015    3       26    11  47    4.1937   536.1    3.296      42.201
2015    3       26    11  52    4.1891   535.8    3.294      42.135
2015    3       26    11  58    4.1845   535.6    3.292      42.068
2015    3       26    12   4    4.1799   535.3    3.290      42.001
2015    3       26    12   9    4.1753   535.0    3.288      41.934
2015    3       26    12  15    4.1708   534.7    3.286      41.867
2015    3       26    12  20    4.1662   534.5    3.284      41.801
2015    3       26    12  26    4.1617   534.2    3.282      41.733
2015    3       26    12  31    4.1571   533.9    3.280      41.666
2015    3       26    12  37    4.1526   533.7    3.278      41.599
2015    3       26    12  42    4.1481   533.4    3.276      41.532
2015    3       26    12  48    4.1436   533.1    3.274      41.464
2015    3       26    12  54    4.1391   532.8    3.272      41.397
2015    3       26    12  59    4.1347   532.6    3.270      41.329
2015    3       26    13   5    4.1302   532.3    3.268      41.261
2015    3       26    13  10    4.1258   532.0    3.266      41.193
2015    3       26    13  16    4.1213   531.7    3.264      41.125
2015    3       26    13  21    4.1170   531.5    3.262      41.057
2015    3       26    13  27    4.1126   531.2    3.260      40.989
2015    3       26    13  32    4.1082   530.9    3.258      40.920
2015    3       26    13  38    4.1039   530.6    3.256      40.852
2015    3       26    13  43    4.0996   530.3    3.254      40.784
2015    3       26    13  49    4.0953   530.1    3.252      40.715
2015    3       26    13  55    4.0910   529.8    3.251      40.647
2015    3       26    14   0    4.0868   529.5    3.249      40.579
2015    3       26    14   6    4.0826   529.2    3.247      40.511
2015    3       26    14  11    4.0784   528.9    3.246      40.444
2015    3       26    14  17    4.0743   528.6    3.244      40.376
2015    3       26    14  22    4.0702   528.3    3.243      40.309
2015    3       26    14  28    4.0661   528.0    3.241      40.243
2015    3       26    14  33    4.0620   527.8    3.240      40.176
2015    3       26    14  39    4.0580   527.5    3.239      40.111
2015    3       26    14  45    4.0541   527.2    3.238      40.046
2015    3       26    14  50    4.0501   526.9    3.236      39.981
2015    3       26    14  56    4.0462   526.6    3.235      39.917
2015    3       26    15   1    4.0423   526.3    3.235      39.853
2015    3       26    15   7    4.0385   526.0    3.234      39.790
2015    3       26    15  12    4.0347   525.7    3.233      39.728
2015    3       26    15  18    4.0309   525.4    3.232      39.666
2015    3       26    15  23    4.0272   525.1    3.232      39.605
2015    3       26    15  29    4.0235   524.9    3.231      39.545
2015    3       26    15  35    4.0198   524.6    3.230      39.485
2015    3       26    15  40    4.0161   524.3    3.230      39.425
2015    3       26    15  46    4.0125   524.0    3.230      39.366
2015    3       26    15  51    4.0088   523.7    3.229      39.308
2015    3       26    15  57    4.0052   523.4    3.229      39.250
2015    3       26    16   2    4.0016   523.1    3.228      39.193
2015    3       26    16   8    3.9981   522.8    3.228      39.135
2015    3       26    16  13    3.9945   522.5    3.228      39.078
2015    3       26    16  19    3.9910   522.2    3.227      39.022
2015    3       26    16  25    3.9875   521.9    3.227      38.966
2015    3       26    16  30    3.9840   521.6    3.227      38.910
2015    3       26    16  36    3.9805   521.3    3.226      38.854
2015    3       26    16  41    3.9770   521.0    3.226      38.798
2015    3       26    16  47    3.9735   520.7    3.226      38.743
2015    3       26    16  52    3.9701   520.4    3.226      38.688
2015    3       26    16  58    3.9667   520.1    3.225      38.633
2015    3       26    17   3    3.9633   519.8    3.225      38.578
2015    3       26    17   9    3.9599   519.5    3.225      38.523
2015    3       26    17  15    3.9565   519.2    3.224      38.469
2015    3       26    17  20    3.9532   518.9    3.224      38.414
2015    3       26    17  26    3.9499   518.6    3.223      38.360
2015    3       26    17  31    3.9466   518.3    3.223      38.306
2015    3       26    17  37    3.9433   518.0    3.223      38.252
2015    3       26    17  42    3.9400   517.7    3.222      38.199
2015    3       26    17  48    3.9367   517.4    3.222      38.145
2015    3       26    17  53    3.9335   517.1    3.222      38.092
2015    3       26    17  59    3.9303   516.8    3.221      38.038
2015    3       26    18   5    3.9271   516.5    3.221      37.985
2015    3       26    18  10    3.9239   516.2    3.221      37.931
2015    3       26    18  16    3.9207   515.9    3.220      37.878
2015    3       26    18  21    3.9175   515.6    3.220      37.825
2015    3       26    18  27    3.9143   515.3    3.219      37.771
2015    3       26    18  32    3.9112   515.0    3.219      37.718
2015    3       26    18  38    3.9080   514.7    3.219      37.664
2015    3       26    18  43    3.9049   514.4    3.218      37.611
2015    3       26    18  49    3.9017   514.1    3.218      37.557
2015    3       26    18  55    3.8985   513.8    3.217      37.504
2015    3       26    19   0    3.8954   513.5    3.217      37.450
2015    3       26    19   6    3.8922   513.2    3.216      37.396
2015    3       26    19  11    3.8891   512.9    3.216      37.342
2015    3       26    19  17    3.8859   512.6    3.216      37.288
2015    3       26    19  22    3.8828   512.3    3.215      37.234
2015    3       26    19  28    3.8797   512.0    3.215      37.180
2015    3       26    19  33    3.8765   511.7    3.214      37.126
2015    3       26    19  39    3.8734   511.4    3.214      37.072
2015    3       26    19  45    3.8703   511.0    3.214      37.018
2015    3       26    19  50    3.8672   510.7    3.213      36.963
2015    3       26    19  56    3.8641   510.4    3.213      36.909
2015    3       26    20   1    3.8610   510.1    3.213      36.855
2015    3       26    20   7    3.8579   509.8    3.212      36.801
2015    3       26    20  12    3.8548   509.5    3.212      36.747
2015    3       26    20  18    3.8517   509.2    3.212      36.693
2015    3       26    20  23    3.8487   508.8    3.212      36.639
2015    3       26    20  29    3.8456   508.5    3.212      36.584
2015    3       26    20  34    3.8426   508.2    3.212      36.531
2015    3       26    20  40    3.8395   507.9    3.211      36.477
2015    3       26    20  46    3.8365   507.6    3.211      36.423
2015    3       26    20  51    3.8335   507.3    3.211      36.370
2015    3       26    20  57    3.8305   506.9    3.211      36.316
2015    3       26    21   2    3.8276   506.6    3.211      36.263
2015    3       26    21   8    3.8246   506.3    3.211      36.210
2015    3       26    21  13    3.8217   506.0    3.211      36.157
2015    3       26    21  19    3.8188   505.7    3.212      36.104
2015    3       26    21  24    3.8159   505.4    3.212      36.051
2015    3       26    21  30    3.8130   505.0    3.212      35.999
2015    3       26    21  36    3.8101   504.7    3.212      35.946
2015    3       26    21  41    3.8072   504.4    3.212      35.894
2015    3       26    21  47    3.8044   504.1    3.213      35.842
2015    3       26    21  52    3.8016   503.8    3.213      35.790
2015    3       26    21  58    3.7988   503.4    3.213      35.738
2015    3       26    22   3    3.7960   503.1    3.213      35.687
2015    3       26    22   9    3.7933   502.8    3.214      35.635
2015    3       26    22  14    3.7905   502.5    3.214      35.584
2015    3       26    22  20    3.7878   502.2    3.214      35.532
2015    3       26    22  26    3.7851   501.8    3.215      35.481
2015    3       26    22  31    3.7824   501.5    3.215      35.430
2015    3       26    22  37    3.7797   501.2    3.215      35.380
2015    3       26    22  42    3.7770   500.9    3.216      35.329
2015    3       26    22  48    3.7744   500.6    3.216      35.278
2015    3       26    22  53    3.7717   500.2    3.216      35.228
2015    3       26    22  59    3.7691   499.9    3.217      35.177
2015    3       26    23   4    3.7665   499.6    3.217      35.127
2015    3       26    23  10    3.7639   499.3    3.217      35.077
2015    3       26    23  16    3.7613   499.0    3.218      35.027
2015    3       26    23  21    3.7588   498.6    3.218      34.977
2015    3       26    23  27    3.7562   498.3    3.218      34.928
2015    3       26    23  32    3.7537   498.0    3.219      34.878
2015    3       26    23  38    3.7512   497.7    3.219      34.829
2015    3       26    23  43    3.7487   497.4    3.219      34.780
2015    3       26    23  49    3.7462   497.1    3.220      34.731
2015    3       26    23  54    3.7437   496.8    3.220      34.682
2015    3       27     0   0    3.7412   496.4    3.220      34.634
2015    3       27     0   6    3.7387   496.1    3.221      34.585
2015    3       27     0  11    3.7362   495.8    3.221      34.536
2015    3       27     0  17    3.7337   495.5    3.221      34.487
2015    3       27     0  22    3.7313   495.2    3.222      34.438
2015    3       27     0  28    3.7288   494.9    3.222      34.389
2015    3       27     0  33    3.7263   494.6    3.222      34.340
2015    3       27     0  39    3.7238   494.3    3.222      34.291
2015    3       27     0  44    3.7213   493.9    3.223      34.241
2015    3       27     0  50    3.7188   493.6    3.223      34.191
2015    3       27     0  56    3.7163   493.3    3.223      34.141
2015    3       27     1   1    3.7138   493.0    3.223      34.091
2015    3       27     1   7    3.7113   492.7    3.223      34.041
2015    3       27     1  12    3.7088   492.4    3.223      33.991
2015    3       27     1  18    3.7062   492.1    3.223      33.940
2015    3       27     1  23    3.7037   491.7    3.223      33.890
2015    3       27     1  29    3.7012   491.4    3.224      33.839
2015    3       27     1  34    3.6987   491.1    3.224      33.788
2015    3       27     1  40    3.6962   490.8    3.224      33.737
2015    3       27     1  46    3.6937   490.5    3.224      33.686
2015    3       27     1  51    3.6912   490.2    3.224      33.635
2015    3       27     1  57    3.6887   489.8    3.224      33.584
2015    3       27     2   2    3.6862   489.5    3.224      33.532
2015    3       27     2   8    3.6837   489.2    3.224      33.481
2015    3       27     2  13    3.6812   488.9    3.224      33.429
2015    3       27     2  19    3.6787   488.6    3.224      33.378
2015    3       27     2  24    3.6763   488.2    3.223      33.326
2015    3       27     2  30    3.6738   487.9    3.223      33.275
2015    3       27     2  36    3.6713   487.6    3.223      33.223
2015    3       27     2  41    3.6688   487.3    3.223      33.172
2015    3       27     2  47    3.6663   487.0    3.223      33.120
2015    3       27     2  52    3.6639   486.6    3.223      33.069
2015    3       27     2  58    3.6614   486.3    3.223      33.017
2015    3       27     3   3    3.6589   486.0    3.223      32.966
2015    3       27     3   9    3.6564   485.7    3.223      32.914
2015    3       27     3  14    3.6540   485.3    3.223      32.863
2015    3       27     3  20    3.6515   485.0    3.223      32.812
2015    3       27     3  26    3.6491   484.7    3.223      32.761
2015    3       27     3  31    3.6466   484.3    3.223      32.710
2015    3       27     3  37    3.6442   484.0    3.223      32.659
2015    3       27     3  42    3.6417   483.7    3.223      32.608
2015    3       27     3  48    3.6393   483.4    3.223      32.557
2015    3       27     3  53    3.6369   483.0    3.223      32.507
2015    3       27     3  59    3.6345   482.7    3.223      32.456
2015    3       27     4   4    3.6320   482.4    3.223      32.406
2015    3       27     4  10    3.6296   482.0    3.223      32.356
2015    3       27     4  16    3.6272   481.7    3.223      32.305
2015    3       27     4  21    3.6248   481.4    3.223      32.255
2015    3       27     4  27    3.6224   481.0    3.223      32.205
2015    3       27     4  32    3.6200   480.7    3.223      32.155
2015    3       27     4  38    3.6176   480.3    3.223      32.104
2015    3       27     4  43    3.6152   480.0    3.222      32.054
2015    3       27     4  49    3.6128   479.7    3.222      32.004
2015    3       27     4  54    3.6104   479.3    3.222      31.953
2015    3       27     5   0    3.6080   479.0    3.222      31.903
2015    3       27     5   6    3.6057   478.6    3.222      31.853
2015    3       27     5  11    3.6033   478.3    3.222      31.802
2015    3       27     5  17    3.6009   477.9    3.221      31.752
2015    3       27     5  22    3.5986   477.6    3.221      31.701
2015    3       27     5  28    3.5962   477.2    3.221      31.650
2015    3       27     5  33    3.5939   476.9    3.221      31.599
2015    3       27     5  39    3.5916   476.5    3.221      31.549
2015    3       27     5  44    3.5893   476.2    3.221      31.498
2015    3       27     5  50    3.5870   475.8    3.220      31.448
2015    3       27     5  55    3.5847   475.5    3.220      31.397
2015    3       27     6   1    3.5825   475.1    3.220      31.347
2015    3       27     6   7    3.5802   474.8    3.220      31.297
2015    3       27     6  12    3.5780   474.4    3.220      31.247
2015    3       27     6  18    3.5758   474.1    3.220      31.197
2015    3       27     6  23    3.5736   473.7    3.220      31.148
2015    3       27     6  29    3.5715   473.4    3.220      31.099
2015    3       27     6  34    3.5693   473.0    3.220      31.050
2015    3       27     6  40    3.5672   472.7    3.220      31.001
2015    3       27     6  45    3.5651   472.3    3.220      30.953
2015    3       27     6  51    3.5631   471.9    3.220      30.905
2015    3       27     6  57    3.5610   471.6    3.220      30.858
2015    3       27     7   2    3.5590   471.2    3.220      30.811
2015    3       27     7   8    3.5570   470.9    3.221      30.765
2015    3       27     7  13    3.5550   470.5    3.221      30.718
2015    3       27     7  19    3.5530   470.2    3.221      30.672
2015    3       27     7  24    3.5510   469.8    3.222      30.626
2015    3       27     7  30    3.5491   469.5    3.222      30.581
2015    3       27     7  35    3.5471   469.1    3.223      30.535
2015    3       27     7  41    3.5452   468.7    3.223      30.490
2015    3       27     7  47    3.5433   468.4    3.224      30.446
2015    3       27     7  52    3.5414   468.0    3.225      30.401
2015    3       27     7  58    3.5395   467.6    3.225      30.357
2015    3       27     8   3    3.5377   467.3    3.226      30.313
2015    3       27     8   9    3.5358   466.9    3.227      30.270
2015    3       27     8  14    3.5340   466.6    3.228      30.226
2015    3       27     8  20    3.5322   466.2    3.229      30.183
2015    3       27     8  25    3.5304   465.8    3.230      30.140
2015    3       27     8  31    3.5286   465.5    3.231      30.097
2015    3       27     8  37    3.5268   465.1    3.232      30.054
2015    3       27     8  42    3.5251   464.8    3.233      30.012
2015    3       27     8  48    3.5233   464.4    3.234      29.970
2015    3       27     8  53    3.5216   464.0    3.235      29.928
2015    3       27     8  59    3.5199   463.7    3.237      29.886
2015    3       27     9   4    3.5182   463.3    3.238      29.844
2015    3       27     9  10    3.5166   462.9    3.239      29.802
2015    3       27     9  15    3.5149   462.6    3.241      29.761
2015    3       27     9  21    3.5132   462.2    3.242      29.719
2015    3       27     9  27    3.5116   461.8    3.244      29.678
2015    3       27     9  32    3.5099   461.5    3.245      29.636
2015    3       27     9  38    3.5083   461.1    3.247      29.595
2015    3       27     9  43    3.5067   460.7    3.248      29.554
2015    3       27     9  49    3.5051   460.4    3.250      29.513
2015    3       27     9  54    3.5035   460.0    3.251      29.472
2015    3       27    10   0    3.5019   459.7    3.253      29.431
2015    3       27    10   5    3.5003   459.3    3.255      29.390
2015    3       27    10  11    3.4987   458.9    3.256      29.349
2015    3       27    10  17    3.4971   458.6    3.258      29.308
2015    3       27    10  22    3.4955   458.2    3.260      29.267
2015    3       27    10  28    3.4939   457.8    3.261      29.226
2015    3       27    10  33    3.4923   457.5    3.263      29.185
2015    3       27    10  39    3.4907   457.1    3.265      29.144
2015    3       27    10  44    3.4891   456.7    3.266      29.103
2015    3       27    10  50    3.4876   456.4    3.268      29.061
2015    3       27    10  55    3.4860   456.0    3.270      29.020
2015    3       27    11   1    3.4844   455.6    3.271      28.979
2015    3       27    11   7    3.4829   455.3    3.273      28.938
2015    3       27    11  12    3.4813   454.9    3.275      28.897
2015    3       27    11  18    3.4798   454.5    3.276      28.855
2015    3       27    11  23    3.4783   454.2    3.278      28.814
2015    3       27    11  29    3.4768   453.8    3.279      28.773
2015    3       27    11  34    3.4753   453.4    3.281      28.731
2015    3       27    11  40    3.4738   453.0    3.283      28.689
2015    3       27    11  45    3.4723   452.7    3.284      28.648
2015    3       27    11  51    3.4709   452.3    3.286      28.606
2015    3       27    11  57    3.4694   451.9    3.287      28.565
2015    3       27    12   2    3.4680   451.5    3.289      28.523
2015    3       27    12   8    3.4666   451.2    3.290      28.482
2015    3       27    12  13    3.4652   450.8    3.292      28.440
2015    3       27    12  19    3.4638   450.4    3.294      28.398
2015    3       27    12  24    3.4625   450.0    3.295      28.357
2015    3       27    12  30    3.4611   449.7    3.297      28.315
2015    3       27    12  35    3.4598   449.3    3.299      28.274
2015    3       27    12  41    3.4585   448.9    3.300      28.232
2015    3       27    12  47    3.4572   448.5    3.302      28.191
2015    3       27    12  52    3.4560   448.2    3.304      28.149
2015    3       27    12  58    3.4547   447.8    3.305      28.108
2015    3       27    13   3    3.4535   447.4    3.307      28.067
2015    3       27    13   9    3.4523   447.0    3.309      28.026
2015    3       27    13  14    3.4512   446.6    3.311      27.985
2015    3       27    13  20    3.4501   446.3    3.313      27.944
2015    3       27    13  25    3.4489   445.9    3.315      27.903
2015    3       27    13  31    3.4478   445.5    3.317      27.862
2015    3       27    13  37    3.4468   445.1    3.319      27.822
2015    3       27    13  42    3.4458   444.7    3.321      27.781
2015    3       27    13  48    3.4448   444.3    3.323      27.741
2015    3       27    13  53    3.4438   443.9    3.326      27.701
2015    3       27    13  59    3.4429   443.6    3.328      27.662
2015    3       27    14   4    3.4419   443.2    3.331      27.623
2015    3       27    14  10    3.4411   442.8    3.333      27.584
2015    3       27    14  15    3.4402   442.4    3.336      27.545
2015    3       27    14  21    3.4394   442.0    3.339      27.507
2015    3       27    14  27    3.4387   441.6    3.341      27.470
2015    3       27    14  32    3.4379   441.2    3.344      27.432
2015    3       27    14  38    3.4372   440.8    3.347      27.395
2015    3       27    14  43    3.4366   440.5    3.351      27.359
2015    3       27    14  49    3.4359   440.1    3.354      27.323
2015    3       27    14  54    3.4354   439.7    3.357      27.288
2015    3       27    15   0    3.4348   439.3    3.361      27.253
2015    3       27    15   5    3.4343   438.9    3.364      27.218
2015    3       27    15  11    3.4338   438.5    3.368      27.184
2015    3       27    15  17    3.4333   438.1    3.372      27.151
2015    3       27    15  22    3.4329   437.8    3.376      27.118
2015    3       27    15  28    3.4326   437.4    3.380      27.085
2015    3       27    15  33    3.4322   437.0    3.384      27.053
2015    3       27    15  39    3.4319   436.6    3.389      27.022
2015    3       27    15  44    3.4316   436.2    3.393      26.991
2015    3       27    15  50    3.4314   435.9    3.398      26.960
2015    3       27    15  55    3.4311   435.5    3.402      26.930
2015    3       27    16   1    3.4309   435.1    3.407      26.900
2015    3       27    16   7    3.4308   434.7    3.412      26.870
2015    3       27    16  12    3.4306   434.4    3.417      26.841
2015    3       27    16  18    3.4304   434.0    3.422      26.813
2015    3       27    16  23    3.4303   433.6    3.427      26.784
2015    3       27    16  29    3.4302   433.2    3.432      26.756
2015    3       27    16  34    3.4301   432.9    3.438      26.728
2015    3       27    16  40    3.4301   432.5    3.443      26.700
2015    3       27    16  45    3.4300   432.1    3.449      26.673
2015    3       27    16  51    3.4299   431.8    3.454      26.646
2015    3       27    16  56    3.4299   431.4    3.460      26.619
2015    3       27    17   2    3.4299   431.0    3.465      26.592
2015    3       27    17   8    3.4299   430.7    3.471      26.565
2015    3       27    17  13    3.4299   430.3    3.477      26.539
2015    3       27    17  19    3.4299   429.9    3.483      26.513
2015    3       27    17  24    3.4299   429.6    3.489      26.487
2015    3       27    17  30    3.4300   429.2    3.495      26.461
2015    3       27    17  35    3.4301   428.9    3.501      26.435
2015    3       27    17  41    3.4302   428.5    3.507      26.409
2015    3       27    17  46    3.4303   428.1    3.513      26.384
2015    3       27    17  52    3.4304   427.8    3.519      26.359
2015    3       27    17  58    3.4306   427.4    3.525      26.334
2015    3       27    18   3    3.4308   427.1    3.532      26.309
2015    3       27    18   9    3.4310   426.7    3.538      26.284
2015    3       27    18  14    3.4312   426.3    3.544      26.259
2015    3       27    18  20    3.4315   426.0    3.551      26.235
2015    3       27    18  25    3.4318   425.6    3.558      26.211
2015    3       27    18  31    3.4321   425.3    3.564      26.187
2015    3       27    18  36    3.4324   424.9    3.571      26.163
2015    3       27    18  42    3.4328   424.6    3.578      26.140
2015    3       27    18  48    3.4332   424.2    3.584      26.116
2015    3       27    18  53    3.4336   423.9    3.591      26.093
2015    3       27    18  59    3.4341   423.5    3.598      26.070
2015    3       27    19   4    3.4345   423.2    3.605      26.047
2015    3       27    19  10    3.4350   422.8    3.612      26.025
2015    3       27    19  15    3.4356   422.5    3.620      26.003
2015    3       27    19  21    3.4361   422.1    3.627      25.981
2015    3       27    19  26    3.4367   421.8    3.634      25.959
2015    3       27    19  32    3.4374   421.5    3.642      25.938
2015    3       27    19  38    3.4380   421.1    3.649      25.917
2015    3       27    19  43    3.4387   420.8    3.657      25.896
2015    3       27    19  49    3.4394   420.4    3.664      25.876
2015    3       27    19  54    3.4402   420.1    3.672      25.856
2015    3       27    20   0    3.4410   419.8    3.680      25.836
2015    3       27    20   5    3.4418   419.4    3.688      25.817
2015    3       27    20  11    3.4427   419.1    3.696      25.798
2015    3       27    20  16    3.4436   418.8    3.704      25.779
2015    3       27    20  22    3.4445   418.4    3.712      25.761
2015    3       27    20  28    3.4455   418.1    3.720      25.742
2015    3       27    20  33    3.4465   417.8    3.728      25.724
2015    3       27    20  39    3.4475   417.5    3.737      25.707
2015    3       27    20  44    3.4486   417.1    3.745      25.690
2015    3       27    20  50    3.4497   416.8    3.754      25.673
2015    3       27    20  55    3.4508   416.5    3.762      25.656
2015    3       27    21   1    3.4520   416.2    3.771      25.640
2015    3       27    21   6    3.4532   415.8    3.780      25.624
2015    3       27    21  12    3.4544   415.5    3.788      25.608
2015    3       27    21  18    3.4556   415.2    3.797      25.593
2015    3       27    21  23    3.4569   414.9    3.806      25.577
2015    3       27    21  29    3.4582   414.6    3.815      25.562
2015    3       27    21  34    3.4596   414.3    3.824      25.548
2015    3       27    21  40    3.4609   414.0    3.833      25.533
2015    3       27    21  45    3.4623   413.7    3.842      25.519
2015    3       27    21  51    3.4636   413.3    3.851      25.505
2015    3       27    21  56    3.4651   413.0    3.861      25.491
2015    3       27    22   2    3.4665   412.7    3.870      25.477
2015    3       27    22   8    3.4680   412.4    3.879      25.464
2015    3       27    22  13    3.4695   412.1    3.888      25.450
2015    3       27    22  19    3.4710   411.8    3.898      25.437
2015    3       27    22  24    3.4725   411.5    3.907      25.424
2015    3       27    22  30    3.4740   411.2    3.917      25.412
2015    3       27    22  35    3.4756   410.9    3.926      25.399
2015    3       27    22  41    3.4771   410.6    3.936      25.386
2015    3       27    22  46    3.4787   410.3    3.945      25.374
2015    3       27    22  52    3.4804   410.1    3.955      25.362
2015    3       27    22  58    3.4820   409.8    3.964      25.350
2015    3       27    23   3    3.4836   409.5    3.974      25.338
2015    3       27    23   9    3.4853   409.2    3.983      25.326
2015    3       27    23  14    3.4870   408.9    3.993      25.315
2015    3       27    23  20    3.4886   408.6    4.002      25.303
2015    3       27    23  25    3.4904   408.3    4.012      25.292
2015    3       27    23  31    3.4921   408.0    4.022      25.281
2015    3       27    23  36    3.4939   407.8    4.031      25.270
2015    3       27    23  42    3.4956   407.5    4.041      25.259
2015    3       27    23  48    3.4974   407.2    4.051      25.248
2015    3       27    23  53    3.4992   406.9    4.060      25.238
2015    3       27    23  59    3.5010   406.6    4.070      25.228
2015    3       28     0   4    3.5029   406.4    4.080      25.217
2015    3       28     0  10    3.5048   406.1    4.090      25.207
2015    3       28     0  15    3.5066   405.8    4.099      25.198
2015    3       28     0  21    3.5085   405.5    4.109      25.188
2015    3       28     0  26    3.5105   405.3    4.119      25.178
2015    3       28     0  32    3.5124   405.0    4.129      25.169
2015    3       28     0  38    3.5144   404.7    4.139      25.160
2015    3       28     0  43    3.5164   404.4    4.148      25.151
2015    3       28     0  49    3.5184   404.2    4.158      25.142
2015    3       28     0  54    3.5204   403.9    4.168      25.134
2015    3       28     1   0    3.5225   403.6    4.178      25.125
2015    3       28     1   5    3.5245   403.4    4.188      25.117
2015    3       28     1  11    3.5266   403.1    4.198      25.109
2015    3       28     1  16    3.5288   402.9    4.208      25.101
2015    3       28     1  22    3.5309   402.6    4.218      25.094
2015    3       28     1  28    3.5331   402.3    4.228      25.086
2015    3       28     1  33    3.5352   402.1    4.238      25.079
2015    3       28     1  39    3.5375   401.8    4.248      25.072
2015    3       28     1  44    3.5397   401.6    4.258      25.066
2015    3       28     1  50    3.5419   401.3    4.269      25.059
2015    3       28     1  55    3.5442   401.1    4.279      25.053
2015    3       28     2   1    3.5465   400.8    4.289      25.047
2015    3       28     2   6    3.5488   400.6    4.299      25.041
2015    3       28     2  12    3.5512   400.3    4.309      25.035
2015    3       28     2  18    3.5536   400.1    4.320      25.029
2015    3       28     2  23    3.5560   399.8    4.330      25.024
2015    3       28     2  29    3.5584   399.6    4.340      25.019
2015    3       28     2  34    3.5608   399.3    4.351      25.014
2015    3       28     2  40    3.5633   399.1    4.361      25.009
2015    3       28     2  45    3.5658   398.8    4.372      25.005
2015    3       28     2  51    3.5683   398.6    4.382      25.000
2015    3       28     2  56    3.5708   398.4    4.393      24.996
2015    3       28     3   2    3.5733   398.1    4.403      24.992
2015    3       28     3   8    3.5759   397.9    4.414      24.989
2015    3       28     3  13    3.5785   397.6    4.424      24.985
2015    3       28     3  19    3.5811   397.4    4.435      24.982
2015    3       28     3  24    3.5837   397.2    4.445      24.979
2015    3       28     3  30    3.5863   396.9    4.456      24.976
2015    3       28     3  35    3.5890   396.7    4.467      24.973
2015    3       28     3  41    3.5917   396.5    4.477      24.971
2015    3       28     3  46    3.5943   396.3    4.488      24.968
2015    3       28     3  52    3.5971   396.0    4.499      24.966
2015    3       28     3  58    3.5998   395.8    4.509      24.964
2015    3       28     4   3    3.6025   395.6    4.520      24.962
2015    3       28     4   9    3.6053   395.4    4.531      24.961
2015    3       28     4  14    3.6080   395.1    4.542      24.959
2015    3       28     4  20    3.6108   394.9    4.552      24.958
2015    3       28     4  25    3.6136   394.7    4.563      24.957
2015    3       28     4  31    3.6164   394.5    4.574      24.956
2015    3       28     4  36    3.6192   394.3    4.585      24.955
2015    3       28     4  42    3.6221   394.1    4.596      24.954
2015    3       28     4  48    3.6249   393.8    4.606      24.954
2015    3       28     4  53    3.6278   393.6    4.617      24.953
2015    3       28     4  59    3.6306   393.4    4.628      24.953
2015    3       28     5   4    3.6335   393.2    4.639      24.953
2015    3       28     5  10    3.6364   393.0    4.649      24.953
2015    3       28     5  15    3.6392   392.8    4.660      24.953
2015    3       28     5  21    3.6421   392.6    4.671      24.954
2015    3       28     5  26    3.6450   392.4    4.681      24.954
2015    3       28     5  32    3.6479   392.2    4.692      24.954
2015    3       28     5  37    3.6508   392.0    4.703      24.955
2015    3       28     5  43    3.6538   391.8    4.713      24.956
2015    3       28     5  49    3.6567   391.6    4.724      24.956
2015    3       28     5  54    3.6596   391.4    4.734      24.957
2015    3       28     6   0    3.6625   391.2    4.745      24.958
2015    3       28     6   5    3.6655   391.0    4.756      24.959
2015    3       28     6  11    3.6684   390.8    4.766      24.961
2015    3       28     6  16    3.6713   390.6    4.777      24.962
2015    3       28     6  22    3.6743   390.4    4.787      24.963
2015    3       28     6  27    3.6772   390.2    4.797      24.965
2015    3       28     6  33    3.6802   390.0    4.808      24.966
2015    3       28     6  39    3.6832   389.8    4.818      24.968
2015    3       28     6  44    3.6861   389.6    4.829      24.970
2015    3       28     6  50    3.6891   389.4    4.839      24.971
2015    3       28     6  55    3.6921   389.2    4.849      24.973
2015    3       28     7   1    3.6951   389.0    4.860      24.975
2015    3       28     7   6    3.6980   388.8    4.870      24.977
2015    3       28     7  12    3.7010   388.6    4.880      24.979
2015    3       28     7  17    3.7040   388.4    4.890      24.981
2015    3       28     7  23    3.7070   388.3    4.900      24.983
2015    3       28     7  29    3.7100   388.1    4.911      24.985
2015    3       28     7  34    3.7130   387.9    4.921      24.988
2015    3       28     7  40    3.7161   387.7    4.931      24.990
2015    3       28     7  45    3.7191   387.5    4.941      24.993
2015    3       28     7  51    3.7221   387.3    4.951      24.995
2015    3       28     7  56    3.7252   387.1    4.961      24.998
2015    3       28     8   2    3.7282   387.0    4.971      25.001
2015    3       28     8   7    3.7312   386.8    4.981      25.003
2015    3       28     8  13    3.7343   386.6    4.991      25.006
2015    3       28     8  19    3.7373   386.4    5.001      25.009
2015    3       28     8  24    3.7404   386.2    5.011      25.012
2015    3       28     8  30    3.7435   386.1    5.021      25.015
2015    3       28     8  35    3.7465   385.9    5.031      25.018
2015    3       28     8  41    3.7496   385.7    5.041      25.021
2015    3       28     8  46    3.7527   385.5    5.050      25.025
2015    3       28     8  52    3.7558   385.4    5.060      25.028
2015    3       28     8  57    3.7589   385.2    5.070      25.031
2015    3       28     9   3    3.7620   385.0    5.080      25.035
2015    3       28     9   9    3.7651   384.8    5.090      25.038
2015    3       28     9  14    3.7682   384.7    5.099      25.041
2015    3       28     9  20    3.7713   384.5    5.109      25.045
2015    3       28     9  25    3.7744   384.3    5.119      25.049
2015    3       28     9  31    3.7776   384.2    5.128      25.052
2015    3       28     9  36    3.7807   384.0    5.138      25.056
2015    3       28     9  42    3.7838   383.8    5.148      25.060
2015    3       28     9  47    3.7870   383.6    5.157      25.064
2015    3       28     9  53    3.7901   383.5    5.167      25.068
2015    3       28     9  59    3.7933   383.3    5.176      25.072
2015    3       28    10   4    3.7965   383.1    5.186      25.076
2015    3       28    10  10    3.7996   383.0    5.196      25.080
2015    3       28    10  15    3.8028   382.8    5.205      25.084
2015    3       28    10  21    3.8060   382.7    5.215      25.088
2015    3       28    10  26    3.8092   382.5    5.224      25.092
2015    3       28    10  32    3.8124   382.3    5.233      25.096
2015    3       28    10  37    3.8156   382.2    5.243      25.101
2015    3       28    10  43    3.8188   382.0    5.252      25.105
2015    3       28    10  49    3.8220   381.8    5.262      25.109
2015    3       28    10  54    3.8252   381.7    5.271      25.114
2015    3       28    11   0    3.8284   381.5    5.280      25.118
2015    3       28    11   5    3.8316   381.4    5.290      25.123
2015    3       28    11  11    3.8349   381.2    5.299      25.127
2015    3       28    11  16    3.8381   381.1    5.308      25.132
2015    3       28    11  22    3.8413   380.9    5.317      25.137
2015    3       28    11  27    3.8446   380.8    5.327      25.141
2015    3       28    11  33    3.8478   380.6    5.336      25.146
2015    3       28    11  39    3.8511   380.4    5.345      25.151
2015    3       28    11  44    3.8543   380.3    5.354      25.155
2015    3       28    11  50    3.8576   380.1    5.363      25.160
2015    3       28    11  55    3.8609   380.0    5.372      25.165
2015    3       28    12   1    3.8641   379.8    5.382      25.170
2015    3       28    12   6    3.8674   379.7    5.391      25.175
2015    3       28    12  12    3.8707   379.5    5.400      25.180
2015    3       28    12  17    3.8739   379.4    5.409      25.185
2015    3       28    12  23    3.8772   379.2    5.418      25.190
2015    3       28    12  29    3.8805   379.1    5.427      25.195
2015    3       28    12  34    3.8838   378.9    5.436      25.200
2015    3       28    12  40    3.8871   378.8    5.445      25.205
2015    3       28    12  45    3.8904   378.7    5.454      25.210
2015    3       28    12  51    3.8937   378.5    5.463      25.215
2015    3       28    12  56    3.8969   378.4    5.471      25.221
2015    3       28    13   2    3.9003   378.2    5.480      25.226
2015    3       28    13   7    3.9035   378.1    5.489      25.231
2015    3       28    13  13    3.9068   377.9    5.498      25.236
2015    3       28    13  19    3.9101   377.8    5.507      25.242
2015    3       28    13  24    3.9134   377.7    5.516      25.247
2015    3       28    13  30    3.9167   377.5    5.524      25.252
2015    3       28    13  35    3.9200   377.4    5.533      25.258
2015    3       28    13  41    3.9234   377.2    5.542      25.263
2015    3       28    13  46    3.9266   377.1    5.551      25.268
2015    3       28    13  52    3.9300   377.0    5.559      25.274
2015    3       28    13  57    3.9333   376.8    5.568      25.279
2015    3       28    14   3    3.9366   376.7    5.577      25.285
2015    3       28    14   9    3.9399   376.5    5.585      25.290
2015    3       28    14  14    3.9432   376.4    5.594      25.296
2015    3       28    14  20    3.9465   376.3    5.603      25.302
2015    3       28    14  25    3.9498   376.1    5.611      25.307
2015    3       28    14  31    3.9531   376.0    5.620      25.313
2015    3       28    14  36    3.9565   375.9    5.628      25.319
2015    3       28    14  42    3.9598   375.7    5.637      25.324
2015    3       28    14  47    3.9631   375.6    5.646      25.330
2015    3       28    14  53    3.9664   375.5    5.654      25.336
2015    3       28    14  59    3.9698   375.3    5.663      25.341
2015    3       28    15   4    3.9731   375.2    5.671      25.347
2015    3       28    15  10    3.9764   375.1    5.680      25.353
2015    3       28    15  15    3.9798   375.0    5.688      25.359
2015    3       28    15  21    3.9831   374.8    5.697      25.365
2015    3       28    15  26    3.9865   374.7    5.705      25.371
2015    3       28    15  32    3.9898   374.6    5.714      25.377
2015    3       28    15  37    3.9932   374.4    5.722      25.383
2015    3       28    15  43    3.9965   374.3    5.731      25.389
2015    3       28    15  49    3.9999   374.2    5.739      25.395
2015    3       28    15  54    4.0033   374.1    5.748      25.402
2015    3       28    16   0    4.0066   373.9    5.756      25.408
2015    3       28    16   5    4.0100   373.8    5.765      25.414
2015    3       28    16  11    4.0134   373.7    5.773      25.421
2015    3       28    16  16    4.0168   373.6    5.782      25.427
2015    3       28    16  22    4.0202   373.4    5.790      25.433
2015    3       28    16  27    4.0236   373.3    5.799      25.440
2015    3       28    16  33    4.0270   373.2    5.807      25.446
2015    3       28    16  39    4.0304   373.1    5.816      25.453
2015    3       28    16  44    4.0338   372.9    5.824      25.459
2015    3       28    16  50    4.0372   372.8    5.833      25.466
2015    3       28    16  55    4.0406   372.7    5.841      25.473
2015    3       28    17   1    4.0441   372.6    5.850      25.479
2015    3       28    17   6    4.0475   372.5    5.858      25.486
2015    3       28    17  12    4.0509   372.4    5.867      25.493
2015    3       28    17  17    4.0543   372.2    5.875      25.500
2015    3       28    17  23    4.0578   372.1    5.884      25.506
2015    3       28    17  29    4.0612   372.0    5.892      25.513
2015    3       28    17  34    4.0647   371.9    5.901      25.520
2015    3       28    17  40    4.0682   371.8    5.909      25.527
2015    3       28    17  45    4.0716   371.6    5.918      25.534
2015    3       28    17  51    4.0751   371.5    5.926      25.541
2015    3       28    17  56    4.0786   371.4    5.935      25.548
2015    3       28    18   2    4.0820   371.3    5.943      25.555
2015    3       28    18   7    4.0855   371.2    5.952      25.562
2015    3       28    18  13    4.0890   371.1    5.960      25.570
2015    3       28    18  19    4.0925   371.0    5.969      25.577
2015    3       28    18  24    4.0960   370.9    5.978      25.584
2015    3       28    18  30    4.0995   370.7    5.986      25.591
2015    3       28    18  35    4.1031   370.6    5.995      25.599
2015    3       28    18  41    4.1066   370.5    6.003      25.606
2015    3       28    18  46    4.1101   370.4    6.012      25.614
2015    3       28    18  52    4.1137   370.3    6.020      25.621
2015    3       28    18  57    4.1172   370.2    6.029      25.629
2015    3       28    19   3    4.1208   370.1    6.037      25.637
2015    3       28    19   8    4.1244   370.0    6.046      25.644
2015    3       28    19  14    4.1280   369.9    6.055      25.652
2015    3       28    19  20    4.1315   369.7    6.063      25.660
2015    3       28    19  25    4.1352   369.6    6.072      25.668
2015    3       28    19  31    4.1387   369.5    6.080      25.676
2015    3       28    19  36    4.1424   369.4    6.089      25.684
2015    3       28    19  42    4.1460   369.3    6.098      25.692
2015    3       28    19  47    4.1496   369.2    6.106      25.700
2015    3       28    19  53    4.1533   369.1    6.115      25.708
2015    3       28    19  58    4.1569   369.0    6.124      25.716
2015    3       28    20   4    4.1606   368.9    6.132      25.724
2015    3       28    20  10    4.1643   368.8    6.141      25.732
2015    3       28    20  15    4.1680   368.7    6.149      25.741
2015    3       28    20  21    4.1717   368.6    6.158      25.749
2015    3       28    20  26    4.1754   368.5    6.167      25.757
2015    3       28    20  32    4.1791   368.4    6.175      25.765
2015    3       28    20  37    4.1828   368.3    6.184      25.774
2015    3       28    20  43    4.1865   368.2    6.193      25.782
2015    3       28    20  48    4.1903   368.1    6.201      25.790
2015    3       28    20  54    4.1940   368.0    6.210      25.799
2015    3       28    21   0    4.1978   367.9    6.218      25.807
2015    3       28    21   5    4.2016   367.8    6.227      25.815
2015    3       28    21  11    4.2053   367.7    6.236      25.824
2015    3       28    21  16    4.2091   367.6    6.244      25.832
2015    3       28    21  22    4.2129   367.5    6.253      25.840
2015    3       28    21  27    4.2167   367.4    6.262      25.849
2015    3       28    21  33    4.2205   367.3    6.270      25.857
2015    3       28    21  38    4.2243   367.2    6.279      25.866
2015    3       28    21  44    4.2281   367.1    6.287      25.874
2015    3       28    21  50    4.2319   367.0    6.296      25.882
2015    3       28    21  55    4.2357   366.9    6.305      25.891
2015    3       28    22   1    4.2396   366.8    6.313      25.899
2015    3       28    22   6    4.2434   366.7    6.322      25.907
2015    3       28    22  12    4.2472   366.6    6.330      25.916
2015    3       28    22  17    4.2511   366.5    6.339      25.924
2015    3       28    22  23    4.2549   366.5    6.347      25.932
2015    3       28    22  28    4.2587   366.4    6.356      25.940
2015    3       28    22  34    4.2626   366.3    6.364      25.948
2015    3       28    22  40    4.2664   366.2    6.373      25.956
2015    3       28    22  45    4.2703   366.1    6.382      25.965
2015    3       28    22  51    4.2741   366.0    6.390      25.973
2015    3       28    22  56    4.2780   365.9    6.399      25.981
2015    3       28    23   2    4.2819   365.8    6.407      25.989
2015    3       28    23   7    4.2857   365.7    6.416      25.997
2015    3       28    23  13    4.2896   365.7    6.424      26.005
2015    3       28    23  18    4.2935   365.6    6.433      26.013
2015    3       28    23  24    4.2974   365.5    6.441      26.021
2015    3       28    23  30    4.3012   365.4    6.450      26.029
2015    3       28    23  35    4.3051   365.3    6.459      26.037
2015    3       28    23  41    4.3090   365.2    6.467      26.045
2015    3       28    23  46    4.3129   365.1    6.476      26.053
2015    3       28    23  52    4.3168   365.1    6.485      26.061
2015    3       28    23  57    4.3207   365.0    6.493      26.070
2015    3       29     0   3    4.3246   364.9    6.502      26.078
2015    3       29     0   8    4.3284   364.8    6.511      26.086
2015    3       29     0  14    4.3323   364.7    6.519      26.094
2015    3       29     0  20    4.3362   364.7    6.528      26.102
2015    3       29     0  25    4.3401   364.6    6.537      26.111
2015    3       29     0  31    4.3440   364.5    6.546      26.119
2015    3       29     0  36    4.3479   364.4    6.554      26.127
2015    3       29     0  42    4.3517   364.3    6.563      26.135
2015    3       29     0  47    4.3556   364.3    6.572      26.144
2015    3       29     0  53    4.3595   364.2    6.581      26.152
2015    3       29     0  58    4.3633   364.1    6.590      26.160
2015    3       29     1   4    4.3672   364.0    6.598      26.169
2015    3       29     1  10    4.3710   364.0    6.607      26.177
2015    3       29     1  15    4.3748   363.9    6.616      26.186
2015    3       29     1  21    4.3786   363.8    6.625      26.194
2015    3       29     1  26    4.3825   363.7    6.634      26.203
2015    3       29     1  32    4.3863   363.7    6.643      26.211
2015    3       29     1  37    4.3900   363.6    6.652      26.219
2015    3       29     1  43    4.3938   363.5    6.661      26.228
2015    3       29     1  48    4.3976   363.5    6.670      26.236
2015    3       29     1  54    4.4013   363.4    6.679      26.245
2015    3       29     2   0    4.4051   363.3    6.688      26.253
2015    3       29     2   5    4.4089   363.3    6.697      26.261
2015    3       29     2  11    4.4126   363.2    6.705      26.269
2015    3       29     2  16    4.4163   363.1    6.714      26.277
2015    3       29     2  22    4.4200   363.0    6.723      26.285
2015    3       29     2  27    4.4237   363.0    6.732      26.293
2015    3       29     2  33    4.4274   362.9    6.741      26.301
2015    3       29     2  38    4.4311   362.8    6.750      26.309
2015    3       29     2  44    4.4348   362.8    6.758      26.316
2015    3       29     2  50    4.4384   362.7    6.767      26.323
2015    3       29     2  55    4.4421   362.6    6.776      26.331
2015    3       29     3   1    4.4457   362.6    6.784      26.338
2015    3       29     3   6    4.4494   362.5    6.793      26.345
2015    3       29     3  12    4.4530   362.5    6.802      26.352
2015    3       29     3  17    4.4566   362.4    6.810      26.358
2015    3       29     3  23    4.4602   362.3    6.819      26.365
2015    3       29     3  28    4.4638   362.3    6.828      26.371
2015    3       29     3  34    4.4675   362.2    6.836      26.378
2015    3       29     3  40    4.4710   362.1    6.845      26.384
2015    3       29     3  45    4.4746   362.1    6.853      26.390
2015    3       29     3  51    4.4782   362.0    6.861      26.396
2015    3       29     3  56    4.4818   361.9    6.870      26.401
2015    3       29     4   2    4.4854   361.9    6.878      26.407
2015    3       29     4   7    4.4889   361.8    6.887      26.413
2015    3       29     4  13    4.4925   361.8    6.895      26.418
2015    3       29     4  18    4.4961   361.7    6.903      26.424
2015    3       29     4  24    4.4996   361.6    6.912      26.429
2015    3       29     4  30    4.5031   361.6    6.920      26.434
2015    3       29     4  35    4.5067   361.5    6.928      26.439
2015    3       29     4  41    4.5102   361.5    6.936      26.444
2015    3       29     4  46    4.5137   361.4    6.945      26.448
2015    3       29     4  52    4.5172   361.3    6.953      26.453
2015    3       29     4  57    4.5208   361.3    6.961      26.458
2015    3       29     5   3    4.5243   361.2    6.969      26.462
2015    3       29     5   8    4.5278   361.2    6.977      26.466
2015    3       29     5  14    4.5313   361.1    6.985      26.471
2015    3       29     5  20    4.5348   361.0    6.993      26.475
2015    3       29     5  25    4.5383   361.0    7.001      26.479
2015    3       29     5  31    4.5418   360.9    7.010      26.483
2015    3       29     5  36    4.5453   360.9    7.018      26.487
2015    3       29     5  42    4.5487   360.8    7.026      26.491
2015    3       29     5  47    4.5522   360.7    7.034      26.495
2015    3       29     5  53    4.5557   360.7    7.042      26.498
2015    3       29     5  58    4.5592   360.6    7.050      26.502
2015    3       29     6   4    4.5627   360.6    7.058      26.506
2015    3       29     6  10    4.5661   360.5    7.065      26.509
2015    3       29     6  15    4.5696   360.4    7.073      26.513
2015    3       29     6  21    4.5731   360.4    7.081      26.516
2015    3       29     6  26    4.5766   360.3    7.089      26.519
2015    3       29     6  32    4.5800   360.3    7.097      26.523
2015    3       29     6  37    4.5835   360.2    7.105      26.526
2015    3       29     6  43    4.5870   360.2    7.113      26.529
2015    3       29     6  48    4.5905   360.1    7.121      26.533
2015    3       29     6  54    4.5940   360.0    7.129      26.536
2015    3       29     6  59    4.5975   360.0    7.137      26.539
2015    3       29     7   5    4.6010   359.9    7.145      26.543
2015    3       29     7  11    4.6045   359.9    7.153      26.546
2015    3       29     7  16    4.6080   359.8    7.162      26.549
2015    3       29     7  22    4.6115   359.8    7.170      26.553
2015    3       29     7  27    4.6150   359.7    7.178      26.556
2015    3       29     7  33    4.6185   359.6    7.186      26.560
2015    3       29     7  38    4.6221   359.6    7.194      26.564
2015    3       29     7  44    4.6256   359.5    7.203      26.568
2015    3       29     7  49    4.6292   359.5    7.211      26.572
2015    3       29     7  55    4.6328   359.4    7.219      26.576
2015    3       29     8   1    4.6364   359.4    7.228      26.580
2015    3       29     8   6    4.6400   359.3    7.236      26.584
2015    3       29     8  12    4.6436   359.3    7.245      26.589
2015    3       29     8  17    4.6472   359.2    7.254      26.594
2015    3       29     8  23    4.6509   359.1    7.262      26.599
2015    3       29     8  28    4.6545   359.1    7.271      26.604
2015    3       29     8  34    4.6582   359.0    7.280      26.609
2015    3       29     8  39    4.6619   359.0    7.289      26.614
2015    3       29     8  45    4.6656   358.9    7.298      26.620
2015    3       29     8  51    4.6693   358.9    7.307      26.626
2015    3       29     8  56    4.6731   358.8    7.316      26.632
2015    3       29     9   2    4.6768   358.8    7.325      26.638
2015    3       29     9   7    4.6806   358.7    7.334      26.645
2015    3       29     9  13    4.6844   358.7    7.343      26.652
2015    3       29     9  18    4.6882   358.6    7.352      26.659
2015    3       29     9  24    4.6920   358.6    7.362      26.666
2015    3       29     9  29    4.6958   358.6    7.371      26.674
2015    3       29     9  35    4.6996   358.5    7.380      26.681
2015    3       29     9  41    4.7034   358.5    7.389      26.689
2015    3       29     9  46    4.7073   358.4    7.399      26.698
2015    3       29     9  52    4.7111   358.4    7.408      26.706
2015    3       29     9  57    4.7150   358.3    7.418      26.715
2015    3       29    10   3    4.7189   358.3    7.427      26.724
2015    3       29    10   8    4.7227   358.3    7.436      26.733
2015    3       29    10  14    4.7266   358.2    7.445      26.742
2015    3       29    10  19    4.7305   358.2    7.455      26.752
2015    3       29    10  25    4.7344   358.1    7.464      26.762
2015    3       29    10  31    4.7383   358.1    7.473      26.772
2015    3       29    10  36    4.7422   358.1    7.482      26.782
2015    3       29    10  42    4.7461   358.0    7.491      26.793
2015    3       29    10  47    4.7499   358.0    7.500      26.804
2015    3       29    10  53    4.7538   357.9    7.509      26.815
2015    3       29    10  58    4.7577   357.9    7.518      26.826
2015    3       29    11   4    4.7616   357.9    7.527      26.837
2015    3       29    11   9    4.7655   357.8    7.535      26.848
2015    3       29    11  15    4.7693   357.8    7.544      26.859
2015    3       29    11  21    4.7732   357.8    7.553      26.871
2015    3       29    11  26    4.7771   357.7    7.561      26.882
2015    3       29    11  32    4.7809   357.7    7.570      26.893
2015    3       29    11  37    4.7848   357.7    7.578      26.904
2015    3       29    11  43    4.7886   357.6    7.587      26.915
2015    3       29    11  48    4.7925   357.6    7.595      26.926
2015    3       29    11  54    4.7963   357.6    7.603      26.937
2015    3       29    11  59    4.8002   357.5    7.611      26.948
2015    3       29    12   5    4.8040   357.5    7.620      26.958
2015    3       29    12  11    4.8079   357.4    7.628      26.969
2015    3       29    12  16    4.8117   357.4    7.636      26.980
2015    3       29    12  22    4.8156   357.4    7.644      26.990
2015    3       29    12  27    4.8194   357.3    7.652      27.000
2015    3       29    12  33    4.8232   357.3    7.660      27.011
2015    3       29    12  38    4.8271   357.3    7.668      27.021
2015    3       29    12  44    4.8309   357.2    7.676      27.031
2015    3       29    12  49    4.8347   357.2    7.683      27.041
2015    3       29    12  55    4.8386   357.2    7.691      27.051
2015    3       29    13   1    4.8424   357.1    7.699      27.061
2015    3       29    13   6    4.8462   357.1    7.707      27.070
2015    3       29    13  12    4.8500   357.1    7.714      27.080
2015    3       29    13  17    4.8539   357.0    7.722      27.090
2015    3       29    13  23    4.8577   357.0    7.730      27.100
2015    3       29    13  28    4.8615   357.0    7.737      27.109
2015    3       29    13  34    4.8653   357.0    7.745      27.119
2015    3       29    13  39    4.8692   356.9    7.752      27.128
2015    3       29    13  45    4.8730   356.9    7.760      27.137
2015    3       29    13  51    4.8768   356.9    7.767      27.147
2015    3       29    13  56    4.8806   356.8    7.774      27.156
2015    3       29    14   2    4.8844   356.8    7.782      27.165
2015    3       29    14   7    4.8882   356.8    7.789      27.175
2015    3       29    14  13    4.8920   356.7    7.796      27.184
2015    3       29    14  18    4.8958   356.7    7.804      27.193
2015    3       29    14  24    4.8996   356.7    7.811      27.202
2015    3       29    14  29    4.9035   356.7    7.818      27.211
2015    3       29    14  35    4.9073   356.6    7.826      27.221
2015    3       29    14  41    4.9111   356.6    7.833      27.230
2015    3       29    14  46    4.9148   356.6    7.840      27.239
2015    3       29    14  52    4.9186   356.5    7.847      27.248
2015    3       29    14  57    4.9224   356.5    7.854      27.257
2015    3       29    15   3    4.9262   356.5    7.861      27.266
2015    3       29    15   8    4.9300   356.5    7.869      27.275
2015    3       29    15  14    4.9337   356.4    7.876      27.284
2015    3       29    15  19    4.9375   356.4    7.883      27.293
2015    3       29    15  25    4.9413   356.4    7.890      27.302
2015    3       29    15  31    4.9450   356.4    7.897      27.311
2015    3       29    15  36    4.9488   356.3    7.904      27.320
2015    3       29    15  42    4.9525   356.3    7.911      27.330
2015    3       29    15  47    4.9562   356.3    7.918      27.339
2015    3       29    15  53    4.9600   356.3    7.925      27.348
2015    3       29    15  58    4.9637   356.2    7.932      27.357
2015    3       29    16   4    4.9674   356.2    7.939      27.366
2015    3       29    16   9    4.9711   356.2    7.946      27.375
2015    3       29    16  15    4.9748   356.2    7.953      27.384
2015    3       29    16  20    4.9785   356.1    7.960      27.394
2015    3       29    16  26    4.9821   356.1    7.967      27.403
2015    3       29    16  32    4.9858   356.1    7.974      27.412
2015    3       29    16  37    4.9895   356.1    7.981      27.421
2015    3       29    16  43    4.9931   356.1    7.988      27.430
2015    3       29    16  48    4.9968   356.0    7.995      27.439
2015    3       29    16  54    5.0004   356.0    8.002      27.449
2015    3       29    16  59    5.0040   356.0    8.009      27.458
2015    3       29    17   5    5.0076   356.0    8.016      27.467
2015    3       29    17  10    5.0112   355.9    8.023      27.476
2015    3       29    17  16    5.0148   355.9    8.030      27.485
2015    3       29    17  22    5.0184   355.9    8.037      27.494
2015    3       29    17  27    5.0220   355.9    8.044      27.503
2015    3       29    17  33    5.0256   355.9    8.051      27.512
2015    3       29    17  38    5.0291   355.8    8.058      27.521
2015    3       29    17  44    5.0327   355.8    8.065      27.530
2015    3       29    17  49    5.0362   355.8    8.072      27.540
2015    3       29    17  55    5.0397   355.8    8.079      27.549
2015    3       29    18   0    5.0432   355.8    8.086      27.557
2015    3       29    18   6    5.0468   355.7    8.093      27.566
2015    3       29    18  12    5.0503   355.7    8.099      27.575
2015    3       29    18  17    5.0537   355.7    8.106      27.584
2015    3       29    18  23    5.0572   355.7    8.113      27.593
2015    3       29    18  28    5.0607   355.7    8.120      27.601
2015    3       29    18  34    5.0641   355.7    8.127      27.610
2015    3       29    18  39    5.0675   355.6    8.134      27.619
2015    3       29    18  45    5.0710   355.6    8.140      27.627
2015    3       29    18  50    5.0744   355.6    8.147      27.636
2015    3       29    18  56    5.0778   355.6    8.154      27.645
2015    3       29    19   2    5.0812   355.6    8.161      27.653
2015    3       29    19   7    5.0846   355.6    8.167      27.661
2015    3       29    19  13    5.0879   355.5    8.174      27.670
2015    3       29    19  18    5.0913   355.5    8.181      27.678
2015    3       29    19  24    5.0946   355.5    8.188      27.686
2015    3       29    19  29    5.0980   355.5    8.194      27.695
2015    3       29    19  35    5.1013   355.5    8.201      27.703
2015    3       29    19  40    5.1046   355.5    8.207      27.711
2015    3       29    19  46    5.1079   355.5    8.214      27.720
2015    3       29    19  52    5.1112   355.4    8.221      27.728
2015    3       29    19  57    5.1145   355.4    8.227      27.736
2015    3       29    20   3    5.1177   355.4    8.234      27.744
2015    3       29    20   8    5.1210   355.4    8.240      27.752
2015    3       29    20  14    5.1242   355.4    8.247      27.761
2015    3       29    20  19    5.1274   355.4    8.254      27.769
2015    3       29    20  25    5.1306   355.4    8.260      27.777
2015    3       29    20  30    5.1338   355.3    8.267      27.785
2015    3       29    20  36    5.1370   355.3    8.273      27.793
2015    3       29    20  42    5.1402   355.3    8.279      27.801
2015    3       29    20  47    5.1433   355.3    8.286      27.809
2015    3       29    20  53    5.1465   355.3    8.292      27.817
2015    3       29    20  58    5.1496   355.3    8.299      27.826
2015    3       29    21   4    5.1527   355.3    8.305      27.834
2015    3       29    21   9    5.1558   355.3    8.311      27.842
2015    3       29    21  15    5.1589   355.3    8.318      27.851
2015    3       29    21  20    5.1620   355.2    8.324      27.859
2015    3       29    21  26    5.1650   355.2    8.330      27.867
2015    3       29    21  32    5.1681   355.2    8.337      27.875
2015    3       29    21  37    5.1711   355.2    8.343      27.884
2015    3       29    21  43    5.1741   355.2    8.349      27.892
2015    3       29    21  48    5.1771   355.2    8.356      27.901
2015    3       29    21  54    5.1801   355.2    8.362      27.909
2015    3       29    21  59    5.1831   355.2    8.368      27.918
2015    3       29    22   5    5.1861   355.2    8.374      27.927
2015    3       29    22  10    5.1890   355.2    8.380      27.935
2015    3       29    22  16    5.1920   355.1    8.386      27.944
2015    3       29    22  22    5.1949   355.1    8.393      27.953
2015    3       29    22  27    5.1978   355.1    8.399      27.962
2015    3       29    22  33    5.2007   355.1    8.405      27.971
2015    3       29    22  38    5.2036   355.1    8.411      27.980
2015    3       29    22  44    5.2065   355.1    8.417      27.989
2015    3       29    22  49    5.2093   355.1    8.423      27.998
2015    3       29    22  55    5.2122   355.1    8.429      28.007
2015    3       29    23   0    5.2150   355.1    8.435      28.016
2015    3       29    23   6    5.2178   355.1    8.441      28.025
2015    3       29    23  12    5.2206   355.1    8.446      28.035
2015    3       29    23  17    5.2234   355.1    8.452      28.044
2015    3       29    23  23    5.2262   355.1    8.458      28.054
2015    3       29    23  28    5.2289   355.0    8.464      28.063
2015    3       29    23  34    5.2317   355.0    8.469      28.073
2015    3       29    23  39    5.2344   355.0    8.475      28.083
2015    3       29    23  45    5.2371   355.0    8.481      28.093
2015    3       29    23  50    5.2398   355.0    8.486      28.102
2015    3       29    23  56    5.2425   355.0    8.492      28.112
2015    3       30     0   2    5.2451   355.0    8.497      28.122
2015    3       30     0   7    5.2478   355.0    8.502      28.133
2015    3       30     0  13    5.2504   355.0    8.508      28.143
2015    3       30     0  18    5.2531   355.0    8.513      28.153
2015    3       30     0  24    5.2557   355.0    8.518      28.163
2015    3       30     0  29    5.2583   355.0    8.523      28.174
2015    3       30     0  35    5.2608   355.0    8.528      28.184
2015    3       30     0  40    5.2634   355.0    8.533      28.194
2015    3       30     0  46    5.2660   355.0    8.538      28.205
2015    3       30     0  51    5.2685   355.0    8.543      28.215
2015    3       30     0  57    5.2710   355.0    8.548      28.226
2015    3       30     1   3    5.2736   354.9    8.553      28.236
2015    3       30     1   8    5.2760   354.9    8.558      28.247
2015    3       30     1  14    5.2785   354.9    8.563      28.257
2015    3       30     1  19    5.2810   354.9    8.567      28.267
2015    3       30     1  25    5.2835   354.9    8.572      28.278
2015    3       30     1  30    5.2859   354.9    8.577      28.288
2015    3       30     1  36    5.2884   354.9    8.581      28.299
2015    3       30     1  41    5.2908   354.9    8.586      28.309
2015    3       30     1  47    5.2932   354.9    8.590      28.319
2015    3       30     1  53    5.2956   354.9    8.594      28.330
2015    3       30     1  58    5.2980   354.9    8.599      28.340
2015    3       30     2   4    5.3004   354.9    8.603      28.350
2015    3       30     2   9    5.3028   354.9    8.607      28.361
2015    3       30     2  15    5.3051   354.9    8.612      28.371
2015    3       30     2  20    5.3075   354.9    8.616      28.381
2015    3       30     2  26    5.3098   354.9    8.620      28.391
2015    3       30     2  31    5.3121   354.9    8.624      28.402
2015    3       30     2  37    5.3144   354.9    8.628      28.412
2015    3       30     2  43    5.3167   354.9    8.632      28.422
2015    3       30     2  48    5.3190   354.8    8.636      28.432
2015    3       30     2  54    5.3213   354.8    8.640      28.442
2015    3       30     2  59    5.3236   354.8    8.644      28.453
2015    3       30     3   5    5.3259   354.8    8.648      28.463
2015    3       30     3  10    5.3281   354.8    8.652      28.473
2015    3       30     3  16    5.3304   354.8    8.656      28.483
2015    3       30     3  21    5.3326   354.8    8.659      28.493
2015    3       30     3  27    5.3348   354.8    8.663      28.503
2015    3       30     3  33    5.3370   354.8    8.667      28.513
2015    3       30     3  38    5.3392   354.8    8.670      28.523
2015    3       30     3  44    5.3415   354.8    8.674      28.534
2015    3       30     3  49    5.3436   354.8    8.678      28.544
2015    3       30     3  55    5.3458   354.8    8.681      28.554
2015    3       30     4   0    5.3480   354.8    8.685      28.564
2015    3       30     4   6    5.3501   354.8    8.688      28.574
2015    3       30     4  11    5.3523   354.8    8.692      28.584
2015    3       30     4  17    5.3544   354.8    8.696      28.594
2015    3       30     4  23    5.3566   354.8    8.699      28.604
2015    3       30     4  28    5.3587   354.8    8.702      28.614
2015    3       30     4  34    5.3608   354.8    8.706      28.624
2015    3       30     4  39    5.3629   354.8    8.709      28.634
2015    3       30     4  45    5.3650   354.7    8.713      28.644
2015    3       30     4  50    5.3671   354.7    8.716      28.654
2015    3       30     4  56    5.3691   354.7    8.719      28.664
2015    3       30     5   1    5.3712   354.7    8.723      28.674
2015    3       30     5   7    5.3732   354.7    8.726      28.684
2015    3       30     5  13    5.3753   354.7    8.729      28.694
2015    3       30     5  18    5.3773   354.7    8.732      28.704
2015    3       30     5  24    5.3793   354.7    8.736      28.714
2015    3       30     5  29    5.3813   354.7    8.739      28.724
2015    3       30     5  35    5.3832   354.7    8.742      28.734
2015    3       30     5  40    5.3852   354.7    8.745      28.744
2015    3       30     5  46    5.3872   354.7    8.748      28.754
2015    3       30     5  51    5.3891   354.7    8.751      28.764
2015    3       30     5  57    5.3910   354.7    8.754      28.774
2015    3       30     6   3    5.3929   354.7    8.757      28.784
2015    3       30     6   8    5.3948   354.7    8.760      28.794
2015    3       30     6  14    5.3966   354.7    8.763      28.803
2015    3       30     6  19    5.3985   354.7    8.766      28.813
2015    3       30     6  25    5.4003   354.7    8.769      28.823
2015    3       30     6  30    5.4021   354.7    8.772      28.833
2015    3       30     6  36    5.4039   354.7    8.775      28.843
2015    3       30     6  41    5.4057   354.7    8.778      28.852
2015    3       30     6  47    5.4075   354.7    8.781      28.862
2015    3       30     6  53    5.4092   354.7    8.783      28.872
2015    3       30     6  58    5.4109   354.7    8.786      28.881
2015    3       30     7   4    5.4127   354.7    8.789      28.891
2015    3       30     7   9    5.4144   354.7    8.792      28.900
2015    3       30     7  15    5.4161   354.7    8.794      28.910
2015    3       30     7  20    5.4177   354.7    8.797      28.919
2015    3       30     7  26    5.4194   354.7    8.799      28.929
2015    3       30     7  31    5.4210   354.7    8.802      28.938
2015    3       30     7  37    5.4226   354.7    8.804      28.947
2015    3       30     7  43    5.4242   354.7    8.807      28.956
2015    3       30     7  48    5.4258   354.7    8.809      28.966
2015    3       30     7  54    5.4274   354.7    8.812      28.975
2015    3       30     7  59    5.4289   354.7    8.814      28.984
2015    3       30     8   5    5.4305   354.7    8.816      28.993
2015    3       30     8  10    5.4320   354.7    8.818      29.002
2015    3       30     8  16    5.4335   354.6    8.821      29.011
2015    3       30     8  21    5.4350   354.6    8.823      29.019
2015    3       30     8  27    5.4365   354.6    8.825      29.028
2015    3       30     8  32    5.4379   354.6    8.827      29.037
2015    3       30     8  38    5.4394   354.6    8.829      29.045
2015    3       30     8  44    5.4408   354.6    8.831      29.054
2015    3       30     8  49    5.4423   354.6    8.833      29.062
2015    3       30     8  55    5.4437   354.6    8.835      29.070
2015    3       30     9   0    5.4451   354.6    8.837      29.079
2015    3       30     9   6    5.4465   354.6    8.839      29.087
2015    3       30     9  11    5.4478   354.6    8.840      29.095
2015    3       30     9  17    5.4492   354.6    8.842      29.103
2015    3       30     9  22    5.4506   354.6    8.844      29.111
2015    3       30     9  28    5.4519   354.6    8.846      29.119
2015    3       30     9  34    5.4532   354.6    8.847      29.126
2015    3       30     9  39    5.4545   354.6    8.849      29.134
2015    3       30     9  45    5.4558   354.6    8.850      29.142
2015    3       30     9  50    5.4571   354.6    8.852      29.149
2015    3       30     9  56    5.4584   354.6    8.853      29.157
2015    3       30    10   1    5.4597   354.6    8.855      29.164
2015    3       30    10   7    5.4609   354.6    8.856      29.172
2015    3       30    10  12    5.4622   354.6    8.858      29.179
2015    3       30    10  18    5.4634   354.6    8.859      29.186
2015    3       30    10  24    5.4646   354.6    8.860      29.193
2015    3       30    10  29    5.4659   354.6    8.862      29.201
2015    3       30    10  35    5.4671   354.6    8.863      29.208
2015    3       30    10  40    5.4683   354.6    8.864      29.215
2015    3       30    10  46    5.4694   354.5    8.866      29.222
2015    3       30    10  51    5.4706   354.5    8.867      29.229
2015    3       30    10  57    5.4718   354.5    8.868      29.235
2015    3       30    11   2    5.4729   354.5    8.869      29.242
2015    3       30    11   8    5.4740   354.5    8.870      29.249
2015    3       30    11  14    5.4752   354.5    8.871      29.256
2015    3       30    11  19    5.4763   354.5    8.872      29.262
2015    3       30    11  25    5.4774   354.5    8.873      29.269
2015    3       30    11  30    5.4784   354.5    8.874      29.276
2015    3       30    11  36    5.4795   354.5    8.875      29.282
2015    3       30    11  41    5.4806   354.5    8.876      29.289
2015    3       30    11  47    5.4817   354.5    8.877      29.295
2015    3       30    11  52    5.4827   354.5    8.878      29.302
2015    3       30    11  58    5.4837   354.5    8.879      29.308
2015    3       30    12   4    5.4848   354.5    8.880      29.314
2015    3       30    12   9    5.4858   354.5    8.881      29.321
2015    3       30    12  15    5.4867   354.5    8.882      29.327
2015    3       30    12  20    5.4877   354.4    8.883      29.333
2015    3       30    12  26    5.4887   354.4    8.884      29.339
2015    3       30    12  31    5.4897   354.4    8.885      29.346
2015    3       30    12  37    5.4906   354.4    8.885      29.352
2015    3       30    12  42    5.4916   354.4    8.886      29.358
2015    3       30    12  48    5.4925   354.4    8.887      29.364
2015    3       30    12  54    5.4934   354.4    8.888      29.370
2015    3       30    12  59    5.4943   354.4    8.889      29.376
2015    3       30    13   5    5.4952   354.4    8.889      29.382
2015    3       30    13  10    5.4961   354.4    8.890      29.388
2015    3       30    13  16    5.4970   354.4    8.891      29.394
2015    3       30    13  21    5.4978   354.4    8.892      29.400
2015    3       30    13  27    5.4987   354.4    8.892      29.406
2015    3       30    13  32    5.4995   354.4    8.893      29.412
2015    3       30    13  38    5.5004   354.3    8.894      29.418
2015    3       30    13  44    5.5012   354.3    8.894      29.423
2015    3       30    13  49    5.5020   354.3    8.895      29.429
2015    3       30    13  55    5.5028   354.3    8.896      29.435
2015    3       30    14   0    5.5036   354.3    8.896      29.441
2015    3       30    14   6    5.5044   354.3    8.897      29.446
2015    3       30    14  11    5.5052   354.3    8.898      29.452
2015    3       30    14  17    5.5059   354.3    8.898      29.457
2015    3       30    14  22    5.5067   354.3    8.899      29.463
2015    3       30    14  28    5.5074   354.3    8.900      29.469
2015    3       30    14  34    5.5081   354.3    8.900      29.474
2015    3       30    14  39    5.5089   354.3    8.901      29.480
2015    3       30    14  45    5.5096   354.2    8.901      29.485
2015    3       30    14  50    5.5103   354.2    8.902      29.491
2015    3       30    14  56    5.5110   354.2    8.903      29.496
2015    3       30    15   1    5.5117   354.2    8.903      29.501
2015    3       30    15   7    5.5124   354.2    8.904      29.507
2015    3       30    15  12    5.5130   354.2    8.904      29.512
2015    3       30    15  18    5.5137   354.2    8.905      29.517
2015    3       30    15  23    5.5144   354.2    8.906      29.522
2015    3       30    15  29    5.5150   354.2    8.906      29.528
2015    3       30    15  35    5.5156   354.2    8.907      29.533
2015    3       30    15  40    5.5163   354.1    8.907      29.538
2015    3       30    15  46    5.5169   354.1    8.908      29.543
2015    3       30    15  51    5.5175   354.1    8.908      29.548
2015    3       30    15  57    5.5181   354.1    8.909      29.553
2015    3       30    16   2    5.5187   354.1    8.909      29.558
2015    3       30    16   8    5.5193   354.1    8.910      29.563
2015    3       30    16  13    5.5199   354.1    8.910      29.568
2015    3       30    16  19    5.5204   354.1    8.911      29.573
2015    3       30    16  25    5.5210   354.1    8.911      29.578
2015    3       30    16  30    5.5216   354.0    8.912      29.582
2015    3       30    16  36    5.5221   354.0    8.912      29.587
2015    3       30    16  41    5.5226   354.0    8.913      29.592
2015    3       30    16  47    5.5232   354.0    8.913      29.596
2015    3       30    16  52    5.5237   354.0    8.914      29.601
2015    3       30    16  58    5.5242   354.0    8.914      29.606
2015    3       30    17   3    5.5247   354.0    8.915      29.610
2015    3       30    17   9    5.5252   354.0    8.915      29.615
2015    3       30    17  15    5.5257   354.0    8.916      29.619
2015    3       30    17  20    5.5262   353.9    8.916      29.624
2015    3       30    17  26    5.5267   353.9    8.917      29.628
2015    3       30    17  31    5.5272   353.9    8.917      29.633
2015    3       30    17  37    5.5276   353.9    8.917      29.637
2015    3       30    17  42    5.5281   353.9    8.918      29.641
2015    3       30    17  48    5.5285   353.9    8.918      29.645
2015    3       30    17  53    5.5290   353.9    8.919      29.649
2015    3       30    17  59    5.5294   353.8    8.919      29.654
2015    3       30    18   5    5.5298   353.8    8.919      29.658
2015    3       30    18  10    5.5303   353.8    8.920      29.662
2015    3       30    18  16    5.5307   353.8    8.920      29.666
2015    3       30    18  21    5.5311   353.8    8.920      29.670
2015    3       30    18  27    5.5315   353.8    8.921      29.674
2015    3       30    18  32    5.5319   353.8    8.921      29.677
2015    3       30    18  38    5.5323   353.8    8.921      29.681
2015    3       30    18  43    5.5327   353.7    8.921      29.685
2015    3       30    18  49    5.5331   353.7    8.922      29.689
2015    3       30    18  55    5.5334   353.7    8.922      29.692
2015    3       30    19   0    5.5338   353.7    8.922      29.696
2015    3       30    19   6    5.5342   353.7    8.922      29.699
2015    3       30    19  11    5.5345   353.7    8.923      29.703
2015    3       30    19  17    5.5349   353.6    8.923      29.706
2015    3       30    19  22    5.5352   353.6    8.923      29.710
2015    3       30    19  28    5.5355   353.6    8.923      29.713
2015    3       30    19  33    5.5359   353.6    8.923      29.716
2015    3       30    19  39    5.5362   353.6    8.923      29.720
2015    3       30    19  45    5.5366   353.6    8.924      29.723
2015    3       30    19  50    5.5369   353.5    8.924      29.726
2015    3       30    19  56    5.5372   353.5    8.924      29.729
2015    3       30    20   1    5.5375   353.5    8.924      29.733
2015    3       30    20   7    5.5378   353.5    8.924      29.736
2015    3       30    20  12    5.5381   353.5    8.924      29.739
2015    3       30    20  18    5.5384   353.5    8.924      29.742
2015    3       30    20  23    5.5387   353.4    8.924      29.745
2015    3       30    20  29    5.5390   353.4    8.924      29.748
2015    3       30    20  35    5.5393   353.4    8.924      29.751
2015    3       30    20  40    5.5396   353.4    8.924      29.753
2015    3       30    20  46    5.5399   353.4    8.925      29.756
2015    3       30    20  51    5.5402   353.4    8.925      29.759
2015    3       30    20  57    5.5405   353.3    8.925      29.762
2015    3       30    21   2    5.5408   353.3    8.925      29.765
2015    3       30    21   8    5.5410   353.3    8.925      29.767
2015    3       30    21  13    5.5413   353.3    8.925      29.770
2015    3       30    21  19    5.5416   353.3    8.925      29.773
2015    3       30    21  24    5.5419   353.2    8.925      29.776
2015    3       30    21  30    5.5421   353.2    8.925      29.778
2015    3       30    21  36    5.5424   353.2    8.925      29.781
2015    3       30    21  41    5.5427   353.2    8.925      29.784
2015    3       30    21  47    5.5430   353.2    8.925      29.786
2015    3       30    21  52    5.5432   353.2    8.925      29.789
2015    3       30    21  58    5.5435   353.1    8.925      29.791
2015    3       30    22   3    5.5437   353.1    8.925      29.794
2015    3       30    22   9    5.5440   353.1    8.925      29.797
2015    3       30    22  14    5.5443   353.1    8.925      29.799
2015    3       30    22  20    5.5445   353.1    8.925      29.802
2015    3       30    22  26    5.5448   353.0    8.925      29.804
2015    3       30    22  31    5.5450   353.0    8.925      29.807
2015    3       30    22  37    5.5453   353.0    8.926      29.809
2015    3       30    22  42    5.5456   353.0    8.926      29.812
2015    3       30    22  48    5.5458   353.0    8.926      29.814
2015    3       30    22  53    5.5461   352.9    8.926      29.817
2015    3       30    22  59    5.5463   352.9    8.926      29.819
2015    3       30    23   4    5.5466   352.9    8.926      29.822
2015    3       30    23  10    5.5469   352.9    8.926      29.824
2015    3       30    23  16    5.5471   352.9    8.926      29.827
2015    3       30    23  21    5.5474   352.8    8.926      29.829
2015    3       30    23  27    5.5476   352.8    8.927      29.832
2015    3       30    23  32    5.5479   352.8    8.927      29.834
2015    3       30    23  38    5.5481   352.8    8.927      29.837
2015    3       30    23  43    5.5484   352.7    8.927      29.839
2015    3       30    23  49    5.5486   352.7    8.927      29.842
2015    3       30    23  54    5.5489   352.7    8.927      29.844
2015    3       31     0   0    5.5491   352.7    8.928      29.847
2015    3       31     0   6    5.5494   352.7    8.928      29.849
2015    3       31     0  11    5.5496   352.6    8.928      29.852
2015    3       31     0  17    5.5499   352.6    8.928      29.854
2015    3       31     0  22    5.5501   352.6    8.928      29.857
2015    3       31     0  28    5.5504   352.6    8.929      29.859
2015    3       31     0  33    5.5507   352.5    8.929      29.861
2015    3       31     0  39    5.5509   352.5    8.929      29.864
2015    3       31     0  44    5.5512   352.5    8.929      29.866
2015    3       31     0  50    5.5514   352.5    8.930      29.869
2015    3       31     0  56    5.5517   352.5    8.930      29.871
2015    3       31     1   1    5.5519   352.4    8.930      29.873
2015    3       31     1   7    5.5522   352.4    8.930      29.876
2015    3       31     1  12    5.5524   352.4    8.931      29.878
2015    3       31     1  18    5.5527   352.4    8.931      29.880
2015    3       31     1  23    5.5530   352.3    8.931      29.883
2015    3       31     1  29    5.5532   352.3    8.931      29.885
2015    3       31     1  34    5.5535   352.3    8.932      29.887
2015    3       31     1  40    5.5537   352.3    8.932      29.889
2015    3       31     1  46    5.5540   352.2    8.932      29.892
2015    3       31     1  51    5.5542   352.2    8.932      29.894
2015    3       31     1  57    5.5545   352.2    8.933      29.896
2015    3       31     2   2    5.5548   352.2    8.933      29.898
2015    3       31     2   8    5.5550   352.2    8.933      29.900
2015    3       31     2  13    5.5553   352.1    8.933      29.903
2015    3       31     2  19    5.5556   352.1    8.934      29.905
2015    3       31     2  24    5.5558   352.1    8.934      29.907
2015    3       31     2  30    5.5561   352.1    8.934      29.909
2015    3       31     2  36    5.5564   352.0    8.934      29.911
2015    3       31     2  41    5.5567   352.0    8.935      29.913
2015    3       31     2  47    5.5569   352.0    8.935      29.915
2015    3       31     2  52    5.5572   352.0    8.935      29.917
2015    3       31     2  58    5.5575   351.9    8.935      29.919
2015    3       31     3   3    5.5578   351.9    8.936      29.921
2015    3       31     3   9    5.5580   351.9    8.936      29.923
2015    3       31     3  14    5.5583   351.9    8.936      29.925
2015    3       31     3  20    5.5586   351.8    8.936      29.927
2015    3       31     3  25    5.5589   351.8    8.936      29.928
2015    3       31     3  31    5.5592   351.8    8.937      29.930
2015    3       31     3  37    5.5595   351.8    8.937      29.932
2015    3       31     3  42    5.5598   351.7    8.937      29.934
2015    3       31     3  48    5.5600   351.7    8.937      29.936
2015    3       31     3  53    5.5603   351.7    8.938      29.937
2015    3       31     3  59    5.5606   351.6    8.938      29.939
2015    3       31     4   4    5.5609   351.6    8.938      29.941
2015    3       31     4  10    5.5612   351.6    8.938      29.942
2015    3       31     4  15    5.5615   351.6    8.939      29.944
2015    3       31     4  21    5.5618   351.5    8.939      29.945
2015    3       31     4  27    5.5621   351.5    8.939      29.947
2015    3       31     4  32    5.5624   351.5    8.939      29.948
2015    3       31     4  38    5.5628   351.5    8.939      29.950
2015    3       31     4  43    5.5631   351.4    8.940      29.951
2015    3       31     4  49    5.5634   351.4    8.940      29.953
2015    3       31     4  54    5.5637   351.4    8.940      29.954
2015    3       31     5   0    5.5640   351.4    8.940      29.956
2015    3       31     5   5    5.5643   351.3    8.941      29.957
2015    3       31     5  11    5.5646   351.3    8.941      29.959
2015    3       31     5  17    5.5650   351.3    8.941      29.960
2015    3       31     5  22    5.5653   351.2    8.942      29.961
2015    3       31     5  28    5.5656   351.2    8.942      29.962
2015    3       31     5  33    5.5659   351.2    8.942      29.964
2015    3       31     5  39    5.5663   351.2    8.942      29.965
2015    3       31     5  44    5.5666   351.1    8.943      29.966
2015    3       31     5  50    5.5669   351.1    8.943      29.967
2015    3       31     5  55    5.5672   351.1    8.943      29.968
2015    3       31     6   1    5.5676   351.1    8.944      29.969
2015    3       31     6   7    5.5679   351.0    8.944      29.970
2015    3       31     6  12    5.5682   351.0    8.944      29.971
2015    3       31     6  18    5.5686   351.0    8.945      29.972
2015    3       31     6  23    5.5689   350.9    8.945      29.973
2015    3       31     6  29    5.5693   350.9    8.945      29.974
2015    3       31     6  34    5.5696   350.9    8.946      29.975
2015    3       31     6  40    5.5700   350.9    8.946      29.976
2015    3       31     6  45    5.5703   350.8    8.947      29.977
2015    3       31     6  51    5.5707   350.8    8.947      29.977
2015    3       31     6  57    5.5710   350.8    8.947      29.978
2015    3       31     7   2    5.5714   350.7    8.948      29.979
2015    3       31     7   8    5.5718   350.7    8.948      29.980
2015    3       31     7  13    5.5721   350.7    8.949      29.980
2015    3       31     7  19    5.5725   350.6    8.949      29.981
2015    3       31     7  24    5.5729   350.6    8.950      29.982
2015    3       31     7  30    5.5733   350.6    8.950      29.982
2015    3       31     7  35    5.5737   350.6    8.951      29.983
2015    3       31     7  41    5.5740   350.5    8.951      29.983
2015    3       31     7  47    5.5745   350.5    8.951      29.984
2015    3       31     7  52    5.5749   350.5    8.952      29.985
2015    3       31     7  58    5.5753   350.4    8.952      29.985
2015    3       31     8   3    5.5757   350.4    8.953      29.986
2015    3       31     8   9    5.5761   350.4    8.954      29.986
2015    3       31     8  14    5.5766   350.3    8.954      29.987
2015    3       31     8  20    5.5770   350.3    8.955      29.987
2015    3       31     8  25    5.5775   350.3    8.955      29.988
2015    3       31     8  31    5.5779   350.2    8.956      29.988
2015    3       31     8  37    5.5784   350.2    8.956      29.988
2015    3       31     8  42    5.5789   350.2    8.957      29.989
2015    3       31     8  48    5.5793   350.2    8.958      29.989
2015    3       31     8  53    5.5799   350.1    8.958      29.990
2015    3       31     8  59    5.5804   350.1    8.959      29.990
2015    3       31     9   4    5.5809   350.1    8.960      29.991
2015    3       31     9  10    5.5814   350.0    8.960      29.991
2015    3       31     9  15    5.5819   350.0    8.961      29.992
2015    3       31     9  21    5.5825   350.0    8.962      29.992
2015    3       31     9  27    5.5830   349.9    8.962      29.993
2015    3       31     9  32    5.5836   349.9    8.963      29.993
2015    3       31     9  38    5.5842   349.9    8.964      29.994
2015    3       31     9  43    5.5847   349.8    8.964      29.994
2015    3       31     9  49    5.5854   349.8    8.965      29.995
2015    3       31     9  54    5.5860   349.8    8.966      29.996
2015    3       31    10   0    5.5866   349.7    8.967      29.996
2015    3       31    10   5    5.5872   349.7    8.967      29.997
2015    3       31    10  11    5.5878   349.7    8.968      29.997
2015    3       31    10  16    5.5885   349.6    8.969      29.998
2015    3       31    10  22    5.5891   349.6    8.970      29.999
2015    3       31    10  28    5.5898   349.6    8.971      29.999
2015    3       31    10  33    5.5905   349.5    8.972      30.000
2015    3       31    10  39    5.5912   349.5    8.972      30.001
2015    3       31    10  44    5.5919   349.5    8.973      30.001
2015    3       31    10  50    5.5926   349.4    8.974      30.002
2015    3       31    10  55    5.5933   349.4    8.975      30.003
2015    3       31    11   1    5.5941   349.4    8.976      30.003
2015    3       31    11   6    5.5948   349.3    8.977      30.004
2015    3       31    11  12    5.5955   349.3    8.978      30.005
2015    3       31    11  18    5.5963   349.3    8.979      30.006
2015    3       31    11  23    5.5971   349.2    8.980      30.007
2015    3       31    11  29    5.5979   349.2    8.981      30.008
2015    3       31    11  34    5.5987   349.2    8.982      30.008
2015    3       31    11  40    5.5995   349.1    8.983      30.009
2015    3       31    11  45    5.6003   349.1    8.984      30.010
2015    3       31    11  51    5.6011   349.1    8.985      30.011
2015    3       31    11  56    5.6019   349.0    8.986      30.012
2015    3       31    12   2    5.6027   349.0    8.987      30.013
2015    3       31    12   8    5.6036   349.0    8.988      30.014
2015    3       31    12  13    5.6044   348.9    8.989      30.015
2015    3       31    12  19    5.6053   348.9    8.990      30.016
2015    3       31    12  24    5.6062   348.9    8.991      30.017
2015    3       31    12  30    5.6070   348.8    8.992      30.017
2015    3       31    12  35    5.6079   348.8    8.994      30.018
2015    3       31    12  41    5.6088   348.8    8.995      30.019
2015    3       31    12  46    5.6097   348.7    8.996      30.020
2015    3       31    12  52    5.6106   348.7    8.997      30.021
2015    3       31    12  58    5.6115   348.7    8.998      30.022
2015    3       31    13   3    5.6124   348.6    9.000      30.023
2015    3       31    13   9    5.6133   348.6    9.001      30.024
2015    3       31    13  14    5.6143   348.6    9.002      30.025
2015    3       31    13  20    5.6152   348.5    9.004      30.026
2015    3       31    13  25    5.6161   348.5    9.005      30.027
2015    3       31    13  31    5.6171   348.4    9.006      30.028
2015    3       31    13  36    5.6180   348.4    9.008      30.029
2015    3       31    13  42    5.6190   348.4    9.009      30.029
2015    3       31    13  48    5.6199   348.3    9.010      30.030
2015    3       31    13  53    5.6209   348.3    9.012      30.031
2015    3       31    13  59    5.6219   348.3    9.013      30.032
2015    3       31    14   4    5.6229   348.2    9.015      30.033
2015    3       31    14  10    5.6239   348.2    9.016      30.034
2015    3       31    14  15    5.6249   348.2    9.018      30.034
2015    3       31    14  21    5.6259   348.1    9.019      30.035
2015    3       31    14  26    5.6269   348.1    9.021      30.036
2015    3       31    14  32    5.6280   348.0    9.022      30.037
2015    3       31    14  38    5.6290   348.0    9.024      30.037
2015    3       31    14  43    5.6301   348.0    9.025      30.038
2015    3       31    14  49    5.6311   347.9    9.027      30.039
2015    3       31    14  54    5.6322   347.9    9.029      30.039
2015    3       31    15   0    5.6333   347.9    9.030      30.040
2015    3       31    15   5    5.6344   347.8    9.032      30.041
2015    3       31    15  11    5.6355   347.8    9.034      30.041
2015    3       31    15  16    5.6367   347.7    9.036      30.042
2015    3       31    15  22    5.6378   347.7    9.037      30.043
2015    3       31    15  27    5.6390   347.7    9.039      30.044
2015    3       31    15  33    5.6402   347.6    9.041      30.044
2015    3       31    15  39    5.6414   347.6    9.043      30.045
2015    3       31    15  44    5.6426   347.6    9.045      30.046
2015    3       31    15  50    5.6438   347.5    9.047      30.046
2015    3       31    15  55    5.6451   347.5    9.049      30.047
2015    3       31    16   1    5.6463   347.4    9.051      30.048
2015    3       31    16   6    5.6476   347.4    9.053      30.048
2015    3       31    16  12    5.6489   347.4    9.055      30.049
2015    3       31    16  17    5.6503   347.3    9.057      30.050
2015    3       31    16  23    5.6516   347.3    9.059      30.051
2015    3       31    16  29    5.6530   347.2    9.062      30.052
2015    3       31    16  34    5.6544   347.2    9.064      30.052
2015    3       31    16  40    5.6558   347.2    9.066      30.053
2015    3       31    16  45    5.6572   347.1    9.069      30.054
2015    3       31    16  51    5.6587   347.1    9.071      30.055
2015    3       31    16  56    5.6602   347.1    9.073      30.056
2015    3       31    17   2    5.6617   347.0    9.076      30.057
2015    3       31    17   7    5.6632   347.0    9.078      30.058
2015    3       31    17  13    5.6648   346.9    9.081      30.059
2015    3       31    17  19    5.6664   346.9    9.083      30.060
2015    3       31    17  24    5.6680   346.9    9.086      30.061
2015    3       31    17  30    5.6696   346.8    9.089      30.062
2015    3       31    17  35    5.6712   346.8    9.091      30.064
2015    3       31    17  41    5.6729   346.7    9.094      30.065
2015    3       31    17  46    5.6746   346.7    9.097      30.066
2015    3       31    17  52    5.6764   346.7    9.099      30.067
2015    3       31    17  57    5.6781   346.6    9.102      30.069
2015    3       31    18   3    5.6799   346.6    9.105      30.070
2015    3       31    18   9    5.6817   346.5    9.108      30.072
2015    3       31    18  14    5.6835   346.5    9.111      30.074
2015    3       31    18  20    5.6854   346.5    9.114      30.075
2015    3       31    18  25    5.6872   346.4    9.117      30.077
2015    3       31    18  31    5.6891   346.4    9.120      30.079
2015    3       31    18  36    5.6911   346.3    9.123      30.081
2015    3       31    18  42    5.6930   346.3    9.127      30.083
2015    3       31    18  47    5.6950   346.3    9.130      30.085
2015    3       31    18  53    5.6970   346.2    9.133      30.087
2015    3       31    18  59    5.6990   346.2    9.136      30.089
2015    3       31    19   4    5.7011   346.1    9.140      30.092
2015    3       31    19  10    5.7031   346.1    9.143      30.094
2015    3       31    19  15    5.7052   346.1    9.147      30.097
2015    3       31    19  21    5.7073   346.0    9.150      30.099
2015    3       31    19  26    5.7095   346.0    9.154      30.102
2015    3       31    19  32    5.7116   345.9    9.157      30.105
2015    3       31    19  37    5.7138   345.9    9.161      30.108
2015    3       31    19  43    5.7160   345.8    9.165      30.110
2015    3       31    19  49    5.7183   345.8    9.168      30.113
2015    3       31    19  54    5.7205   345.8    9.172      30.116
2015    3       31    20   0    5.7228   345.7    9.176      30.120
2015    3       31    20   5    5.7251   345.7    9.180      30.123
2015    3       31    20  11    5.7274   345.6    9.184      30.126
2015    3       31    20  16    5.7297   345.6    9.188      30.130
2015    3       31    20  22    5.7321   345.6    9.192      30.133
2015    3       31    20  27    5.7344   345.5    9.196      30.137
2015    3       31    20  33    5.7368   345.5    9.200      30.141
2015    3       31    20  38    5.7393   345.4    9.204      30.145
2015    3       31    20  44    5.7417   345.4    9.209      30.149
2015    3       31    20  50    5.7441   345.4    9.213      30.153
2015    3       31    20  55    5.7466   345.3    9.217      30.157
2015    3       31    21   1    5.7491   345.3    9.222      30.161
2015    3       31    21   6    5.7516   345.2    9.226      30.165
2015    3       31    21  12    5.7541   345.2    9.230      30.170
2015    3       31    21  17    5.7567   345.1    9.235      30.174
2015    3       31    21  23    5.7592   345.1    9.240      30.179
2015    3       31    21  28    5.7618   345.1    9.244      30.183
2015    3       31    21  34    5.7644   345.0    9.249      30.188
2015    3       31    21  40    5.7671   345.0    9.254      30.193
2015    3       31    21  45    5.7697   344.9    9.259      30.198
2015    3       31    21  51    5.7724   344.9    9.264      30.203
2015    3       31    21  56    5.7751   344.8    9.268      30.208
2015    3       31    22   2    5.7778   344.8    9.273      30.213
2015    3       31    22   7    5.7806   344.8    9.279      30.219
2015    3       31    22  13    5.7833   344.7    9.284      30.224
2015    3       31    22  18    5.7861   344.7    9.289      30.230
2015    3       31    22  24    5.7890   344.6    9.294      30.235
2015    3       31    22  30    5.7918   344.6    9.299      30.241
2015    3       31    22  35    5.7947   344.6    9.305      30.246
2015    3       31    22  41    5.7976   344.5    9.310      30.252
2015    3       31    22  46    5.8005   344.5    9.316      30.258
2015    3       31    22  52    5.8035   344.4    9.321      30.264
2015    3       31    22  57    5.8064   344.4    9.327      30.270
2015    3       31    23   3    5.8095   344.3    9.333      30.276
2015    3       31    23   8    5.8125   344.3    9.338      30.283
2015    3       31    23  14    5.8156   344.3    9.344      30.289
2015    3       31    23  20    5.8187   344.2    9.350      30.295
2015    3       31    23  25    5.8218   344.2    9.356      30.302
2015    3       31    23  31    5.8250   344.1    9.362      30.308
2015    3       31    23  36    5.8282   344.1    9.368      30.315
2015    3       31    23  42    5.8315   344.0    9.374      30.322
2015    3       31    23  47    5.8348   344.0    9.380      30.329
2015    3       31    23  53    5.8381   344.0    9.387      30.335
2015    3       31    23  58    5.8414   343.9    9.393      30.343
2015    4        1     0   4    5.8448   343.9    9.400      30.350
2015    4        1     0  10    5.8483   343.8    9.406      30.357
2015    4        1     0  15    5.8517   343.8    9.413      30.364
2015    4        1     0  21    5.8552   343.8    9.420      30.371
2015    4        1     0  26    5.8588   343.7    9.426      30.379
2015    4        1     0  32    5.8624   343.7    9.433      30.387
2015    4        1     0  37    5.8661   343.6    9.440      30.394
2015    4        1     0  43    5.8697   343.6    9.447      30.402
2015    4        1     0  48    5.8735   343.5    9.454      30.410
2015    4        1     0  54    5.8772   343.5    9.462      30.418
2015    4        1     1   0    5.8811   343.5    9.469      30.426
2015    4        1     1   5    5.8849   343.4    9.476      30.434
2015    4        1     1  11    5.8888   343.4    9.484      30.442
2015    4        1     1  16    5.8928   343.3    9.492      30.451
2015    4        1     1  22    5.8968   343.3    9.499      30.459
2015    4        1     1  27    5.9008   343.3    9.507      30.468
2015    4        1     1  33    5.9049   343.2    9.515      30.477
2015    4        1     1  38    5.9091   343.2    9.523      30.485
2015    4        1     1  44    5.9133   343.1    9.531      30.494
2015    4        1     1  49    5.9175   343.1    9.539      30.504
2015    4        1     1  55    5.9219   343.1    9.547      30.513
2015    4        1     2   1    5.9262   343.0    9.556      30.522
2015    4        1     2   6    5.9306   343.0    9.564      30.532
2015    4        1     2  12    5.9351   342.9    9.573      30.541
2015    4        1     2  17    5.9396   342.9    9.581      30.551
2015    4        1     2  23    5.9441   342.9    9.590      30.561
2015    4        1     2  28    5.9488   342.8    9.599      30.571
2015    4        1     2  34    5.9534   342.8    9.608      30.582
2015    4        1     2  39    5.9582   342.7    9.617      30.592
2015    4        1     2  45    5.9629   342.7    9.626      30.602
2015    4        1     2  51    5.9678   342.7    9.635      30.613
2015    4        1     2  56    5.9727   342.6    9.644      30.624
2015    4        1     3   2    5.9776   342.6    9.653      30.635
2015    4        1     3   7    5.9826   342.5    9.663      30.646
2015    4        1     3  13    5.9877   342.5    9.672      30.657
2015    4        1     3  18    5.9928   342.5    9.682      30.669
2015    4        1     3  24    5.9979   342.4    9.692      30.680
2015    4        1     3  29    6.0031   342.4    9.701      30.692
2015    4        1     3  35    6.0084   342.3    9.711      30.704
2015    4        1     3  41    6.0137   342.3    9.721      30.716
2015    4        1     3  46    6.0191   342.3    9.731      30.728
2015    4        1     3  52    6.0244   342.2    9.741      30.740
2015    4        1     3  57    6.0299   342.2    9.751      30.753
2015    4        1     4   3    6.0354   342.2    9.761      30.765
2015    4        1     4   8    6.0409   342.1    9.771      30.778
2015    4        1     4  14    6.0465   342.1    9.782      30.790
2015    4        1     4  19    6.0522   342.0    9.792      30.803
2015    4        1     4  25    6.0578   342.0    9.802      30.816
2015    4        1     4  31    6.0636   342.0    9.813      30.829
2015    4        1     4  36    6.0693   341.9    9.823      30.843
2015    4        1     4  42    6.0751   341.9    9.834      30.856
2015    4        1     4  47    6.0809   341.9    9.844      30.869
2015    4        1     4  53    6.0868   341.8    9.855      30.883
2015    4        1     4  58    6.0927   341.8    9.865      30.896
2015    4        1     5   4    6.0986   341.7    9.876      30.910
2015    4        1     5   9    6.1046   341.7    9.887      30.924
2015    4        1     5  15    6.1106   341.7    9.897      30.937
2015    4        1     5  21    6.1167   341.6    9.908      30.951
2015    4        1     5  26    6.1228   341.6    9.919      30.965
2015    4        1     5  32    6.1289   341.6    9.930      30.979
2015    4        1     5  37    6.1351   341.5    9.941      30.993
2015    4        1     5  43    6.1413   341.5    9.952      31.007
2015    4        1     5  48    6.1476   341.5    9.963      31.021
2015    4        1     5  54    6.1538   341.4    9.974      31.035
2015    4        1     5  59    6.1602   341.4    9.985      31.049
2015    4        1     6   5    6.1666   341.3    9.996      31.064
2015    4        1     6  11    6.1730   341.3   10.007      31.078
2015    4        1     6  16    6.1795   341.3   10.018      31.092
2015    4        1     6  22    6.1860   341.2   10.029      31.106
2015    4        1     6  27    6.1925   341.2   10.041      31.120
2015    4        1     6  33    6.1991   341.2   10.052      31.134
2015    4        1     6  38    6.2058   341.1   10.064      31.148
2015    4        1     6  44    6.2125   341.1   10.075      31.162
2015    4        1     6  49    6.2192   341.0   10.087      31.176
2015    4        1     6  55    6.2260   341.0   10.098      31.190
2015    4        1     7   0    6.2329   341.0   10.110      31.204
2015    4        1     7   6    6.2398   340.9   10.122      31.218
2015    4        1     7  12    6.2468   340.9   10.134      31.232
2015    4        1     7  17    6.2538   340.9   10.146      31.246
2015    4        1     7  23    6.2609   340.8   10.158      31.260
2015    4        1     7  28    6.2681   340.8   10.171      31.274
2015    4        1     7  34    6.2753   340.7   10.183      31.288
2015    4        1     7  39    6.2826   340.7   10.196      31.302
2015    4        1     7  45    6.2899   340.6   10.208      31.316
2015    4        1     7  50    6.2974   340.6   10.221      31.330
2015    4        1     7  56    6.3049   340.6   10.235      31.344
2015    4        1     8   2    6.3125   340.5   10.248      31.359
2015    4        1     8   7    6.3201   340.5   10.262      31.374
2015    4        1     8  13    6.3279   340.4   10.275      31.389
2015    4        1     8  18    6.3358   340.4   10.290      31.404
2015    4        1     8  24    6.3437   340.3   10.304      31.419
2015    4        1     8  29    6.3518   340.3   10.319      31.435
2015    4        1     8  35    6.3599   340.3   10.334      31.452
2015    4        1     8  40    6.3681   340.2   10.349      31.468
2015    4        1     8  46    6.3765   340.2   10.364      31.486
2015    4        1     8  52    6.3849   340.1   10.380      31.503
2015    4        1     8  57    6.3935   340.1   10.397      31.522
2015    4        1     9   3    6.4022   340.0   10.414      31.541
2015    4        1     9   8    6.4110   340.0   10.431      31.561
2015    4        1     9  14    6.4199   340.0   10.448      31.581
2015    4        1     9  19    6.4289   339.9   10.466      31.603
2015    4        1     9  25    6.4381   339.9   10.485      31.625
2015    4        1     9  30    6.4474   339.8   10.504      31.648
2015    4        1     9  36    6.4568   339.8   10.523      31.672
2015    4        1     9  42    6.4664   339.8   10.543      31.697
2015    4        1     9  47    6.4760   339.7   10.563      31.723
2015    4        1     9  53    6.4858   339.7   10.584      31.749
2015    4        1     9  58    6.4957   339.7   10.605      31.777
2015    4        1    10   4    6.5058   339.6   10.627      31.805
2015    4        1    10   9    6.5160   339.6   10.649      31.834
2015    4        1    10  15    6.5263   339.6   10.672      31.865
2015    4        1    10  20    6.5368   339.6   10.695      31.896
2015    4        1    10  26    6.5474   339.6   10.718      31.929
2015    4        1    10  32    6.5581   339.6   10.742      31.963
2015    4        1    10  37    6.5690   339.5   10.766      31.998
2015    4        1    10  43    6.5799   339.5   10.790      32.034
2015    4        1    10  48    6.5911   339.5   10.815      32.071
2015    4        1    10  54    6.6022   339.5   10.840      32.108
2015    4        1    10  59    6.6136   339.5   10.865      32.147
2015    4        1    11   5    6.6249   339.5   10.891      32.186
2015    4        1    11  10    6.6364   339.5   10.917      32.226
2015    4        1    11  16    6.6479   339.5   10.942      32.268
2015    4        1    11  22    6.6596   339.5   10.968      32.310
2015    4        1    11  27    6.6712   339.5   10.994      32.353
2015    4        1    11  33    6.6829   339.6   11.020      32.398
2015    4        1    11  38    6.6946   339.6   11.045      32.443
2015    4        1    11  44    6.7064   339.6   11.071      32.489
2015    4        1    11  49    6.7183   339.6   11.096      32.535
2015    4        1    11  55    6.7302   339.7   11.122      32.582
2015    4        1    12   0    6.7421   339.7   11.147      32.630
2015    4        1    12   6    6.7541   339.7   11.172      32.677
2015    4        1    12  11    6.7660   339.7   11.197      32.725
2015    4        1    12  17    6.7781   339.8   11.222      32.772
2015    4        1    12  23    6.7902   339.8   11.247      32.818
2015    4        1    12  28    6.8023   339.8   11.272      32.864
2015    4        1    12  34    6.8145   339.9   11.297      32.910
2015    4        1    12  39    6.8268   339.9   11.321      32.955
2015    4        1    12  45    6.8391   339.9   11.346      33.000
2015    4        1    12  50    6.8514   340.0   11.371      33.044
2015    4        1    12  56    6.8639   340.0   11.396      33.088
2015    4        1    13   1    6.8764   340.0   11.421      33.132
2015    4        1    13   7    6.8890   340.1   11.445      33.176
2015    4        1    13  13    6.9017   340.1   11.471      33.220
2015    4        1    13  18    6.9145   340.1   11.496      33.264
2015    4        1    13  24    6.9274   340.2   11.521      33.307
2015    4        1    13  29    6.9404   340.2   11.547      33.351
2015    4        1    13  35    6.9536   340.2   11.572      33.394
2015    4        1    13  40    6.9669   340.3   11.598      33.438
2015    4        1    13  46    6.9803   340.3   11.625      33.482
2015    4        1    13  51    6.9939   340.3   11.652      33.525
2015    4        1    13  57    7.0076   340.4   11.679      33.569
2015    4        1    14   3    7.0215   340.4   11.706      33.614
2015    4        1    14   8    7.0356   340.4   11.734      33.659
2015    4        1    14  14    7.0498   340.5   11.763      33.706
2015    4        1    14  19    7.0643   340.5   11.791      33.754
2015    4        1    14  25    7.0789   340.6   11.821      33.803
2015    4        1    14  30    7.0937   340.6   11.851      33.854
2015    4        1    14  36    7.1086   340.7   11.881      33.905
2015    4        1    14  41    7.1237   340.7   11.912      33.957
2015    4        1    14  47    7.1388   340.8   11.943      34.011
2015    4        1    14  53    7.1542   340.9   11.975      34.066
2015    4        1    14  58    7.1695   340.9   12.007      34.123
2015    4        1    15   4    7.1850   341.0   12.039      34.183
2015    4        1    15   9    7.2003   341.1   12.071      34.245
2015    4        1    15  15    7.2158   341.2   12.104      34.310
2015    4        1    15  20    7.2312   341.3   12.136      34.377
2015    4        1    15  26    7.2467   341.4   12.168      34.447
2015    4        1    15  31    7.2622   341.4   12.200      34.519
2015    4        1    15  37    7.2776   341.5   12.231      34.592
2015    4        1    15  43    7.2931   341.6   12.262      34.667
2015    4        1    15  48    7.3085   341.7   12.293      34.742
2015    4        1    15  54    7.3239   341.8   12.324      34.817
2015    4        1    15  59    7.3393   341.9   12.355      34.892
2015    4        1    16   5    7.3546   342.0   12.385      34.966
2015    4        1    16  10    7.3699   342.1   12.415      35.040
2015    4        1    16  16    7.3851   342.2   12.444      35.114
2015    4        1    16  21    7.4004   342.3   12.473      35.187
2015    4        1    16  27    7.4156   342.4   12.502      35.261
2015    4        1    16  32    7.4309   342.5   12.531      35.335
2015    4        1    16  38    7.4462   342.6   12.560      35.409
2015    4        1    16  44    7.4615   342.7   12.589      35.482
2015    4        1    16  49    7.4769   342.8   12.617      35.555
2015    4        1    16  55    7.4923   342.9   12.646      35.628
2015    4        1    17   0    7.5077   343.0   12.674      35.701
2015    4        1    17   6    7.5233   343.1   12.702      35.773
2015    4        1    17  11    7.5388   343.2   12.731      35.846
2015    4        1    17  17    7.5544   343.3   12.759      35.919
2015    4        1    17  22    7.5701   343.4   12.788      35.991
2015    4        1    17  28    7.5858   343.5   12.816      36.064
2015    4        1    17  34    7.6016   343.6   12.845      36.137
2015    4        1    17  39    7.6175   343.7   12.873      36.210
2015    4        1    17  45    7.6335   343.8   12.902      36.283
2015    4        1    17  50    7.6495   343.9   12.931      36.357
2015    4        1    17  56    7.6656   344.0   12.959      36.430
2015    4        1    18   1    7.6818   344.1   12.988      36.504
2015    4        1    18   7    7.6980   344.2   13.017      36.578
2015    4        1    18  12    7.7142   344.4   13.046      36.652
2015    4        1    18  18    7.7305   344.5   13.074      36.726
2015    4        1    18  24    7.7469   344.6   13.103      36.801
2015    4        1    18  29    7.7632   344.7   13.131      36.877
2015    4        1    18  35    7.7796   344.9   13.160      36.953
2015    4        1    18  40    7.7960   345.0   13.188      37.029
2015    4        1    18  46    7.8124   345.1   13.216      37.106
2015    4        1    18  51    7.8289   345.3   13.244      37.183
2015    4        1    18  57    7.8453   345.4   13.272      37.260
2015    4        1    19   2    7.8618   345.6   13.299      37.338
2015    4        1    19   8    7.8784   345.7   13.327      37.416
2015    4        1    19  14    7.8950   345.8   13.354      37.493
2015    4        1    19  19    7.9117   346.0   13.382      37.571
2015    4        1    19  25    7.9284   346.1   13.409      37.648
2015    4        1    19  30    7.9451   346.3   13.437      37.724
2015    4        1    19  36    7.9620   346.4   13.464      37.801
2015    4        1    19  41    7.9789   346.6   13.491      37.877
2015    4        1    19  47    7.9959   346.7   13.519      37.953
2015    4        1    19  52    8.0130   346.9   13.547      38.029
2015    4        1    19  58    8.0303   347.0   13.574      38.105
2015    4        1    20   4    8.0476   347.2   13.603      38.181
2015    4        1    20   9    8.0651   347.3   13.631      38.257
2015    4        1    20  15    8.0828   347.5   13.660      38.334
2015    4        1    20  20    8.1006   347.6   13.689      38.411
2015    4        1    20  26    8.1186   347.8   13.719      38.489
2015    4        1    20  31    8.1367   347.9   13.749      38.567
2015    4        1    20  37    8.1551   348.1   13.780      38.646
2015    4        1    20  42    8.1738   348.3   13.812      38.726
2015    4        1    20  48    8.1927   348.4   13.844      38.807
2015    4        1    20  54    8.2119   348.6   13.878      38.889
2015    4        1    20  59    8.2314   348.8   13.913      38.971
2015    4        1    21   5    8.2512   349.0   13.949      39.055
2015    4        1    21  10    8.2713   349.1   13.986      39.140
2015    4        1    21  16    8.2917   349.3   14.024      39.228
2015    4        1    21  21    8.3124   349.5   14.063      39.319
2015    4        1    21  27    8.3334   349.7   14.103      39.414
2015    4        1    21  32    8.3549   350.0   14.144      39.511
2015    4        1    21  38    8.3766   350.2   14.187      39.611
2015    4        1    21  44    8.3986   350.4   14.232      39.714
2015    4        1    21  49    8.4207   350.6   14.277      39.819
2015    4        1    21  55    8.4431   350.8   14.324      39.926
2015    4        1    22   0    8.4656   351.1   14.371      40.038
2015    4        1    22   6    8.4882   351.3   14.418      40.156
2015    4        1    22  11    8.5108   351.6   14.466      40.279
2015    4        1    22  17    8.5332   351.9   14.514      40.407
2015    4        1    22  22    8.5553   352.1   14.561      40.540
2015    4        1    22  28    8.5773   352.4   14.608      40.679
2015    4        1    22  33    8.5991   352.8   14.653      40.823
2015    4        1    22  39    8.6207   353.1   14.697      40.971
2015    4        1    22  45    8.6420   353.4   14.739      41.123
2015    4        1    22  50    8.6631   353.7   14.780      41.274
2015    4        1    22  56    8.6838   354.0   14.820      41.425
2015    4        1    23   1    8.7043   354.3   14.858      41.573
2015    4        1    23   7    8.7243   354.6   14.895      41.720
2015    4        1    23  12    8.7441   354.9   14.930      41.865
2015    4        1    23  18    8.7635   355.2   14.963      42.009
2015    4        1    23  23    8.7825   355.4   14.995      42.152
2015    4        1    23  29    8.8012   355.7   15.025      42.294
2015    4        1    23  35    8.8196   356.0   15.053      42.435
2015    4        1    23  40    8.8377   356.3   15.080      42.574
2015    4        1    23  46    8.8555   356.6   15.105      42.713
2015    4        1    23  51    8.8730   356.9   15.128      42.850
2015    4        1    23  57    8.8904   357.2   15.151      42.987
2015    4        2     0   2    8.9075   357.5   15.171      43.121
