year    month   day   hour  minute  B_enl V_enl   n_enl       T_enl
[year] [month] [day] [hour][minute] [nT]  [km/s]  [cm-3]      [kK]
2015    8        7     0   5    2.5726   429.6    4.463      26.673
2015    8        7     0  12    2.5739   429.4    4.470      26.658
2015    8        7     0  19    2.5752   429.1    4.476      26.642
2015    8        7     0  26    2.5766   428.9    4.483      26.627
2015    8        7     0  33    2.5779   428.6    4.490      26.611
2015    8        7     0  40    2.5793   428.3    4.497      26.596
2015    8        7     0  47    2.5807   428.1    4.504      26.581
2015    8        7     0  54    2.5822   427.8    4.511      26.566
2015    8        7     1   1    2.5836   427.6    4.518      26.552
2015    8        7     1   8    2.5851   427.3    4.525      26.537
2015    8        7     1  15    2.5867   427.0    4.532      26.522
2015    8        7     1  22    2.5882   426.8    4.539      26.508
2015    8        7     1  29    2.5898   426.5    4.547      26.493
2015    8        7     1  36    2.5914   426.2    4.554      26.479
2015    8        7     1  43    2.5930   426.0    4.561      26.464
2015    8        7     1  50    2.5947   425.7    4.569      26.450
2015    8        7     1  57    2.5964   425.5    4.576      26.436
2015    8        7     2   4    2.5981   425.2    4.583      26.422
2015    8        7     2  11    2.5999   424.9    4.591      26.409
2015    8        7     2  18    2.6017   424.7    4.598      26.395
2015    8        7     2  25    2.6035   424.4    4.606      26.382
2015    8        7     2  32    2.6054   424.2    4.614      26.369
2015    8        7     2  39    2.6073   423.9    4.621      26.356
2015    8        7     2  46    2.6092   423.7    4.629      26.343
2015    8        7     2  53    2.6112   423.4    4.637      26.330
2015    8        7     2  59    2.6132   423.1    4.645      26.318
2015    8        7     3   6    2.6153   422.9    4.653      26.306
2015    8        7     3  13    2.6174   422.6    4.661      26.294
2015    8        7     3  20    2.6196   422.4    4.669      26.283
2015    8        7     3  27    2.6218   422.1    4.677      26.271
2015    8        7     3  34    2.6240   421.9    4.686      26.260
2015    8        7     3  41    2.6263   421.6    4.694      26.250
2015    8        7     3  48    2.6286   421.3    4.703      26.239
2015    8        7     3  55    2.6309   421.1    4.711      26.229
2015    8        7     4   2    2.6333   420.8    4.720      26.220
2015    8        7     4   9    2.6357   420.6    4.729      26.210
2015    8        7     4  16    2.6382   420.3    4.738      26.201
2015    8        7     4  23    2.6406   420.1    4.746      26.192
2015    8        7     4  30    2.6432   419.8    4.756      26.184
2015    8        7     4  37    2.6458   419.6    4.765      26.176
2015    8        7     4  44    2.6484   419.3    4.774      26.168
2015    8        7     4  51    2.6510   419.1    4.783      26.160
2015    8        7     4  58    2.6537   418.9    4.793      26.153
2015    8        7     5   5    2.6564   418.6    4.802      26.146
2015    8        7     5  12    2.6591   418.4    4.812      26.139
2015    8        7     5  19    2.6619   418.1    4.822      26.133
2015    8        7     5  26    2.6647   417.9    4.832      26.126
2015    8        7     5  33    2.6675   417.6    4.841      26.120
2015    8        7     5  40    2.6704   417.4    4.851      26.114
2015    8        7     5  47    2.6732   417.2    4.861      26.109
2015    8        7     5  54    2.6762   416.9    4.872      26.103
2015    8        7     6   1    2.6791   416.7    4.882      26.098
2015    8        7     6   8    2.6821   416.4    4.892      26.093
2015    8        7     6  15    2.6851   416.2    4.903      26.088
2015    8        7     6  22    2.6882   416.0    4.913      26.083
2015    8        7     6  29    2.6913   415.7    4.924      26.078
2015    8        7     6  36    2.6944   415.5    4.934      26.074
2015    8        7     6  43    2.6975   415.2    4.945      26.070
2015    8        7     6  50    2.7007   415.0    4.956      26.065
2015    8        7     6  57    2.7039   414.8    4.967      26.062
2015    8        7     7   4    2.7072   414.5    4.978      26.058
2015    8        7     7  11    2.7105   414.3    4.989      26.055
2015    8        7     7  18    2.7139   414.1    5.001      26.052
2015    8        7     7  25    2.7173   413.8    5.012      26.049
2015    8        7     7  32    2.7208   413.6    5.024      26.046
2015    8        7     7  39    2.7243   413.3    5.036      26.044
2015    8        7     7  46    2.7279   413.1    5.048      26.042
2015    8        7     7  53    2.7315   412.9    5.060      26.041
2015    8        7     8   0    2.7352   412.6    5.073      26.040
2015    8        7     8   7    2.7389   412.4    5.086      26.040
2015    8        7     8  13    2.7428   412.2    5.099      26.040
2015    8        7     8  20    2.7467   411.9    5.112      26.041
2015    8        7     8  27    2.7507   411.7    5.126      26.042
2015    8        7     8  34    2.7547   411.5    5.139      26.044
2015    8        7     8  41    2.7589   411.2    5.154      26.047
2015    8        7     8  48    2.7631   411.0    5.168      26.051
2015    8        7     8  55    2.7674   410.8    5.183      26.056
2015    8        7     9   2    2.7718   410.5    5.198      26.061
2015    8        7     9   9    2.7763   410.3    5.213      26.067
2015    8        7     9  16    2.7809   410.1    5.229      26.074
2015    8        7     9  23    2.7856   409.9    5.245      26.082
2015    8        7     9  30    2.7904   409.6    5.261      26.091
2015    8        7     9  37    2.7953   409.4    5.278      26.101
2015    8        7     9  44    2.8003   409.2    5.295      26.111
2015    8        7     9  51    2.8053   409.0    5.312      26.123
2015    8        7     9  58    2.8104   408.8    5.329      26.136
2015    8        7    10   5    2.8156   408.6    5.346      26.150
2015    8        7    10  12    2.8208   408.4    5.364      26.166
2015    8        7    10  19    2.8260   408.2    5.381      26.183
2015    8        7    10  26    2.8312   408.0    5.398      26.203
2015    8        7    10  33    2.8365   407.8    5.415      26.223
2015    8        7    10  40    2.8418   407.6    5.432      26.245
2015    8        7    10  47    2.8472   407.5    5.449      26.268
2015    8        7    10  54    2.8525   407.3    5.466      26.291
2015    8        7    11   1    2.8579   407.1    5.482      26.315
2015    8        7    11   8    2.8633   406.9    5.499      26.340
2015    8        7    11  15    2.8687   406.7    5.515      26.364
2015    8        7    11  22    2.8742   406.6    5.532      26.389
2015    8        7    11  29    2.8797   406.4    5.548      26.414
2015    8        7    11  36    2.8852   406.2    5.564      26.438
2015    8        7    11  43    2.8907   406.1    5.581      26.462
2015    8        7    11  50    2.8963   405.9    5.597      26.486
2015    8        7    11  57    2.9019   405.7    5.613      26.510
2015    8        7    12   4    2.9076   405.6    5.630      26.533
2015    8        7    12  11    2.9133   405.4    5.646      26.556
2015    8        7    12  18    2.9190   405.2    5.662      26.580
2015    8        7    12  25    2.9248   405.1    5.679      26.602
2015    8        7    12  32    2.9305   404.9    5.695      26.625
2015    8        7    12  39    2.9364   404.8    5.711      26.648
2015    8        7    12  46    2.9422   404.6    5.728      26.670
2015    8        7    12  53    2.9481   404.4    5.744      26.693
2015    8        7    13   0    2.9540   404.3    5.761      26.715
2015    8        7    13   7    2.9600   404.1    5.777      26.738
2015    8        7    13  14    2.9660   404.0    5.794      26.761
2015    8        7    13  21    2.9721   403.8    5.811      26.784
2015    8        7    13  28    2.9781   403.7    5.828      26.807
2015    8        7    13  35    2.9843   403.6    5.845      26.831
2015    8        7    13  42    2.9904   403.4    5.862      26.855
2015    8        7    13  49    2.9966   403.3    5.879      26.879
2015    8        7    13  55    3.0028   403.1    5.896      26.904
2015    8        7    14   2    3.0091   403.0    5.914      26.930
2015    8        7    14   9    3.0155   402.9    5.931      26.956
2015    8        7    14  16    3.0219   402.7    5.949      26.982
2015    8        7    14  23    3.0283   402.6    5.967      27.009
2015    8        7    14  30    3.0348   402.5    5.986      27.037
2015    8        7    14  37    3.0414   402.3    6.004      27.066
2015    8        7    14  44    3.0480   402.2    6.023      27.095
2015    8        7    14  51    3.0547   402.1    6.042      27.125
2015    8        7    14  58    3.0614   402.0    6.061      27.156
2015    8        7    15   5    3.0682   401.9    6.081      27.187
2015    8        7    15  12    3.0751   401.7    6.101      27.219
2015    8        7    15  19    3.0820   401.6    6.121      27.253
2015    8        7    15  26    3.0890   401.5    6.142      27.287
2015    8        7    15  33    3.0961   401.4    6.163      27.321
2015    8        7    15  40    3.1032   401.3    6.184      27.357
2015    8        7    15  47    3.1104   401.2    6.206      27.393
2015    8        7    15  54    3.1178   401.1    6.228      27.431
2015    8        7    16   1    3.1251   401.0    6.251      27.469
2015    8        7    16   8    3.1326   400.9    6.273      27.508
2015    8        7    16  15    3.1401   400.8    6.297      27.548
2015    8        7    16  22    3.1478   400.7    6.320      27.589
2015    8        7    16  29    3.1555   400.6    6.345      27.631
2015    8        7    16  36    3.1634   400.5    6.369      27.673
2015    8        7    16  43    3.1713   400.4    6.394      27.717
2015    8        7    16  50    3.1794   400.4    6.420      27.761
2015    8        7    16  57    3.1875   400.3    6.446      27.806
2015    8        7    17   4    3.1957   400.2    6.472      27.853
2015    8        7    17  11    3.2040   400.1    6.498      27.901
2015    8        7    17  18    3.2123   400.1    6.525      27.952
2015    8        7    17  25    3.2207   400.0    6.551      28.006
2015    8        7    17  32    3.2291   400.0    6.576      28.061
2015    8        7    17  38    3.2374   399.9    6.602      28.120
2015    8        7    17  45    3.2458   399.9    6.627      28.181
2015    8        7    17  52    3.2542   399.8    6.652      28.245
2015    8        7    17  59    3.2626   399.8    6.676      28.311
2015    8        7    18   6    3.2709   399.8    6.701      28.378
2015    8        7    18  13    3.2793   399.7    6.724      28.447
2015    8        7    18  20    3.2877   399.7    6.748      28.517
2015    8        7    18  27    3.2960   399.6    6.771      28.587
2015    8        7    18  34    3.3044   399.6    6.794      28.657
2015    8        7    18  41    3.3127   399.6    6.816      28.726
2015    8        7    18  48    3.3210   399.5    6.838      28.794
2015    8        7    18  55    3.3294   399.5    6.860      28.862
2015    8        7    19   2    3.3377   399.5    6.882      28.929
2015    8        7    19   9    3.3460   399.5    6.903      28.995
2015    8        7    19  16    3.3543   399.4    6.924      29.060
2015    8        7    19  23    3.3626   399.4    6.945      29.124
2015    8        7    19  30    3.3709   399.4    6.965      29.188
2015    8        7    19  37    3.3792   399.4    6.985      29.250
2015    8        7    19  44    3.3874   399.4    7.005      29.312
2015    8        7    19  51    3.3957   399.3    7.025      29.372
2015    8        7    19  58    3.4040   399.3    7.045      29.432
2015    8        7    20   5    3.4122   399.3    7.064      29.491
2015    8        7    20  12    3.4204   399.3    7.083      29.550
2015    8        7    20  19    3.4287   399.3    7.102      29.608
2015    8        7    20  26    3.4369   399.3    7.121      29.665
2015    8        7    20  33    3.4451   399.3    7.139      29.722
2015    8        7    20  40    3.4533   399.3    7.158      29.779
2015    8        7    20  47    3.4615   399.3    7.176      29.835
2015    8        7    20  54    3.4697   399.3    7.195      29.891
2015    8        7    21   1    3.4779   399.3    7.213      29.947
2015    8        7    21   8    3.4860   399.4    7.231      30.002
2015    8        7    21  15    3.4942   399.4    7.249      30.057
2015    8        7    21  22    3.5024   399.4    7.267      30.113
2015    8        7    21  29    3.5105   399.4    7.286      30.168
2015    8        7    21  36    3.5187   399.5    7.304      30.223
2015    8        7    21  43    3.5268   399.5    7.322      30.278
2015    8        7    21  50    3.5350   399.5    7.340      30.333
2015    8        7    21  57    3.5431   399.5    7.359      30.388
2015    8        7    22   4    3.5513   399.6    7.377      30.444
2015    8        7    22  11    3.5595   399.6    7.396      30.499
2015    8        7    22  18    3.5676   399.6    7.414      30.554
2015    8        7    22  25    3.5758   399.7    7.433      30.609
2015    8        7    22  32    3.5840   399.7    7.452      30.665
2015    8        7    22  39    3.5922   399.8    7.470      30.721
2015    8        7    22  45    3.6003   399.8    7.489      30.777
2015    8        7    22  52    3.6085   399.9    7.509      30.833
2015    8        7    22  59    3.6167   399.9    7.528      30.890
2015    8        7    23   6    3.6249   400.0    7.547      30.947
2015    8        7    23  13    3.6331   400.0    7.567      31.005
2015    8        7    23  20    3.6413   400.1    7.587      31.063
2015    8        7    23  27    3.6495   400.1    7.607      31.122
2015    8        7    23  34    3.6577   400.2    7.627      31.181
2015    8        7    23  41    3.6660   400.2    7.648      31.241
2015    8        7    23  48    3.6742   400.3    7.669      31.302
2015    8        7    23  55    3.6826   400.4    7.691      31.363
2015    8        8     0   2    3.6909   400.4    7.712      31.426
2015    8        8     0   9    3.6993   400.5    7.735      31.489
2015    8        8     0  16    3.7078   400.5    7.758      31.553
2015    8        8     0  23    3.7163   400.6    7.781      31.618
2015    8        8     0  30    3.7248   400.7    7.804      31.686
2015    8        8     0  37    3.7335   400.8    7.828      31.756
2015    8        8     0  44    3.7422   400.8    7.851      31.830
2015    8        8     0  51    3.7509   400.9    7.875      31.909
2015    8        8     0  58    3.7597   401.0    7.898      31.992
2015    8        8     1   5    3.7685   401.1    7.920      32.080
2015    8        8     1  12    3.7773   401.2    7.942      32.171
2015    8        8     1  19    3.7860   401.3    7.964      32.265
2015    8        8     1  26    3.7947   401.4    7.985      32.360
2015    8        8     1  33    3.8033   401.6    8.005      32.455
2015    8        8     1  40    3.8119   401.7    8.025      32.550
2015    8        8     1  47    3.8203   401.8    8.044      32.645
2015    8        8     1  54    3.8287   401.9    8.063      32.738
2015    8        8     2   1    3.8371   402.0    8.081      32.831
2015    8        8     2   8    3.8453   402.1    8.098      32.922
2015    8        8     2  15    3.8535   402.2    8.115      33.013
2015    8        8     2  22    3.8617   402.3    8.131      33.102
2015    8        8     2  29    3.8697   402.5    8.146      33.190
2015    8        8     2  36    3.8777   402.6    8.161      33.276
2015    8        8     2  43    3.8856   402.7    8.175      33.362
2015    8        8     2  50    3.8934   402.8    8.189      33.446
2015    8        8     2  57    3.9012   403.0    8.202      33.528
2015    8        8     3   4    3.9089   403.1    8.215      33.610
2015    8        8     3  11    3.9165   403.2    8.227      33.689
2015    8        8     3  18    3.9241   403.4    8.238      33.768
2015    8        8     3  25    3.9315   403.5    8.249      33.845
2015    8        8     3  32    3.9389   403.6    8.259      33.920
2015    8        8     3  39    3.9462   403.8    8.269      33.995
2015    8        8     3  46    3.9535   403.9    8.279      34.068
2015    8        8     3  53    3.9606   404.0    8.288      34.139
2015    8        8     4   0    3.9677   404.2    8.297      34.209
2015    8        8     4   7    3.9746   404.3    8.305      34.278
2015    8        8     4  14    3.9815   404.5    8.313      34.345
2015    8        8     4  21    3.9883   404.6    8.320      34.411
2015    8        8     4  28    3.9951   404.8    8.327      34.476
2015    8        8     4  34    4.0017   404.9    8.334      34.540
2015    8        8     4  41    4.0083   405.1    8.341      34.602
2015    8        8     4  48    4.0148   405.2    8.347      34.664
2015    8        8     4  55    4.0212   405.4    8.353      34.724
2015    8        8     5   2    4.0275   405.5    8.359      34.784
2015    8        8     5   9    4.0338   405.6    8.365      34.842
2015    8        8     5  16    4.0400   405.8    8.371      34.899
2015    8        8     5  23    4.0462   405.9    8.376      34.956
2015    8        8     5  30    4.0523   406.1    8.382      35.011
2015    8        8     5  37    4.0583   406.2    8.387      35.066
2015    8        8     5  44    4.0643   406.4    8.392      35.120
2015    8        8     5  51    4.0702   406.5    8.397      35.174
2015    8        8     5  58    4.0761   406.7    8.402      35.227
2015    8        8     6   5    4.0820   406.8    8.407      35.279
2015    8        8     6  12    4.0878   407.0    8.412      35.332
2015    8        8     6  19    4.0936   407.2    8.417      35.384
2015    8        8     6  26    4.0994   407.3    8.422      35.436
2015    8        8     6  33    4.1051   407.5    8.427      35.488
2015    8        8     6  40    4.1109   407.6    8.432      35.540
2015    8        8     6  47    4.1166   407.8    8.437      35.593
2015    8        8     6  54    4.1223   407.9    8.443      35.645
2015    8        8     7   1    4.1280   408.1    8.448      35.697
2015    8        8     7   8    4.1337   408.2    8.454      35.750
2015    8        8     7  15    4.1394   408.4    8.460      35.803
2015    8        8     7  22    4.1451   408.5    8.467      35.856
2015    8        8     7  29    4.1508   408.7    8.473      35.910
2015    8        8     7  35    4.1565   408.8    8.481      35.964
2015    8        8     7  42    4.1623   409.0    8.488      36.018
2015    8        8     7  49    4.1680   409.2    8.496      36.073
2015    8        8     7  56    4.1738   409.3    8.505      36.130
2015    8        8     8   3    4.1796   409.5    8.513      36.190
2015    8        8     8  10    4.1855   409.6    8.521      36.253
2015    8        8     8  17    4.1913   409.8    8.530      36.320
2015    8        8     8  24    4.1971   410.0    8.538      36.389
2015    8        8     8  31    4.2029   410.2    8.546      36.460
2015    8        8     8  38    4.2086   410.4    8.555      36.533
2015    8        8     8  45    4.2142   410.5    8.562      36.607
2015    8        8     8  52    4.2198   410.7    8.570      36.680
2015    8        8     8  59    4.2253   410.9    8.578      36.754
2015    8        8     9   6    4.2306   411.1    8.586      36.827
2015    8        8     9  13    4.2360   411.2    8.593      36.900
2015    8        8     9  20    4.2413   411.4    8.601      36.974
2015    8        8     9  27    4.2465   411.6    8.608      37.048
2015    8        8     9  34    4.2517   411.8    8.616      37.122
2015    8        8     9  41    4.2569   411.9    8.624      37.196
2015    8        8     9  48    4.2621   412.1    8.632      37.271
2015    8        8     9  55    4.2673   412.3    8.641      37.347
2015    8        8    10   2    4.2726   412.5    8.649      37.424
2015    8        8    10   9    4.2779   412.6    8.659      37.501
2015    8        8    10  16    4.2832   412.8    8.669      37.578
2015    8        8    10  23    4.2886   413.0    8.679      37.658
2015    8        8    10  30    4.2942   413.2    8.690      37.742
2015    8        8    10  37    4.2998   413.4    8.701      37.828
2015    8        8    10  44    4.3054   413.6    8.711      37.917
2015    8        8    10  50    4.3111   413.8    8.722      38.009
2015    8        8    10  57    4.3167   414.1    8.731      38.103
2015    8        8    11   4    4.3224   414.3    8.740      38.199
2015    8        8    11  11    4.3279   414.5    8.748      38.293
2015    8        8    11  18    4.3332   414.8    8.755      38.385
2015    8        8    11  25    4.3384   415.0    8.762      38.474
2015    8        8    11  32    4.3434   415.3    8.767      38.562
2015    8        8    11  39    4.3482   415.5    8.772      38.647
2015    8        8    11  46    4.3528   415.8    8.775      38.730
2015    8        8    11  53    4.3573   416.0    8.777      38.812
2015    8        8    12   0    4.3615   416.3    8.779      38.890
2015    8        8    12   7    4.3657   416.5    8.779      38.967
2015    8        8    12  14    4.3696   416.8    8.779      39.041
2015    8        8    12  21    4.3735   417.0    8.778      39.114
2015    8        8    12  28    4.3772   417.3    8.777      39.184
2015    8        8    12  35    4.3809   417.5    8.775      39.254
2015    8        8    12  42    4.3844   417.8    8.772      39.322
2015    8        8    12  49    4.3879   418.1    8.770      39.388
2015    8        8    12  56    4.3913   418.3    8.767      39.453
2015    8        8    13   3    4.3947   418.6    8.764      39.518
2015    8        8    13  10    4.3981   418.8    8.760      39.582
2015    8        8    13  17    4.4014   419.1    8.757      39.645
2015    8        8    13  24    4.4048   419.3    8.754      39.709
2015    8        8    13  31    4.4082   419.5    8.751      39.772
2015    8        8    13  37    4.4116   419.8    8.748      39.834
2015    8        8    13  44    4.4151   420.0    8.745      39.898
2015    8        8    13  51    4.4186   420.3    8.743      39.963
2015    8        8    13  58    4.4222   420.5    8.740      40.030
2015    8        8    14   5    4.4258   420.8    8.738      40.100
2015    8        8    14  12    4.4293   421.1    8.735      40.173
2015    8        8    14  19    4.4329   421.4    8.733      40.247
2015    8        8    14  26    4.4363   421.7    8.730      40.321
2015    8        8    14  33    4.4397   422.0    8.726      40.394
2015    8        8    14  40    4.4429   422.3    8.722      40.467
2015    8        8    14  47    4.4460   422.6    8.718      40.537
2015    8        8    14  54    4.4489   422.9    8.713      40.606
2015    8        8    15   1    4.4516   423.2    8.707      40.672
2015    8        8    15   8    4.4542   423.5    8.701      40.737
2015    8        8    15  15    4.4566   423.8    8.694      40.798
2015    8        8    15  22    4.4588   424.1    8.687      40.857
2015    8        8    15  29    4.4608   424.4    8.679      40.913
2015    8        8    15  36    4.4627   424.7    8.671      40.967
2015    8        8    15  43    4.4645   425.0    8.662      41.018
2015    8        8    15  50    4.4661   425.2    8.654      41.068
2015    8        8    15  57    4.4677   425.5    8.645      41.115
2015    8        8    16   4    4.4693   425.8    8.637      41.161
2015    8        8    16  11    4.4707   426.1    8.628      41.205
2015    8        8    16  18    4.4721   426.3    8.620      41.249
2015    8        8    16  25    4.4735   426.6    8.612      41.291
2015    8        8    16  32    4.4748   426.8    8.604      41.334
2015    8        8    16  39    4.4761   427.1    8.597      41.376
2015    8        8    16  46    4.4773   427.3    8.590      41.418
2015    8        8    16  53    4.4786   427.6    8.583      41.459
2015    8        8    17   0    4.4797   427.8    8.577      41.502
2015    8        8    17   7    4.4809   428.0    8.571      41.544
2015    8        8    17  14    4.4821   428.3    8.566      41.588
2015    8        8    17  21    4.4833   428.5    8.562      41.632
2015    8        8    17  28    4.4845   428.7    8.558      41.676
2015    8        8    17  35    4.4858   428.9    8.556      41.720
2015    8        8    17  42    4.4870   429.2    8.554      41.768
2015    8        8    17  49    4.4884   429.4    8.552      41.820
2015    8        8    17  56    4.4897   429.6    8.551      41.875
2015    8        8    18   3    4.4911   429.9    8.549      41.932
2015    8        8    18  10    4.4923   430.1    8.548      41.993
2015    8        8    18  17    4.4935   430.4    8.545      42.057
2015    8        8    18  24    4.4946   430.7    8.543      42.123
2015    8        8    18  31    4.4955   431.0    8.539      42.186
2015    8        8    18  38    4.4962   431.2    8.535      42.249
2015    8        8    18  45    4.4968   431.5    8.530      42.310
2015    8        8    18  52    4.4972   431.8    8.525      42.370
2015    8        8    18  59    4.4975   432.1    8.518      42.429
2015    8        8    19   6    4.4975   432.4    8.511      42.487
2015    8        8    19  13    4.4975   432.6    8.503      42.544
2015    8        8    19  20    4.4972   432.9    8.494      42.598
2015    8        8    19  27    4.4969   433.2    8.485      42.652
2015    8        8    19  34    4.4963   433.5    8.475      42.704
2015    8        8    19  41    4.4958   433.8    8.464      42.754
2015    8        8    19  48    4.4951   434.1    8.453      42.804
2015    8        8    19  55    4.4944   434.4    8.442      42.852
2015    8        8    20   1    4.4935   434.7    8.430      42.900
2015    8        8    20   8    4.4927   435.0    8.418      42.946
2015    8        8    20  15    4.4918   435.2    8.406      42.992
2015    8        8    20  22    4.4909   435.5    8.393      43.037
2015    8        8    20  29    4.4900   435.8    8.381      43.081
2015    8        8    20  36    4.4891   436.1    8.369      43.125
2015    8        8    20  43    4.4882   436.4    8.357      43.169
2015    8        8    20  50    4.4874   436.6    8.345      43.212
2015    8        8    20  57    4.4866   436.9    8.334      43.256
2015    8        8    21   4    4.4859   437.2    8.322      43.299
2015    8        8    21  11    4.4851   437.4    8.311      43.344
2015    8        8    21  18    4.4845   437.7    8.300      43.392
2015    8        8    21  25    4.4838   438.0    8.289      43.442
2015    8        8    21  32    4.4832   438.3    8.278      43.494
2015    8        8    21  39    4.4824   438.7    8.267      43.548
2015    8        8    21  46    4.4816   439.0    8.256      43.602
2015    8        8    21  53    4.4806   439.3    8.244      43.654
2015    8        8    22   0    4.4796   439.6    8.232      43.706
2015    8        8    22   7    4.4783   440.0    8.220      43.755
2015    8        8    22  14    4.4768   440.3    8.206      43.802
2015    8        8    22  21    4.4752   440.7    8.192      43.846
2015    8        8    22  28    4.4733   441.0    8.177      43.888
2015    8        8    22  35    4.4713   441.4    8.162      43.927
2015    8        8    22  42    4.4691   441.7    8.146      43.963
2015    8        8    22  49    4.4667   442.1    8.129      43.996
2015    8        8    22  56    4.4642   442.4    8.112      44.027
2015    8        8    23   3    4.4615   442.7    8.094      44.057
2015    8        8    23  10    4.4587   443.1    8.076      44.084
2015    8        8    23  17    4.4558   443.4    8.057      44.109
2015    8        8    23  24    4.4527   443.8    8.038      44.133
2015    8        8    23  31    4.4496   444.1    8.018      44.156
2015    8        8    23  38    4.4463   444.4    7.998      44.176
2015    8        8    23  45    4.4428   444.7    7.977      44.195
2015    8        8    23  52    4.4392   445.1    7.956      44.212
2015    8        8    23  59    4.4353   445.4    7.934      44.229
2015    8        9     0   6    4.4313   445.7    7.911      44.243
2015    8        9     0  13    4.4270   446.0    7.888      44.254
2015    8        9     0  20    4.4224   446.4    7.863      44.262
2015    8        9     0  27    4.4175   446.7    7.838      44.267
2015    8        9     0  34    4.4123   447.0    7.811      44.271
2015    8        9     0  41    4.4066   447.4    7.783      44.270
2015    8        9     0  48    4.4007   447.7    7.754      44.261
2015    8        9     0  55    4.3943   448.0    7.724      44.246
2015    8        9     1   2    4.3876   448.3    7.694      44.227
2015    8        9     1   9    4.3807   448.5    7.664      44.203
2015    8        9     1  15    4.3737   448.8    7.634      44.174
2015    8        9     1  23    4.3665   449.0    7.605      44.142
2015    8        9     1  29    4.3594   449.3    7.576      44.111
2015    8        9     1  36    4.3521   449.5    7.547      44.081
2015    8        9     1  43    4.3450   449.8    7.519      44.050
2015    8        9     1  50    4.3377   450.0    7.491      44.020
2015    8        9     1  57    4.3306   450.3    7.464      43.990
2015    8        9     2   4    4.3234   450.5    7.437      43.960
2015    8        9     2  11    4.3163   450.7    7.411      43.930
2015    8        9     2  18    4.3092   451.0    7.385      43.901
2015    8        9     2  25    4.3022   451.2    7.359      43.872
2015    8        9     2  32    4.2951   451.4    7.334      43.843
2015    8        9     2  39    4.2881   451.6    7.309      43.813
2015    8        9     2  46    4.2811   451.9    7.284      43.783
2015    8        9     2  53    4.2741   452.1    7.259      43.753
2015    8        9     3   0    4.2671   452.3    7.235      43.723
2015    8        9     3   7    4.2602   452.5    7.210      43.692
2015    8        9     3  14    4.2532   452.7    7.187      43.660
2015    8        9     3  21    4.2463   452.9    7.163      43.628
2015    8        9     3  28    4.2394   453.1    7.139      43.596
2015    8        9     3  35    4.2325   453.3    7.116      43.563
2015    8        9     3  42    4.2256   453.5    7.093      43.530
2015    8        9     3  49    4.2188   453.7    7.071      43.497
2015    8        9     3  56    4.2120   453.9    7.048      43.462
2015    8        9     4   3    4.2052   454.1    7.026      43.428
2015    8        9     4  10    4.1984   454.3    7.004      43.393
2015    8        9     4  17    4.1916   454.5    6.982      43.358
2015    8        9     4  24    4.1848   454.7    6.960      43.322
2015    8        9     4  31    4.1781   454.8    6.939      43.285
2015    8        9     4  38    4.1713   455.0    6.918      43.248
2015    8        9     4  45    4.1646   455.2    6.897      43.211
2015    8        9     4  52    4.1578   455.4    6.876      43.172
2015    8        9     4  59    4.1510   455.5    6.856      43.134
2015    8        9     5   6    4.1442   455.7    6.835      43.094
2015    8        9     5  13    4.1374   455.9    6.815      43.054
2015    8        9     5  20    4.1306   456.1    6.795      43.014
2015    8        9     5  27    4.1237   456.2    6.775      42.972
2015    8        9     5  34    4.1168   456.4    6.756      42.930
2015    8        9     5  40    4.1099   456.5    6.736      42.887
2015    8        9     5  47    4.1029   456.7    6.717      42.844
2015    8        9     5  54    4.0960   456.9    6.698      42.800
2015    8        9     6   1    4.0890   457.0    6.679      42.756
2015    8        9     6   8    4.0820   457.2    6.660      42.713
2015    8        9     6  15    4.0749   457.4    6.641      42.670
2015    8        9     6  22    4.0678   457.5    6.622      42.628
2015    8        9     6  29    4.0606   457.7    6.602      42.586
2015    8        9     6  36    4.0533   457.9    6.583      42.545
2015    8        9     6  43    4.0460   458.0    6.564      42.504
2015    8        9     6  50    4.0386   458.2    6.544      42.463
2015    8        9     6  57    4.0310   458.3    6.525      42.421
2015    8        9     7   4    4.0233   458.5    6.504      42.379
2015    8        9     7  11    4.0155   458.7    6.484      42.336
2015    8        9     7  18    4.0076   458.9    6.463      42.292
2015    8        9     7  25    3.9994   459.0    6.441      42.245
2015    8        9     7  32    3.9911   459.2    6.419      42.196
2015    8        9     7  39    3.9826   459.4    6.396      42.144
2015    8        9     7  46    3.9739   459.6    6.372      42.090
2015    8        9     7  53    3.9649   459.7    6.347      42.035
2015    8        9     8   0    3.9557   459.9    6.321      41.970
2015    8        9     8   7    3.9461   460.1    6.294      41.898
2015    8        9     8  14    3.9364   460.2    6.268      41.820
2015    8        9     8  21    3.9266   460.4    6.241      41.738
2015    8        9     8  28    3.9167   460.5    6.214      41.651
2015    8        9     8  35    3.9068   460.5    6.188      41.559
2015    8        9     8  42    3.8971   460.6    6.162      41.468
2015    8        9     8  49    3.8874   460.7    6.137      41.377
2015    8        9     8  56    3.8779   460.8    6.113      41.287
2015    8        9     9   3    3.8686   460.8    6.090      41.198
2015    8        9     9  10    3.8593   460.9    6.067      41.109
2015    8        9     9  17    3.8502   460.9    6.045      41.019
2015    8        9     9  24    3.8412   461.0    6.023      40.929
2015    8        9     9  31    3.8324   461.0    6.003      40.840
2015    8        9     9  38    3.8237   461.0    5.983      40.751
2015    8        9     9  45    3.8150   461.1    5.964      40.663
2015    8        9     9  52    3.8065   461.1    5.945      40.575
2015    8        9     9  59    3.7981   461.1    5.927      40.486
2015    8        9    10   6    3.7898   461.1    5.910      40.398
2015    8        9    10  13    3.7815   461.1    5.894      40.312
2015    8        9    10  20    3.7733   461.2    5.878      40.229
2015    8        9    10  27    3.7652   461.2    5.863      40.147
2015    8        9    10  34    3.7571   461.2    5.847      40.066
2015    8        9    10  41    3.7490   461.2    5.832      39.987
2015    8        9    10  48    3.7410   461.2    5.817      39.910
2015    8        9    10  55    3.7330   461.2    5.802      39.834
2015    8        9    11   2    3.7251   461.3    5.788      39.757
2015    8        9    11   9    3.7172   461.3    5.773      39.680
2015    8        9    11  16    3.7094   461.3    5.758      39.603
2015    8        9    11  23    3.7015   461.3    5.743      39.525
2015    8        9    11  30    3.6937   461.3    5.728      39.447
2015    8        9    11  36    3.6859   461.2    5.714      39.369
2015    8        9    11  43    3.6781   461.2    5.699      39.290
2015    8        9    11  50    3.6703   461.2    5.684      39.211
2015    8        9    11  57    3.6626   461.2    5.670      39.132
2015    8        9    12   4    3.6548   461.2    5.656      39.051
2015    8        9    12  11    3.6471   461.2    5.642      38.972
2015    8        9    12  18    3.6394   461.1    5.628      38.891
2015    8        9    12  25    3.6317   461.1    5.614      38.811
2015    8        9    12  32    3.6240   461.1    5.600      38.731
2015    8        9    12  39    3.6163   461.0    5.587      38.651
2015    8        9    12  46    3.6087   461.0    5.573      38.571
2015    8        9    12  53    3.6010   461.0    5.560      38.492
2015    8        9    13   0    3.5934   460.9    5.547      38.412
2015    8        9    13   7    3.5858   460.9    5.534      38.334
2015    8        9    13  14    3.5782   460.8    5.521      38.255
2015    8        9    13  21    3.5707   460.8    5.508      38.177
2015    8        9    13  28    3.5631   460.7    5.496      38.098
2015    8        9    13  35    3.5556   460.7    5.483      38.021
2015    8        9    13  42    3.5481   460.6    5.471      37.943
2015    8        9    13  49    3.5406   460.5    5.459      37.866
2015    8        9    13  56    3.5331   460.5    5.447      37.789
2015    8        9    14   3    3.5256   460.4    5.435      37.713
2015    8        9    14  10    3.5181   460.4    5.423      37.636
2015    8        9    14  17    3.5107   460.3    5.411      37.561
2015    8        9    14  24    3.5032   460.2    5.399      37.485
2015    8        9    14  31    3.4958   460.1    5.388      37.410
2015    8        9    14  38    3.4884   460.1    5.376      37.335
2015    8        9    14  45    3.4811   460.0    5.365      37.261
2015    8        9    14  52    3.4737   459.9    5.354      37.187
2015    8        9    14  59    3.4665   459.8    5.342      37.113
2015    8        9    15   6    3.4592   459.8    5.331      37.040
2015    8        9    15  13    3.4520   459.7    5.320      36.968
2015    8        9    15  20    3.4449   459.6    5.309      36.896
2015    8        9    15  27    3.4378   459.5    5.299      36.824
2015    8        9    15  34    3.4308   459.5    5.288      36.754
2015    8        9    15  41    3.4238   459.4    5.277      36.684
2015    8        9    15  48    3.4170   459.3    5.267      36.615
2015    8        9    15  55    3.4102   459.2    5.257      36.546
2015    8        9    16   2    3.4035   459.1    5.246      36.478
2015    8        9    16   9    3.3969   459.0    5.236      36.410
2015    8        9    16  16    3.3904   458.9    5.227      36.342
2015    8        9    16  23    3.3839   458.8    5.217      36.275
2015    8        9    16  30    3.3776   458.6    5.208      36.206
2015    8        9    16  37    3.3713   458.5    5.199      36.137
2015    8        9    16  44    3.3651   458.4    5.191      36.067
2015    8        9    16  51    3.3590   458.3    5.183      35.998
2015    8        9    16  58    3.3529   458.1    5.175      35.929
2015    8        9    17   5    3.3470   458.0    5.168      35.861
2015    8        9    17  12    3.3411   457.9    5.162      35.793
2015    8        9    17  19    3.3352   457.7    5.156      35.726
2015    8        9    17  26    3.3294   457.6    5.150      35.661
2015    8        9    17  32    3.3237   457.5    5.145      35.600
2015    8        9    17  39    3.3180   457.3    5.141      35.542
2015    8        9    17  46    3.3123   457.2    5.136      35.486
2015    8        9    17  53    3.3066   457.1    5.132      35.431
2015    8        9    18   0    3.3010   457.0    5.127      35.379
2015    8        9    18   7    3.2954   456.9    5.122      35.329
2015    8        9    18  14    3.2898   456.7    5.118      35.279
2015    8        9    18  21    3.2842   456.6    5.113      35.229
2015    8        9    18  28    3.2786   456.5    5.108      35.178
2015    8        9    18  35    3.2731   456.4    5.103      35.127
2015    8        9    18  42    3.2675   456.2    5.098      35.076
2015    8        9    18  49    3.2620   456.1    5.093      35.024
2015    8        9    18  56    3.2565   456.0    5.088      34.972
2015    8        9    19   3    3.2509   455.9    5.082      34.920
2015    8        9    19  10    3.2454   455.7    5.077      34.867
2015    8        9    19  17    3.2399   455.6    5.072      34.813
2015    8        9    19  24    3.2344   455.4    5.066      34.760
2015    8        9    19  31    3.2290   455.3    5.061      34.706
2015    8        9    19  38    3.2235   455.2    5.056      34.651
2015    8        9    19  45    3.2181   455.0    5.050      34.596
2015    8        9    19  52    3.2126   454.9    5.045      34.542
2015    8        9    19  59    3.2072   454.8    5.040      34.487
2015    8        9    20   6    3.2018   454.6    5.034      34.432
2015    8        9    20  13    3.1965   454.5    5.029      34.377
2015    8        9    20  20    3.1912   454.3    5.023      34.322
2015    8        9    20  27    3.1859   454.2    5.018      34.267
2015    8        9    20  34    3.1806   454.0    5.013      34.212
2015    8        9    20  41    3.1754   453.9    5.007      34.157
2015    8        9    20  48    3.1702   453.7    5.002      34.101
2015    8        9    20  55    3.1650   453.6    4.996      34.045
2015    8        9    21   2    3.1598   453.4    4.991      33.990
2015    8        9    21   9    3.1547   453.3    4.985      33.934
2015    8        9    21  16    3.1496   453.1    4.980      33.878
2015    8        9    21  23    3.1445   453.0    4.974      33.821
2015    8        9    21  30    3.1395   452.8    4.969      33.765
2015    8        9    21  36    3.1345   452.7    4.964      33.708
2015    8        9    21  43    3.1295   452.5    4.958      33.652
2015    8        9    21  50    3.1245   452.4    4.953      33.595
2015    8        9    21  57    3.1196   452.2    4.947      33.538
2015    8        9    22   4    3.1147   452.1    4.942      33.481
2015    8        9    22  11    3.1098   451.9    4.937      33.424
2015    8        9    22  18    3.1049   451.8    4.931      33.367
2015    8        9    22  25    3.1000   451.6    4.926      33.310
2015    8        9    22  32    3.0952   451.5    4.920      33.252
2015    8        9    22  39    3.0904   451.3    4.915      33.194
2015    8        9    22  46    3.0856   451.1    4.910      33.136
2015    8        9    22  53    3.0808   451.0    4.904      33.078
2015    8        9    23   0    3.0761   450.8    4.899      33.020
2015    8        9    23   7    3.0713   450.7    4.894      32.961
2015    8        9    23  14    3.0666   450.5    4.889      32.902
2015    8        9    23  21    3.0620   450.3    4.883      32.843
2015    8        9    23  28    3.0573   450.1    4.878      32.785
2015    8        9    23  35    3.0527   450.0    4.873      32.726
2015    8        9    23  42    3.0482   449.8    4.868      32.667
2015    8        9    23  49    3.0436   449.6    4.863      32.609
2015    8        9    23  56    3.0391   449.5    4.858      32.551
2015    8       10     0   3    3.0346   449.3    4.853      32.493
2015    8       10     0  10    3.0301   449.1    4.848      32.436
2015    8       10     0  17    3.0257   448.9    4.843      32.379
2015    8       10     0  24    3.0213   448.7    4.839      32.322
2015    8       10     0  31    3.0169   448.6    4.834      32.266
2015    8       10     0  38    3.0126   448.4    4.830      32.210
2015    8       10     0  45    3.0083   448.2    4.825      32.154
2015    8       10     0  52    3.0040   448.0    4.821      32.099
2015    8       10     0  59    2.9997   447.8    4.817      32.045
2015    8       10     1   6    2.9954   447.7    4.813      31.991
2015    8       10     1  13    2.9912   447.5    4.809      31.937
2015    8       10     1  20    2.9870   447.3    4.805      31.884
2015    8       10     1  27    2.9828   447.1    4.801      31.831
2015    8       10     1  34    2.9786   446.9    4.797      31.779
2015    8       10     1  41    2.9745   446.7    4.793      31.727
2015    8       10     1  48    2.9704   446.5    4.789      31.675
2015    8       10     1  55    2.9663   446.3    4.786      31.623
2015    8       10     2   2    2.9623   446.1    4.782      31.572
2015    8       10     2   9    2.9583   445.9    4.778      31.521
2015    8       10     2  16    2.9543   445.7    4.775      31.471
2015    8       10     2  23    2.9503   445.5    4.771      31.420
2015    8       10     2  30    2.9464   445.3    4.768      31.370
2015    8       10     2  36    2.9425   445.1    4.765      31.320
2015    8       10     2  43    2.9386   444.9    4.761      31.269
2015    8       10     2  50    2.9348   444.7    4.758      31.219
2015    8       10     2  57    2.9310   444.5    4.755      31.169
2015    8       10     3   4    2.9272   444.3    4.751      31.120
2015    8       10     3  11    2.9234   444.1    4.748      31.070
2015    8       10     3  18    2.9197   443.9    4.745      31.020
2015    8       10     3  25    2.9161   443.7    4.742      30.971
2015    8       10     3  32    2.9124   443.5    4.739      30.922
2015    8       10     3  39    2.9088   443.3    4.736      30.872
2015    8       10     3  46    2.9053   443.1    4.733      30.823
2015    8       10     3  53    2.9017   442.9    4.730      30.774
2015    8       10     4   0    2.8982   442.6    4.728      30.726
2015    8       10     4   7    2.8948   442.4    4.725      30.678
2015    8       10     4  14    2.8913   442.2    4.723      30.630
2015    8       10     4  21    2.8879   442.0    4.720      30.582
2015    8       10     4  28    2.8846   441.8    4.718      30.535
2015    8       10     4  35    2.8813   441.6    4.716      30.488
2015    8       10     4  42    2.8780   441.4    4.714      30.441
2015    8       10     4  49    2.8747   441.1    4.712      30.394
2015    8       10     4  56    2.8714   440.9    4.710      30.348
2015    8       10     5   3    2.8682   440.7    4.708      30.302
2015    8       10     5  10    2.8650   440.5    4.706      30.256
2015    8       10     5  17    2.8618   440.3    4.705      30.210
2015    8       10     5  24    2.8586   440.1    4.703      30.165
2015    8       10     5  31    2.8554   439.8    4.702      30.120
2015    8       10     5  38    2.8521   439.6    4.700      30.075
2015    8       10     5  45    2.8489   439.4    4.699      30.030
2015    8       10     5  52    2.8457   439.2    4.697      29.985
2015    8       10     5  59    2.8425   439.0    4.696      29.940
2015    8       10     6   6    2.8393   438.8    4.694      29.895
2015    8       10     6  13    2.8361   438.5    4.693      29.849
2015    8       10     6  20    2.8330   438.3    4.692      29.804
2015    8       10     6  27    2.8298   438.1    4.690      29.758
2015    8       10     6  34    2.8266   437.9    4.689      29.713
2015    8       10     6  41    2.8235   437.6    4.687      29.667
2015    8       10     6  48    2.8203   437.4    4.686      29.621
2015    8       10     6  55    2.8172   437.2    4.685      29.575
2015    8       10     7   2    2.8140   437.0    4.683      29.529
2015    8       10     7   9    2.8109   436.7    4.682      29.483
2015    8       10     7  16    2.8079   436.5    4.680      29.437
2015    8       10     7  23    2.8048   436.3    4.679      29.391
2015    8       10     7  30    2.8017   436.0    4.677      29.345
2015    8       10     7  37    2.7987   435.8    4.676      29.299
2015    8       10     7  44    2.7957   435.6    4.675      29.253
2015    8       10     7  51    2.7927   435.3    4.673      29.207
2015    8       10     7  57    2.7898   435.1    4.672      29.162
2015    8       10     8   4    2.7869   434.9    4.670      29.116
2015    8       10     8  11    2.7840   434.6    4.669      29.071
2015    8       10     8  18    2.7811   434.4    4.668      29.025
2015    8       10     8  25    2.7783   434.2    4.667      28.980
2015    8       10     8  32    2.7755   433.9    4.665      28.935
2015    8       10     8  39    2.7727   433.7    4.664      28.890
2015    8       10     8  46    2.7700   433.5    4.663      28.845
2015    8       10     8  53    2.7673   433.2    4.662      28.800
2015    8       10     9   0    2.7646   433.0    4.661      28.755
2015    8       10     9   7    2.7619   432.8    4.660      28.711
2015    8       10     9  14    2.7593   432.5    4.659      28.667
2015    8       10     9  21    2.7567   432.3    4.658      28.623
2015    8       10     9  28    2.7542   432.1    4.657      28.578
2015    8       10     9  35    2.7516   431.8    4.656      28.534
2015    8       10     9  42    2.7491   431.6    4.655      28.489
2015    8       10     9  49    2.7466   431.3    4.655      28.445
2015    8       10     9  56    2.7441   431.1    4.654      28.400
2015    8       10    10   3    2.7417   430.9    4.653      28.355
2015    8       10    10  10    2.7393   430.6    4.652      28.310
2015    8       10    10  17    2.7368   430.4    4.651      28.265
2015    8       10    10  24    2.7345   430.1    4.651      28.221
2015    8       10    10  31    2.7321   429.9    4.650      28.176
2015    8       10    10  38    2.7298   429.6    4.649      28.131
2015    8       10    10  45    2.7274   429.4    4.648      28.086
2015    8       10    10  52    2.7251   429.1    4.647      28.042
2015    8       10    10  59    2.7229   428.9    4.647      27.998
2015    8       10    11   6    2.7206   428.6    4.646      27.953
2015    8       10    11  13    2.7184   428.4    4.645      27.910
2015    8       10    11  20    2.7162   428.2    4.645      27.866
2015    8       10    11  27    2.7140   427.9    4.644      27.823
2015    8       10    11  33    2.7118   427.7    4.643      27.780
2015    8       10    11  40    2.7096   427.4    4.643      27.737
2015    8       10    11  47    2.7075   427.2    4.642      27.694
2015    8       10    11  54    2.7054   426.9    4.642      27.652
2015    8       10    12   1    2.7033   426.7    4.642      27.610
2015    8       10    12   8    2.7012   426.4    4.641      27.569
2015    8       10    12  15    2.6992   426.2    4.641      27.527
2015    8       10    12  22    2.6971   425.9    4.641      27.486
2015    8       10    12  29    2.6951   425.7    4.641      27.446
2015    8       10    12  36    2.6930   425.5    4.640      27.405
2015    8       10    12  43    2.6910   425.2    4.640      27.365
2015    8       10    12  50    2.6890   425.0    4.640      27.325
2015    8       10    12  57    2.6869   424.7    4.640      27.285
2015    8       10    13   4    2.6849   424.5    4.640      27.245
2015    8       10    13  11    2.6829   424.2    4.640      27.205
2015    8       10    13  18    2.6809   424.0    4.640      27.166
2015    8       10    13  25    2.6789   423.7    4.640      27.126
2015    8       10    13  32    2.6769   423.5    4.639      27.087
2015    8       10    13  39    2.6749   423.2    4.639      27.047
2015    8       10    13  46    2.6729   423.0    4.639      27.008
2015    8       10    13  53    2.6709   422.8    4.639      26.968
2015    8       10    14   0    2.6689   422.5    4.639      26.929
2015    8       10    14   7    2.6669   422.3    4.639      26.889
2015    8       10    14  14    2.6650   422.0    4.639      26.850
2015    8       10    14  21    2.6630   421.8    4.639      26.810
2015    8       10    14  28    2.6611   421.5    4.638      26.771
2015    8       10    14  35    2.6591   421.3    4.638      26.732
2015    8       10    14  42    2.6572   421.0    4.638      26.693
2015    8       10    14  49    2.6553   420.8    4.638      26.654
2015    8       10    14  56    2.6534   420.5    4.638      26.615
2015    8       10    15   3    2.6515   420.3    4.638      26.576
2015    8       10    15  10    2.6497   420.0    4.638      26.537
2015    8       10    15  17    2.6479   419.8    4.638      26.499
2015    8       10    15  24    2.6460   419.5    4.638      26.460
2015    8       10    15  31    2.6443   419.3    4.638      26.422
2015    8       10    15  38    2.6425   419.0    4.638      26.384
2015    8       10    15  45    2.6407   418.7    4.638      26.346
2015    8       10    15  52    2.6390   418.5    4.638      26.309
2015    8       10    15  59    2.6373   418.2    4.638      26.271
2015    8       10    16   6    2.6356   418.0    4.638      26.234
2015    8       10    16  13    2.6340   417.7    4.639      26.197
2015    8       10    16  19    2.6323   417.5    4.639      26.160
2015    8       10    16  26    2.6307   417.2    4.639      26.124
2015    8       10    16  33    2.6291   417.0    4.640      26.087
2015    8       10    16  40    2.6275   416.7    4.640      26.051
2015    8       10    16  47    2.6260   416.5    4.641      26.015
2015    8       10    16  54    2.6244   416.2    4.642      25.979
2015    8       10    17   1    2.6229   416.0    4.642      25.943
2015    8       10    17   8    2.6214   415.7    4.643      25.906
2015    8       10    17  15    2.6199   415.5    4.644      25.870
2015    8       10    17  22    2.6184   415.2    4.645      25.834
2015    8       10    17  29    2.6169   415.0    4.645      25.797
2015    8       10    17  36    2.6154   414.7    4.646      25.761
2015    8       10    17  43    2.6140   414.4    4.647      25.725
2015    8       10    17  50    2.6126   414.2    4.648      25.689
2015    8       10    17  57    2.6112   413.9    4.649      25.653
2015    8       10    18   4    2.6098   413.7    4.650      25.617
2015    8       10    18  11    2.6084   413.4    4.651      25.582
2015    8       10    18  18    2.6071   413.2    4.652      25.547
2015    8       10    18  25    2.6058   412.9    4.654      25.512
2015    8       10    18  32    2.6045   412.6    4.655      25.477
2015    8       10    18  39    2.6032   412.4    4.656      25.442
2015    8       10    18  46    2.6019   412.1    4.658      25.408
2015    8       10    18  53    2.6007   411.9    4.659      25.374
2015    8       10    19   0    2.5995   411.6    4.661      25.340
2015    8       10    19   7    2.5983   411.3    4.663      25.307
2015    8       10    19  14    2.5971   411.1    4.664      25.273
2015    8       10    19  21    2.5960   410.8    4.666      25.240
2015    8       10    19  28    2.5948   410.6    4.668      25.207
2015    8       10    19  35    2.5937   410.3    4.670      25.175
2015    8       10    19  42    2.5926   410.1    4.672      25.142
2015    8       10    19  49    2.5915   409.8    4.674      25.110
2015    8       10    19  56    2.5905   409.5    4.676      25.078
2015    8       10    20   3    2.5894   409.3    4.678      25.046
2015    8       10    20  10    2.5884   409.0    4.680      25.015
2015    8       10    20  17    2.5874   408.8    4.683      24.983
2015    8       10    20  24    2.5864   408.5    4.685      24.952
2015    8       10    20  31    2.5854   408.2    4.687      24.921
2015    8       10    20  37    2.5844   408.0    4.689      24.890
2015    8       10    20  44    2.5835   407.7    4.692      24.859
2015    8       10    20  51    2.5825   407.4    4.694      24.828
2015    8       10    20  58    2.5816   407.2    4.696      24.797
2015    8       10    21   5    2.5807   406.9    4.699      24.765
2015    8       10    21  12    2.5798   406.7    4.701      24.734
2015    8       10    21  19    2.5788   406.4    4.703      24.702
2015    8       10    21  26    2.5779   406.2    4.706      24.670
2015    8       10    21  33    2.5770   405.9    4.708      24.638
2015    8       10    21  40    2.5762   405.6    4.710      24.605
2015    8       10    21  47    2.5753   405.4    4.712      24.572
2015    8       10    21  54    2.5744   405.1    4.714      24.540
2015    8       10    22   1    2.5736   404.8    4.717      24.506
2015    8       10    22   8    2.5727   404.6    4.719      24.473
2015    8       10    22  15    2.5718   404.3    4.721      24.440
2015    8       10    22  22    2.5710   404.0    4.723      24.407
2015    8       10    22  29    2.5702   403.8    4.725      24.374
2015    8       10    22  36    2.5694   403.5    4.727      24.340
2015    8       10    22  43    2.5686   403.2    4.728      24.307
2015    8       10    22  50    2.5678   403.0    4.730      24.274
2015    8       10    22  57    2.5670   402.7    4.732      24.240
2015    8       10    23   4    2.5662   402.5    4.734      24.207
2015    8       10    23  11    2.5655   402.2    4.736      24.174
2015    8       10    23  18    2.5647   401.9    4.738      24.140
2015    8       10    23  25    2.5640   401.7    4.739      24.106
2015    8       10    23  32    2.5633   401.4    4.741      24.073
2015    8       10    23  39    2.5625   401.1    4.743      24.039
2015    8       10    23  46    2.5618   400.9    4.745      24.006
2015    8       10    23  53    2.5612   400.6    4.747      23.972
2015    8       11     0   0    2.5605   400.3    4.748      23.939
2015    8       11     0   7    2.5598   400.0    4.750      23.905
2015    8       11     0  14    2.5592   399.8    4.752      23.872
2015    8       11     0  21    2.5585   399.5    4.754      23.838
2015    8       11     0  27    2.5579   399.2    4.756      23.805
2015    8       11     0  34    2.5574   399.0    4.758      23.772
2015    8       11     0  41    2.5568   398.7    4.760      23.739
2015    8       11     0  48    2.5562   398.4    4.762      23.706
2015    8       11     0  55    2.5557   398.1    4.764      23.674
2015    8       11     1   2    2.5553   397.9    4.767      23.642
2015    8       11     1   9    2.5548   397.6    4.769      23.610
2015    8       11     1  16    2.5544   397.3    4.772      23.578
2015    8       11     1  23    2.5540   397.0    4.774      23.547
2015    8       11     1  30    2.5536   396.8    4.777      23.516
2015    8       11     1  37    2.5533   396.5    4.780      23.485
2015    8       11     1  44    2.5530   396.2    4.783      23.455
2015    8       11     1  51    2.5528   395.9    4.786      23.426
2015    8       11     1  58    2.5526   395.7    4.790      23.397
2015    8       11     2   5    2.5524   395.4    4.794      23.368
2015    8       11     2  12    2.5523   395.1    4.797      23.340
2015    8       11     2  19    2.5522   394.8    4.801      23.313
2015    8       11     2  26    2.5522   394.5    4.806      23.286
2015    8       11     2  33    2.5522   394.3    4.810      23.260
2015    8       11     2  40    2.5522   394.0    4.815      23.234
2015    8       11     2  47    2.5523   393.7    4.820      23.209
2015    8       11     2  54    2.5525   393.4    4.825      23.185
2015    8       11     3   1    2.5527   393.1    4.830      23.162
2015    8       11     3   8    2.5530   392.9    4.836      23.138
2015    8       11     3  15    2.5533   392.6    4.842      23.116
2015    8       11     3  22    2.5537   392.3    4.848      23.094
2015    8       11     3  29    2.5541   392.0    4.855      23.073
2015    8       11     3  36    2.5546   391.7    4.861      23.053
2015    8       11     3  43    2.5551   391.5    4.868      23.033
2015    8       11     3  50    2.5557   391.2    4.876      23.015
2015    8       11     3  57    2.5563   390.9    4.883      22.996
2015    8       11     4   4    2.5571   390.6    4.891      22.979
2015    8       11     4  11    2.5578   390.3    4.899      22.962
2015    8       11     4  18    2.5587   390.1    4.907      22.945
2015    8       11     4  25    2.5596   389.8    4.916      22.929
2015    8       11     4  32    2.5605   389.5    4.925      22.913
2015    8       11     4  39    2.5616   389.2    4.934      22.898
2015    8       11     4  46    2.5627   388.9    4.944      22.884
2015    8       11     4  53    2.5638   388.7    4.953      22.869
2015    8       11     5   0    2.5651   388.4    4.963      22.855
2015    8       11     5   6    2.5664   388.1    4.974      22.842
2015    8       11     5  13    2.5678   387.8    4.984      22.829
2015    8       11     5  20    2.5693   387.5    4.995      22.817
2015    8       11     5  27    2.5708   387.3    5.006      22.806
2015    8       11     5  34    2.5724   387.0    5.018      22.795
2015    8       11     5  41    2.5741   386.7    5.029      22.785
2015    8       11     5  48    2.5758   386.5    5.041      22.776
2015    8       11     5  55    2.5777   386.2    5.053      22.767
2015    8       11     6   2    2.5795   385.9    5.065      22.759
2015    8       11     6   9    2.5815   385.7    5.078      22.752
2015    8       11     6  16    2.5835   385.4    5.090      22.745
2015    8       11     6  23    2.5856   385.1    5.103      22.739
2015    8       11     6  30    2.5877   384.9    5.116      22.733
2015    8       11     6  37    2.5899   384.6    5.129      22.727
2015    8       11     6  44    2.5920   384.4    5.142      22.723
2015    8       11     6  51    2.5943   384.1    5.156      22.718
2015    8       11     6  58    2.5965   383.9    5.169      22.715
2015    8       11     7   5    2.5988   383.6    5.183      22.711
2015    8       11     7  12    2.6010   383.4    5.196      22.708
2015    8       11     7  19    2.6033   383.1    5.210      22.705
2015    8       11     7  26    2.6056   382.9    5.223      22.703
2015    8       11     7  33    2.6079   382.7    5.237      22.701
2015    8       11     7  40    2.6102   382.4    5.251      22.700
2015    8       11     7  47    2.6125   382.2    5.264      22.699
2015    8       11     7  54    2.6149   381.9    5.277      22.699
2015    8       11     8   1    2.6172   381.7    5.291      22.699
2015    8       11     8   8    2.6195   381.5    5.304      22.700
2015    8       11     8  15    2.6219   381.3    5.317      22.701
2015    8       11     8  21    2.6243   381.0    5.330      22.702
2015    8       11     8  28    2.6267   380.8    5.344      22.703
2015    8       11     8  35    2.6291   380.6    5.357      22.705
2015    8       11     8  42    2.6316   380.3    5.370      22.707
2015    8       11     8  49    2.6340   380.1    5.383      22.709
2015    8       11     8  56    2.6365   379.9    5.396      22.711
2015    8       11     9   3    2.6389   379.7    5.408      22.713
2015    8       11     9  10    2.6414   379.5    5.421      22.716
2015    8       11     9  17    2.6439   379.2    5.434      22.719
2015    8       11     9  24    2.6465   379.0    5.447      22.722
2015    8       11     9  31    2.6491   378.8    5.460      22.725
2015    8       11     9  38    2.6517   378.6    5.473      22.728
2015    8       11     9  45    2.6543   378.4    5.486      22.731
2015    8       11     9  52    2.6570   378.2    5.499      22.735
2015    8       11     9  59    2.6596   378.0    5.513      22.739
2015    8       11    10   6    2.6623   377.7    5.526      22.744
2015    8       11    10  13    2.6651   377.5    5.539      22.748
2015    8       11    10  20    2.6679   377.3    5.553      22.753
2015    8       11    10  27    2.6707   377.1    5.566      22.759
2015    8       11    10  34    2.6736   376.9    5.580      22.765
2015    8       11    10  41    2.6765   376.7    5.594      22.771
2015    8       11    10  48    2.6794   376.5    5.608      22.778
2015    8       11    10  55    2.6824   376.3    5.622      22.785
2015    8       11    11   2    2.6854   376.1    5.637      22.793
2015    8       11    11   9    2.6885   375.9    5.651      22.801
2015    8       11    11  16    2.6917   375.7    5.666      22.811
2015    8       11    11  23    2.6949   375.5    5.681      22.820
2015    8       11    11  30    2.6982   375.4    5.697      22.831
2015    8       11    11  37    2.7015   375.2    5.712      22.842
2015    8       11    11  44    2.7049   375.0    5.728      22.854
2015    8       11    11  51    2.7084   374.8    5.744      22.866
2015    8       11    11  58    2.7120   374.6    5.761      22.880
2015    8       11    12   5    2.7156   374.4    5.778      22.894
2015    8       11    12  12    2.7194   374.3    5.795      22.910
2015    8       11    12  19    2.7232   374.1    5.812      22.926
2015    8       11    12  26    2.7271   373.9    5.830      22.943
2015    8       11    12  33    2.7311   373.8    5.848      22.961
2015    8       11    12  40    2.7352   373.6    5.866      22.981
2015    8       11    12  47    2.7394   373.5    5.885      23.001
2015    8       11    12  53    2.7437   373.3    5.904      23.022
2015    8       11    13   0    2.7481   373.2    5.924      23.044
2015    8       11    13   7    2.7526   373.0    5.943      23.068
2015    8       11    13  14    2.7572   372.9    5.963      23.092
2015    8       11    13  21    2.7619   372.7    5.984      23.117
2015    8       11    13  28    2.7666   372.6    6.004      23.143
2015    8       11    13  35    2.7716   372.5    6.025      23.170
2015    8       11    13  42    2.7766   372.3    6.046      23.198
2015    8       11    13  49    2.7817   372.2    6.068      23.227
2015    8       11    13  56    2.7869   372.1    6.089      23.257
2015    8       11    14   3    2.7923   372.0    6.111      23.288
2015    8       11    14  10    2.7978   371.9    6.134      23.320
2015    8       11    14  17    2.8034   371.8    6.156      23.352
2015    8       11    14  24    2.8091   371.7    6.179      23.386
2015    8       11    14  31    2.8150   371.6    6.202      23.421
2015    8       11    14  38    2.8210   371.5    6.225      23.456
2015    8       11    14  45    2.8273   371.4    6.248      23.493
2015    8       11    14  52    2.8336   371.3    6.272      23.531
2015    8       11    14  59    2.8401   371.2    6.296      23.569
2015    8       11    15   6    2.8468   371.1    6.320      23.609
2015    8       11    15  13    2.8538   371.0    6.345      23.650
2015    8       11    15  20    2.8608   371.0    6.369      23.692
2015    8       11    15  27    2.8682   370.9    6.394      23.735
2015    8       11    15  34    2.8757   370.8    6.419      23.778
2015    8       11    15  41    2.8836   370.8    6.444      23.823
2015    8       11    15  48    2.8915   370.7    6.470      23.869
2015    8       11    15  55    2.8999   370.7    6.496      23.916
2015    8       11    16   2    2.9084   370.6    6.522      23.964
2015    8       11    16   8    2.9173   370.6    6.548      24.013
2015    8       11    16  15    2.9264   370.5    6.575      24.063
2015    8       11    16  22    2.9360   370.5    6.601      24.114
2015    8       11    16  29    2.9457   370.4    6.629      24.166
2015    8       11    16  36    2.9560   370.4    6.656      24.219
2015    8       11    16  43    2.9664   370.4    6.684      24.273
2015    8       11    16  50    2.9774   370.4    6.712      24.329
2015    8       11    16  57    2.9886   370.3    6.741      24.385
2015    8       11    17   4    3.0004   370.3    6.770      24.443
2015    8       11    17  11    3.0124   370.3    6.799      24.501
2015    8       11    17  18    3.0250   370.3    6.829      24.561
2015    8       11    17  25    3.0379   370.3    6.859      24.622
2015    8       11    17  32    3.0513   370.3    6.890      24.683
2015    8       11    17  39    3.0651   370.3    6.921      24.746
2015    8       11    17  46    3.0793   370.3    6.953      24.810
2015    8       11    17  53    3.0939   370.3    6.985      24.875
2015    8       11    18   0    3.1092   370.3    7.018      24.939
2015    8       11    18   7    3.1248   370.3    7.052      25.005
2015    8       11    18  14    3.1409   370.3    7.087      25.072
2015    8       11    18  21    3.1572   370.4    7.121      25.141
2015    8       11    18  28    3.1739   370.4    7.157      25.211
2015    8       11    18  35    3.1907   370.4    7.192      25.282
2015    8       11    18  42    3.2078   370.5    7.228      25.354
2015    8       11    18  49    3.2248   370.5    7.263      25.427
2015    8       11    18  56    3.2419   370.5    7.298      25.498
2015    8       11    19   3    3.2589   370.6    7.333      25.569
2015    8       11    19  10    3.2760   370.6    7.367      25.638
2015    8       11    19  17    3.2929   370.6    7.402      25.706
2015    8       11    19  24    3.3099   370.7    7.436      25.774
2015    8       11    19  31    3.3266   370.7    7.469      25.839
2015    8       11    19  38    3.3433   370.7    7.502      25.904
2015    8       11    19  45    3.3598   370.7    7.535      25.967
2015    8       11    19  52    3.3762   370.8    7.568      26.028
2015    8       11    19  59    3.3923   370.8    7.600      26.087
2015    8       11    20   6    3.4084   370.8    7.632      26.145
2015    8       11    20  12    3.4242   370.8    7.663      26.202
2015    8       11    20  19    3.4399   370.8    7.695      26.256
2015    8       11    20  26    3.4554   370.9    7.726      26.309
2015    8       11    20  33    3.4707   370.9    7.756      26.360
2015    8       11    20  40    3.4857   370.9    7.787      26.410
2015    8       11    20  47    3.5004   370.9    7.817      26.459
2015    8       11    20  54    3.5147   370.9    7.846      26.507
2015    8       11    21   1    3.5286   370.9    7.875      26.555
2015    8       11    21   8    3.5421   370.9    7.903      26.602
2015    8       11    21  15    3.5552   370.9    7.930      26.649
2015    8       11    21  22    3.5678   371.0    7.956      26.695
2015    8       11    21  29    3.5799   371.0    7.980      26.739
2015    8       11    21  36    3.5915   371.0    8.004      26.781
2015    8       11    21  43    3.6026   371.0    8.027      26.821
2015    8       11    21  50    3.6132   371.0    8.049      26.859
2015    8       11    21  57    3.6233   371.0    8.069      26.895
2015    8       11    22   4    3.6330   370.9    8.088      26.929
2015    8       11    22  11    3.6421   370.9    8.107      26.962
2015    8       11    22  18    3.6508   370.9    8.124      26.992
2015    8       11    22  25    3.6589   370.9    8.140      27.021
2015    8       11    22  32    3.6667   370.9    8.156      27.048
2015    8       11    22  39    3.6740   370.9    8.170      27.073
2015    8       11    22  46    3.6809   370.8    8.183      27.097
2015    8       11    22  53    3.6873   370.8    8.196      27.119
2015    8       11    23   0    3.6935   370.8    8.208      27.140
2015    8       11    23   7    3.6991   370.7    8.219      27.160
2015    8       11    23  14    3.7046   370.7    8.229      27.178
2015    8       11    23  21    3.7095   370.7    8.239      27.196
2015    8       11    23  28    3.7142   370.6    8.247      27.212
2015    8       11    23  34    3.7184   370.6    8.256      27.227
2015    8       11    23  41    3.7224   370.5    8.263      27.242
2015    8       11    23  48    3.7259   370.5    8.270      27.256
2015    8       11    23  55    3.7291   370.4    8.277      27.268
2015    8       12     0   2    3.7319   370.4    8.283      27.281
2015    8       12     0   9    3.7343   370.3    8.288      27.292
2015    8       12     0  16    3.7363   370.3    8.294      27.303
2015    8       12     0  23    3.7380   370.2    8.298      27.314
2015    8       12     0  30    3.7392   370.1    8.303      27.324
2015    8       12     0  37    3.7402   370.1    8.307      27.334
2015    8       12     0  44    3.7406   370.0    8.310      27.343
2015    8       12     0  51    3.7408   370.0    8.313      27.352
2015    8       12     0  58    3.7406   369.9    8.316      27.361
2015    8       12     1   5    3.7401   369.8    8.319      27.369
2015    8       12     1  12    3.7391   369.8    8.322      27.377
2015    8       12     1  19    3.7379   369.7    8.324      27.385
2015    8       12     1  26    3.7363   369.7    8.326      27.392
2015    8       12     1  33    3.7344   369.6    8.327      27.399
2015    8       12     1  40    3.7321   369.5    8.329      27.406
2015    8       12     1  47    3.7296   369.5    8.330      27.413
2015    8       12     1  54    3.7267   369.4    8.331      27.419
2015    8       12     2   1    3.7236   369.4    8.332      27.425
2015    8       12     2   8    3.7202   369.3    8.333      27.431
2015    8       12     2  15    3.7165   369.2    8.334      27.437
2015    8       12     2  22    3.7125   369.2    8.334      27.443
2015    8       12     2  29    3.7084   369.1    8.334      27.449
2015    8       12     2  36    3.7039   369.0    8.335      27.454
2015    8       12     2  43    3.6993   369.0    8.335      27.459
2015    8       12     2  50    3.6944   368.9    8.335      27.465
2015    8       12     2  57    3.6894   368.9    8.335      27.470
2015    8       12     3   4    3.6843   368.8    8.335      27.476
2015    8       12     3  11    3.6791   368.7    8.335      27.481
2015    8       12     3  18    3.6738   368.7    8.335      27.486
2015    8       12     3  24    3.6686   368.6    8.335      27.492
2015    8       12     3  31    3.6633   368.6    8.334      27.497
2015    8       12     3  38    3.6580   368.5    8.334      27.503
2015    8       12     3  45    3.6526   368.4    8.334      27.508
2015    8       12     3  52    3.6473   368.4    8.334      27.514
2015    8       12     3  59    3.6419   368.3    8.334      27.520
2015    8       12     4   6    3.6366   368.3    8.334      27.526
2015    8       12     4  13    3.6312   368.2    8.334      27.532
2015    8       12     4  20    3.6260   368.2    8.334      27.539
2015    8       12     4  27    3.6207   368.1    8.335      27.545
2015    8       12     4  34    3.6155   368.1    8.335      27.552
2015    8       12     4  41    3.6104   368.0    8.335      27.559
2015    8       12     4  48    3.6053   368.0    8.336      27.567
2015    8       12     4  55    3.6003   367.9    8.336      27.575
2015    8       12     5   2    3.5955   367.9    8.337      27.583
2015    8       12     5   9    3.5907   367.8    8.338      27.592
2015    8       12     5  16    3.5860   367.8    8.339      27.601
2015    8       12     5  23    3.5814   367.7    8.340      27.611
2015    8       12     5  30    3.5769   367.7    8.341      27.621
2015    8       12     5  37    3.5725   367.6    8.342      27.631
2015    8       12     5  44    3.5683   367.6    8.344      27.642
2015    8       12     5  51    3.5641   367.6    8.345      27.654
2015    8       12     5  58    3.5600   367.5    8.347      27.666
2015    8       12     6   5    3.5561   367.5    8.349      27.678
2015    8       12     6  12    3.5522   367.5    8.351      27.691
2015    8       12     6  19    3.5484   367.4    8.353      27.704
2015    8       12     6  26    3.5448   367.4    8.356      27.718
2015    8       12     6  33    3.5412   367.4    8.358      27.733
2015    8       12     6  39    3.5377   367.3    8.361      27.747
2015    8       12     6  46    3.5342   367.3    8.364      27.763
2015    8       12     6  53    3.5309   367.3    8.367      27.779
2015    8       12     7   0    3.5276   367.2    8.370      27.795
2015    8       12     7   7    3.5244   367.2    8.374      27.812
2015    8       12     7  14    3.5212   367.2    8.378      27.829
2015    8       12     7  21    3.5181   367.2    8.382      27.847
2015    8       12     7  28    3.5151   367.2    8.386      27.865
2015    8       12     7  35    3.5121   367.1    8.390      27.884
2015    8       12     7  42    3.5092   367.1    8.394      27.903
2015    8       12     7  49    3.5063   367.1    8.399      27.922
2015    8       12     7  56    3.5035   367.1    8.403      27.942
2015    8       12     8   3    3.5007   367.1    8.408      27.962
2015    8       12     8  10    3.4980   367.0    8.413      27.983
2015    8       12     8  17    3.4953   367.0    8.419      28.004
2015    8       12     8  24    3.4927   367.0    8.424      28.025
2015    8       12     8  31    3.4901   367.0    8.430      28.047
2015    8       12     8  38    3.4875   367.0    8.436      28.069
2015    8       12     8  45    3.4850   367.0    8.441      28.091
2015    8       12     8  52    3.4825   367.0    8.448      28.114
2015    8       12     8  59    3.4801   367.0    8.454      28.137
2015    8       12     9   6    3.4777   367.0    8.460      28.161
2015    8       12     9  13    3.4754   367.0    8.467      28.184
2015    8       12     9  20    3.4731   366.9    8.473      28.209
2015    8       12     9  27    3.4708   366.9    8.480      28.233
2015    8       12     9  34    3.4686   366.9    8.487      28.258
2015    8       12     9  41    3.4665   366.9    8.494      28.282
2015    8       12     9  48    3.4644   366.9    8.502      28.308
2015    8       12     9  55    3.4623   366.9    8.509      28.333
2015    8       12    10   2    3.4603   366.9    8.517      28.359
2015    8       12    10   9    3.4584   366.9    8.524      28.385
2015    8       12    10  16    3.4564   366.9    8.532      28.412
2015    8       12    10  23    3.4546   366.9    8.540      28.438
2015    8       12    10  29    3.4528   366.9    8.548      28.465
2015    8       12    10  36    3.4510   367.0    8.557      28.492
2015    8       12    10  43    3.4493   367.0    8.565      28.520
2015    8       12    10  50    3.4476   367.0    8.574      28.548
2015    8       12    10  57    3.4460   367.0    8.582      28.576
2015    8       12    11   4    3.4444   367.0    8.591      28.604
2015    8       12    11  11    3.4428   367.0    8.600      28.632
2015    8       12    11  18    3.4413   367.0    8.609      28.660
2015    8       12    11  25    3.4399   367.0    8.618      28.688
2015    8       12    11  32    3.4385   367.0    8.628      28.714
2015    8       12    11  39    3.4371   367.0    8.637      28.741
2015    8       12    11  46    3.4357   367.0    8.646      28.767
2015    8       12    11  53    3.4344   367.1    8.655      28.793
2015    8       12    12   0    3.4332   367.1    8.664      28.819
2015    8       12    12   7    3.4319   367.1    8.673      28.845
2015    8       12    12  14    3.4307   367.1    8.682      28.871
2015    8       12    12  21    3.4295   367.1    8.690      28.896
2015    8       12    12  28    3.4284   367.1    8.698      28.921
2015    8       12    12  35    3.4273   367.1    8.706      28.946
2015    8       12    12  42    3.4262   367.1    8.714      28.970
2015    8       12    12  49    3.4252   367.2    8.721      28.993
2015    8       12    12  56    3.4242   367.2    8.728      29.015
2015    8       12    13   3    3.4232   367.2    8.735      29.037
2015    8       12    13  10    3.4222   367.2    8.742      29.058
2015    8       12    13  17    3.4213   367.2    8.748      29.079
2015    8       12    13  24    3.4204   367.2    8.754      29.099
2015    8       12    13  31    3.4195   367.2    8.760      29.118
2015    8       12    13  37    3.4187   367.2    8.766      29.136
2015    8       12    13  44    3.4179   367.2    8.771      29.154
2015    8       12    13  51    3.4171   367.3    8.777      29.171
2015    8       12    13  58    3.4164   367.3    8.782      29.187
2015    8       12    14   5    3.4157   367.3    8.786      29.202
2015    8       12    14  12    3.4151   367.3    8.791      29.217
2015    8       12    14  19    3.4145   367.3    8.795      29.231
2015    8       12    14  26    3.4139   367.3    8.799      29.245
2015    8       12    14  33    3.4134   367.3    8.802      29.258
2015    8       12    14  40    3.4129   367.3    8.806      29.270
2015    8       12    14  47    3.4125   367.3    8.809      29.281
2015    8       12    14  54    3.4121   367.3    8.812      29.292
2015    8       12    15   1    3.4117   367.3    8.815      29.302
2015    8       12    15   8    3.4114   367.4    8.817      29.311
2015    8       12    15  15    3.4112   367.4    8.819      29.320
2015    8       12    15  22    3.4110   367.4    8.822      29.328
2015    8       12    15  29    3.4108   367.4    8.823      29.336
2015    8       12    15  36    3.4107   367.4    8.825      29.343
2015    8       12    15  43    3.4106   367.4    8.826      29.349
2015    8       12    15  50    3.4106   367.4    8.827      29.355
2015    8       12    15  57    3.4106   367.4    8.828      29.360
2015    8       12    16   4    3.4106   367.4    8.829      29.364
2015    8       12    16  11    3.4107   367.4    8.830      29.368
2015    8       12    16  18    3.4109   367.4    8.830      29.372
2015    8       12    16  25    3.4111   367.4    8.830      29.375
2015    8       12    16  32    3.4113   367.5    8.830      29.377
2015    8       12    16  39    3.4116   367.5    8.830      29.379
2015    8       12    16  46    3.4119   367.5    8.829      29.380
2015    8       12    16  53    3.4122   367.5    8.829      29.381
2015    8       12    17   0    3.4126   367.5    8.828      29.382
2015    8       12    17   6    3.4130   367.5    8.827      29.382
2015    8       12    17  13    3.4135   367.5    8.826      29.382
2015    8       12    17  20    3.4140   367.5    8.825      29.381
2015    8       12    17  27    3.4145   367.5    8.824      29.380
2015    8       12    17  34    3.4151   367.5    8.822      29.378
2015    8       12    17  41    3.4157   367.5    8.821      29.376
2015    8       12    17  48    3.4163   367.5    8.819      29.374
2015    8       12    17  55    3.4170   367.5    8.817      29.371
2015    8       12    18   2    3.4177   367.5    8.815      29.368
2015    8       12    18   9    3.4184   367.5    8.813      29.365
2015    8       12    18  16    3.4192   367.5    8.811      29.361
2015    8       12    18  23    3.4200   367.5    8.808      29.357
2015    8       12    18  30    3.4207   367.5    8.806      29.353
2015    8       12    18  37    3.4216   367.5    8.803      29.348
2015    8       12    18  44    3.4224   367.5    8.801      29.343
2015    8       12    18  51    3.4233   367.6    8.798      29.338
2015    8       12    18  58    3.4242   367.6    8.795      29.333
2015    8       12    19   5    3.4252   367.6    8.792      29.327
2015    8       12    19  12    3.4261   367.6    8.789      29.321
2015    8       12    19  19    3.4271   367.6    8.786      29.315
2015    8       12    19  26    3.4281   367.6    8.783      29.308
2015    8       12    19  33    3.4291   367.6    8.780      29.302
2015    8       12    19  40    3.4301   367.6    8.776      29.295
2015    8       12    19  47    3.4312   367.6    8.773      29.287
2015    8       12    19  54    3.4323   367.6    8.770      29.280
2015    8       12    20   1    3.4334   367.6    8.766      29.273
2015    8       12    20   8    3.4345   367.6    8.763      29.265
2015    8       12    20  14    3.4357   367.6    8.759      29.257
2015    8       12    20  21    3.4368   367.6    8.755      29.249
2015    8       12    20  28    3.4380   367.6    8.751      29.240
2015    8       12    20  35    3.4391   367.6    8.748      29.232
2015    8       12    20  42    3.4403   367.6    8.744      29.223
2015    8       12    20  49    3.4415   367.6    8.740      29.214
2015    8       12    20  56    3.4427   367.6    8.736      29.205
2015    8       12    21   3    3.4439   367.6    8.732      29.195
2015    8       12    21  10    3.4451   367.6    8.728      29.186
2015    8       12    21  17    3.4463   367.6    8.724      29.176
2015    8       12    21  24    3.4475   367.6    8.719      29.166
2015    8       12    21  31    3.4487   367.6    8.715      29.157
2015    8       12    21  38    3.4500   367.6    8.711      29.146
2015    8       12    21  45    3.4512   367.6    8.707      29.136
2015    8       12    21  52    3.4524   367.6    8.702      29.125
2015    8       12    21  59    3.4537   367.6    8.698      29.115
2015    8       12    22   6    3.4549   367.6    8.694      29.104
2015    8       12    22  13    3.4562   367.6    8.689      29.093
2015    8       12    22  20    3.4574   367.6    8.685      29.082
2015    8       12    22  27    3.4587   367.5    8.680      29.071
2015    8       12    22  34    3.4599   367.5    8.676      29.059
2015    8       12    22  41    3.4612   367.5    8.671      29.048
2015    8       12    22  48    3.4624   367.5    8.666      29.036
2015    8       12    22  55    3.4636   367.5    8.662      29.024
2015    8       12    23   2    3.4648   367.5    8.657      29.012
2015    8       12    23   9    3.4660   367.5    8.652      29.000
2015    8       12    23  16    3.4672   367.5    8.648      28.988
2015    8       12    23  23    3.4684   367.5    8.643      28.976
2015    8       12    23  30    3.4695   367.5    8.638      28.963
2015    8       12    23  36    3.4706   367.5    8.633      28.950
2015    8       12    23  43    3.4717   367.5    8.629      28.937
2015    8       12    23  50    3.4728   367.5    8.624      28.924
2015    8       12    23  57    3.4739   367.5    8.619      28.911
2015    8       13     0   4    3.4750   367.5    8.614      28.898
2015    8       13     0  11    3.4760   367.4    8.610      28.884
2015    8       13     0  18    3.4771   367.4    8.605      28.871
2015    8       13     0  25    3.4781   367.4    8.600      28.857
2015    8       13     0  32    3.4791   367.4    8.596      28.844
2015    8       13     0  39    3.4801   367.4    8.591      28.830
2015    8       13     0  46    3.4811   367.4    8.587      28.816
2015    8       13     0  53    3.4820   367.4    8.582      28.802
2015    8       13     1   0    3.4830   367.4    8.578      28.788
2015    8       13     1   7    3.4839   367.4    8.574      28.774
2015    8       13     1  14    3.4848   367.3    8.569      28.761
2015    8       13     1  21    3.4857   367.3    8.565      28.747
2015    8       13     1  28    3.4866   367.3    8.561      28.733
2015    8       13     1  35    3.4874   367.3    8.557      28.719
2015    8       13     1  42    3.4882   367.3    8.553      28.705
2015    8       13     1  49    3.4891   367.3    8.549      28.691
2015    8       13     1  56    3.4899   367.3    8.545      28.677
2015    8       13     2   3    3.4907   367.2    8.541      28.663
2015    8       13     2  10    3.4914   367.2    8.538      28.649
2015    8       13     2  17    3.4922   367.2    8.534      28.636
2015    8       13     2  24    3.4929   367.2    8.531      28.622
2015    8       13     2  31    3.4936   367.2    8.527      28.608
2015    8       13     2  37    3.4943   367.2    8.524      28.594
2015    8       13     2  44    3.4950   367.2    8.521      28.581
2015    8       13     2  51    3.4956   367.1    8.518      28.567
2015    8       13     2  58    3.4963   367.1    8.514      28.554
2015    8       13     3   5    3.4969   367.1    8.511      28.540
2015    8       13     3  12    3.4975   367.1    8.509      28.527
2015    8       13     3  19    3.4981   367.1    8.506      28.514
2015    8       13     3  26    3.4987   367.1    8.503      28.500
2015    8       13     3  33    3.4993   367.0    8.500      28.487
2015    8       13     3  40    3.4998   367.0    8.498      28.474
2015    8       13     3  47    3.5004   367.0    8.495      28.461
2015    8       13     3  54    3.5009   367.0    8.493      28.448
2015    8       13     4   1    3.5014   367.0    8.490      28.436
2015    8       13     4   8    3.5019   366.9    8.488      28.423
2015    8       13     4  15    3.5023   366.9    8.486      28.410
2015    8       13     4  22    3.5028   366.9    8.484      28.398
2015    8       13     4  29    3.5033   366.9    8.482      28.385
2015    8       13     4  36    3.5037   366.9    8.480      28.373
2015    8       13     4  43    3.5042   366.8    8.478      28.360
2015    8       13     4  50    3.5046   366.8    8.476      28.348
2015    8       13     4  57    3.5050   366.8    8.474      28.336
2015    8       13     5   4    3.5054   366.8    8.472      28.324
2015    8       13     5  11    3.5058   366.7    8.471      28.312
2015    8       13     5  18    3.5062   366.7    8.469      28.300
2015    8       13     5  25    3.5066   366.7    8.468      28.288
2015    8       13     5  32    3.5069   366.7    8.466      28.276
2015    8       13     5  39    3.5073   366.6    8.465      28.265
2015    8       13     5  46    3.5077   366.6    8.464      28.253
2015    8       13     5  53    3.5080   366.6    8.462      28.242
2015    8       13     5  59    3.5084   366.5    8.461      28.231
2015    8       13     6   6    3.5088   366.5    8.460      28.220
2015    8       13     6  13    3.5091   366.5    8.459      28.209
2015    8       13     6  20    3.5095   366.4    8.459      28.199
2015    8       13     6  27    3.5098   366.4    8.458      28.188
2015    8       13     6  34    3.5102   366.4    8.457      28.178
2015    8       13     6  41    3.5105   366.3    8.457      28.168
2015    8       13     6  48    3.5109   366.3    8.456      28.158
2015    8       13     6  55    3.5112   366.3    8.456      28.148
2015    8       13     7   2    3.5116   366.2    8.456      28.139
2015    8       13     7   9    3.5120   366.2    8.455      28.130
2015    8       13     7  16    3.5123   366.2    8.455      28.121
2015    8       13     7  23    3.5127   366.1    8.456      28.112
2015    8       13     7  30    3.5131   366.1    8.456      28.104
2015    8       13     7  37    3.5135   366.1    8.456      28.096
2015    8       13     7  44    3.5139   366.0    8.457      28.087
2015    8       13     7  51    3.5143   366.0    8.457      28.080
2015    8       13     7  58    3.5147   365.9    8.458      28.072
2015    8       13     8   5    3.5152   365.9    8.459      28.065
2015    8       13     8  12    3.5156   365.9    8.460      28.058
2015    8       13     8  19    3.5161   365.8    8.461      28.051
2015    8       13     8  26    3.5166   365.8    8.462      28.045
2015    8       13     8  33    3.5171   365.8    8.463      28.038
2015    8       13     8  40    3.5176   365.7    8.465      28.032
2015    8       13     8  46    3.5182   365.7    8.466      28.026
2015    8       13     8  53    3.5187   365.6    8.468      28.020
2015    8       13     9   0    3.5193   365.6    8.470      28.015
2015    8       13     9   7    3.5200   365.5    8.471      28.010
2015    8       13     9  14    3.5206   365.5    8.473      28.004
2015    8       13     9  21    3.5213   365.5    8.475      27.999
2015    8       13     9  28    3.5220   365.4    8.478      27.994
2015    8       13     9  35    3.5227   365.4    8.480      27.989
2015    8       13     9  42    3.5234   365.3    8.482      27.985
2015    8       13     9  49    3.5242   365.3    8.484      27.980
2015    8       13     9  56    3.5250   365.2    8.487      27.976
2015    8       13    10   3    3.5259   365.2    8.489      27.971
2015    8       13    10  10    3.5267   365.1    8.492      27.967
2015    8       13    10  17    3.5276   365.1    8.495      27.962
2015    8       13    10  24    3.5286   365.0    8.497      27.958
2015    8       13    10  31    3.5296   365.0    8.500      27.954
2015    8       13    10  38    3.5306   365.0    8.503      27.949
2015    8       13    10  45    3.5316   364.9    8.505      27.945
2015    8       13    10  52    3.5327   364.9    8.508      27.941
2015    8       13    10  59    3.5338   364.8    8.511      27.936
2015    8       13    11   6    3.5350   364.8    8.514      27.932
2015    8       13    11  13    3.5362   364.7    8.517      27.927
2015    8       13    11  20    3.5374   364.6    8.520      27.922
2015    8       13    11  27    3.5386   364.6    8.523      27.918
2015    8       13    11  34    3.5399   364.5    8.526      27.913
2015    8       13    11  41    3.5412   364.5    8.529      27.908
2015    8       13    11  48    3.5426   364.4    8.532      27.903
2015    8       13    11  54    3.5440   364.4    8.535      27.898
2015    8       13    12   1    3.5454   364.3    8.538      27.892
2015    8       13    12   8    3.5468   364.3    8.541      27.887
2015    8       13    12  15    3.5483   364.2    8.544      27.881
2015    8       13    12  22    3.5498   364.1    8.547      27.875
2015    8       13    12  29    3.5514   364.1    8.550      27.870
2015    8       13    12  36    3.5529   364.0    8.553      27.864
2015    8       13    12  43    3.5546   364.0    8.556      27.858
2015    8       13    12  50    3.5562   363.9    8.559      27.852
2015    8       13    12  57    3.5579   363.8    8.562      27.846
2015    8       13    13   4    3.5596   363.8    8.566      27.839
2015    8       13    13  11    3.5613   363.7    8.569      27.833
2015    8       13    13  18    3.5631   363.6    8.573      27.827
2015    8       13    13  25    3.5649   363.6    8.576      27.821
2015    8       13    13  32    3.5667   363.5    8.580      27.814
2015    8       13    13  39    3.5686   363.4    8.583      27.808
2015    8       13    13  46    3.5705   363.4    8.587      27.802
2015    8       13    13  53    3.5725   363.3    8.591      27.796
2015    8       13    14   0    3.5745   363.2    8.595      27.790
2015    8       13    14   7    3.5765   363.2    8.599      27.784
2015    8       13    14  14    3.5786   363.1    8.604      27.778
2015    8       13    14  21    3.5807   363.0    8.608      27.772
2015    8       13    14  28    3.5829   362.9    8.613      27.766
2015    8       13    14  35    3.5851   362.9    8.618      27.761
2015    8       13    14  42    3.5874   362.8    8.623      27.756
2015    8       13    14  49    3.5897   362.7    8.628      27.750
2015    8       13    14  55    3.5920   362.7    8.634      27.745
2015    8       13    15   2    3.5945   362.6    8.639      27.741
2015    8       13    15   9    3.5969   362.5    8.645      27.736
2015    8       13    15  16    3.5995   362.4    8.651      27.732
2015    8       13    15  23    3.6020   362.4    8.658      27.728
2015    8       13    15  30    3.6047   362.3    8.664      27.724
2015    8       13    15  37    3.6073   362.2    8.671      27.721
2015    8       13    15  44    3.6101   362.2    8.678      27.717
2015    8       13    15  51    3.6129   362.1    8.686      27.714
2015    8       13    15  58    3.6158   362.0    8.693      27.712
2015    8       13    16   5    3.6187   361.9    8.701      27.709
2015    8       13    16  12    3.6218   361.9    8.710      27.707
2015    8       13    16  19    3.6248   361.8    8.718      27.705
2015    8       13    16  26    3.6279   361.7    8.727      27.704
2015    8       13    16  33    3.6311   361.6    8.736      27.703
2015    8       13    16  40    3.6343   361.6    8.745      27.702
2015    8       13    16  47    3.6376   361.5    8.755      27.701
2015    8       13    16  54    3.6409   361.4    8.765      27.701
2015    8       13    17   1    3.6443   361.4    8.775      27.701
2015    8       13    17   8    3.6477   361.3    8.786      27.702
2015    8       13    17  15    3.6512   361.2    8.796      27.703
2015    8       13    17  22    3.6548   361.1    8.807      27.704
2015    8       13    17  29    3.6584   361.1    8.819      27.706
2015    8       13    17  36    3.6621   361.0    8.830      27.708
2015    8       13    17  43    3.6659   360.9    8.842      27.710
2015    8       13    17  49    3.6697   360.9    8.855      27.713
2015    8       13    17  56    3.6736   360.8    8.867      27.716
2015    8       13    18   3    3.6775   360.7    8.881      27.720
2015    8       13    18  10    3.6814   360.6    8.894      27.724
2015    8       13    18  17    3.6854   360.6    8.908      27.729
2015    8       13    18  24    3.6894   360.5    8.922      27.734
2015    8       13    18  31    3.6934   360.4    8.936      27.741
2015    8       13    18  38    3.6973   360.4    8.950      27.748
2015    8       13    18  45    3.7013   360.3    8.965      27.757
2015    8       13    18  52    3.7052   360.2    8.979      27.767
2015    8       13    18  59    3.7091   360.2    8.993      27.777
2015    8       13    19   6    3.7130   360.1    9.007      27.789
2015    8       13    19  13    3.7170   360.1    9.021      27.802
2015    8       13    19  20    3.7209   360.0    9.035      27.814
2015    8       13    19  27    3.7248   360.0    9.048      27.827
2015    8       13    19  34    3.7286   359.9    9.062      27.839
2015    8       13    19  41    3.7325   359.9    9.075      27.851
2015    8       13    19  48    3.7364   359.8    9.088      27.863
2015    8       13    19  55    3.7403   359.7    9.101      27.875
2015    8       13    20   2    3.7442   359.7    9.114      27.887
2015    8       13    20   9    3.7481   359.6    9.127      27.899
2015    8       13    20  16    3.7520   359.6    9.139      27.910
2015    8       13    20  23    3.7559   359.5    9.152      27.922
2015    8       13    20  30    3.7599   359.5    9.164      27.933
2015    8       13    20  37    3.7638   359.4    9.177      27.944
2015    8       13    20  44    3.7678   359.4    9.189      27.955
2015    8       13    20  51    3.7718   359.3    9.201      27.966
2015    8       13    20  58    3.7757   359.3    9.214      27.977
2015    8       13    21   5    3.7798   359.2    9.226      27.988
2015    8       13    21  11    3.7838   359.2    9.238      27.999
2015    8       13    21  18    3.7879   359.1    9.250      28.010
2015    8       13    21  25    3.7919   359.1    9.262      28.021
2015    8       13    21  32    3.7960   359.0    9.275      28.032
2015    8       13    21  39    3.8001   358.9    9.287      28.043
2015    8       13    21  46    3.8043   358.9    9.299      28.054
2015    8       13    21  53    3.8085   358.8    9.311      28.065
2015    8       13    22   0    3.8127   358.8    9.324      28.076
2015    8       13    22   7    3.8170   358.7    9.336      28.087
2015    8       13    22  14    3.8213   358.7    9.349      28.098
2015    8       13    22  21    3.8256   358.6    9.361      28.110
2015    8       13    22  28    3.8300   358.6    9.374      28.121
2015    8       13    22  35    3.8345   358.5    9.387      28.133
2015    8       13    22  42    3.8390   358.5    9.401      28.145
2015    8       13    22  49    3.8436   358.4    9.414      28.157
2015    8       13    22  56    3.8482   358.4    9.428      28.170
2015    8       13    23   3    3.8529   358.3    9.442      28.183
2015    8       13    23  10    3.8577   358.3    9.457      28.197
2015    8       13    23  17    3.8625   358.2    9.472      28.211
2015    8       13    23  24    3.8675   358.2    9.487      28.226
2015    8       13    23  31    3.8725   358.1    9.503      28.242
2015    8       13    23  38    3.8776   358.1    9.519      28.258
2015    8       13    23  45    3.8828   358.0    9.536      28.275
2015    8       13    23  52    3.8881   358.0    9.553      28.292
2015    8       13    23  58    3.8934   357.9    9.570      28.311
2015    8       14     0   5    3.8989   357.9    9.589      28.330
2015    8       14     0  12    3.9045   357.8    9.607      28.350
2015    8       14     0  19    3.9102   357.8    9.627      28.371
2015    8       14     0  26    3.9160   357.7    9.647      28.393
2015    8       14     0  33    3.9219   357.7    9.668      28.416
2015    8       14     0  40    3.9280   357.7    9.689      28.439
2015    8       14     0  47    3.9341   357.6    9.711      28.464
2015    8       14     0  54    3.9403   357.6    9.733      28.491
2015    8       14     1   1    3.9467   357.6    9.756      28.520
2015    8       14     1   8    3.9530   357.5    9.779      28.551
2015    8       14     1  15    3.9595   357.5    9.802      28.584
2015    8       14     1  22    3.9660   357.5    9.825      28.620
2015    8       14     1  29    3.9726   357.5    9.848      28.658
2015    8       14     1  36    3.9793   357.5    9.872      28.697
2015    8       14     1  43    3.9860   357.5    9.895      28.737
2015    8       14     1  50    3.9927   357.5    9.919      28.778
2015    8       14     1  57    3.9996   357.5    9.943      28.818
2015    8       14     2   4    4.0063   357.5    9.967      28.859
2015    8       14     2  11    4.0132   357.5    9.991      28.900
2015    8       14     2  18    4.0200   357.5   10.015      28.941
2015    8       14     2  25    4.0268   357.5   10.039      28.984
2015    8       14     2  32    4.0336   357.5   10.062      29.027
2015    8       14     2  39    4.0403   357.5   10.085      29.070
2015    8       14     2  46    4.0470   357.5   10.108      29.115
2015    8       14     2  53    4.0537   357.5   10.130      29.160
2015    8       14     3   0    4.0604   357.5   10.152      29.205
2015    8       14     3   6    4.0671   357.5   10.174      29.250
2015    8       14     3  13    4.0737   357.5   10.195      29.295
2015    8       14     3  20    4.0803   357.5   10.216      29.340
2015    8       14     3  27    4.0869   357.6   10.237      29.384
2015    8       14     3  34    4.0935   357.6   10.258      29.427
2015    8       14     3  41    4.1001   357.6   10.278      29.471
2015    8       14     3  48    4.1067   357.6   10.299      29.513
2015    8       14     3  55    4.1133   357.6   10.319      29.555
2015    8       14     4   2    4.1199   357.6   10.339      29.597
2015    8       14     4   9    4.1265   357.6   10.359      29.639
2015    8       14     4  16    4.1330   357.6   10.378      29.680
2015    8       14     4  23    4.1396   357.7   10.398      29.721
2015    8       14     4  30    4.1463   357.7   10.417      29.761
2015    8       14     4  37    4.1528   357.7   10.436      29.800
2015    8       14     4  44    4.1595   357.7   10.456      29.840
2015    8       14     4  51    4.1662   357.7   10.475      29.879
2015    8       14     4  58    4.1729   357.7   10.495      29.918
2015    8       14     5   5    4.1797   357.7   10.514      29.956
2015    8       14     5  12    4.1865   357.7   10.534      29.995
2015    8       14     5  19    4.1934   357.8   10.553      30.033
2015    8       14     5  26    4.2004   357.8   10.574      30.072
2015    8       14     5  33    4.2074   357.8   10.594      30.111
2015    8       14     5  40    4.2146   357.8   10.615      30.149
2015    8       14     5  47    4.2218   357.8   10.637      30.188
2015    8       14     5  54    4.2293   357.8   10.659      30.228
2015    8       14     6   0    4.2368   357.8   10.682      30.270
2015    8       14     6   7    4.2445   357.9   10.704      30.314
2015    8       14     6  14    4.2522   357.9   10.727      30.360
2015    8       14     6  21    4.2600   358.0   10.750      30.409
2015    8       14     6  28    4.2679   358.0   10.773      30.459
2015    8       14     6  35    4.2758   358.1   10.796      30.512
2015    8       14     6  42    4.2837   358.1   10.819      30.566
2015    8       14     6  49    4.2916   358.2   10.842      30.620
2015    8       14     6  56    4.2995   358.3   10.864      30.674
2015    8       14     7   3    4.3073   358.3   10.886      30.727
2015    8       14     7  10    4.3151   358.4   10.908      30.781
2015    8       14     7  17    4.3229   358.5   10.930      30.834
2015    8       14     7  24    4.3307   358.5   10.952      30.886
2015    8       14     7  31    4.3384   358.6   10.973      30.939
2015    8       14     7  38    4.3461   358.7   10.994      30.991
2015    8       14     7  45    4.3539   358.7   11.015      31.042
2015    8       14     7  52    4.3615   358.8   11.036      31.093
2015    8       14     7  59    4.3692   358.9   11.057      31.145
2015    8       14     8   6    4.3768   359.0   11.078      31.196
2015    8       14     8  13    4.3844   359.1   11.099      31.249
2015    8       14     8  20    4.3920   359.1   11.119      31.302
2015    8       14     8  27    4.3995   359.2   11.139      31.357
2015    8       14     8  34    4.4069   359.3   11.158      31.413
2015    8       14     8  41    4.4143   359.4   11.177      31.470
2015    8       14     8  48    4.4217   359.5   11.195      31.529
2015    8       14     8  55    4.4290   359.6   11.213      31.587
2015    8       14     9   1    4.4362   359.7   11.231      31.646
2015    8       14     9   8    4.4434   359.8   11.248      31.705
2015    8       14     9  15    4.4505   359.9   11.265      31.763
2015    8       14     9  22    4.4576   360.0   11.281      31.820
2015    8       14     9  29    4.4646   360.1   11.297      31.877
2015    8       14     9  36    4.4716   360.2   11.312      31.933
2015    8       14     9  43    4.4786   360.3   11.327      31.989
2015    8       14     9  50    4.4855   360.4   11.341      32.044
2015    8       14     9  57    4.4924   360.5   11.356      32.099
2015    8       14    10   4    4.4992   360.6   11.370      32.153
2015    8       14    10  11    4.5060   360.7   11.383      32.207
2015    8       14    10  18    4.5128   360.8   11.396      32.261
2015    8       14    10  25    4.5196   360.9   11.410      32.314
2015    8       14    10  32    4.5263   361.0   11.422      32.366
2015    8       14    10  39    4.5331   361.1   11.435      32.419
2015    8       14    10  46    4.5398   361.2   11.447      32.470
2015    8       14    10  53    4.5466   361.3   11.459      32.522
2015    8       14    11   0    4.5533   361.4   11.472      32.572
2015    8       14    11   7    4.5600   361.5   11.483      32.622
2015    8       14    11  14    4.5668   361.6   11.495      32.672
2015    8       14    11  21    4.5735   361.7   11.507      32.721
2015    8       14    11  28    4.5803   361.8   11.518      32.770
2015    8       14    11  35    4.5871   361.9   11.530      32.819
2015    8       14    11  42    4.5939   362.0   11.541      32.867
2015    8       14    11  49    4.6007   362.1   11.553      32.915
2015    8       14    11  56    4.6076   362.2   11.564      32.962
2015    8       14    12   3    4.6144   362.3   11.576      33.010
2015    8       14    12  10    4.6213   362.4   11.587      33.057
2015    8       14    12  16    4.6283   362.5   11.599      33.104
2015    8       14    12  23    4.6352   362.6   11.611      33.151
2015    8       14    12  30    4.6421   362.7   11.623      33.197
2015    8       14    12  37    4.6491   362.8   11.635      33.245
2015    8       14    12  44    4.6560   362.9   11.648      33.293
2015    8       14    12  51    4.6631   363.0   11.661      33.341
2015    8       14    12  58    4.6701   363.1   11.673      33.391
2015    8       14    13   5    4.6772   363.2   11.687      33.440
2015    8       14    13  12    4.6842   363.3   11.700      33.490
2015    8       14    13  19    4.6914   363.4   11.714      33.541
2015    8       14    13  26    4.6987   363.6   11.728      33.592
2015    8       14    13  33    4.7060   363.7   11.743      33.644
2015    8       14    13  40    4.7133   363.8   11.757      33.698
2015    8       14    13  47    4.7206   363.9   11.771      33.754
2015    8       14    13  54    4.7279   364.1   11.785      33.811
2015    8       14    14   1    4.7352   364.2   11.799      33.870
2015    8       14    14   8    4.7424   364.4   11.812      33.930
2015    8       14    14  15    4.7495   364.5   11.825      33.991
2015    8       14    14  22    4.7566   364.7   11.837      34.052
2015    8       14    14  29    4.7635   364.9   11.849      34.113
2015    8       14    14  36    4.7704   365.0   11.860      34.173
2015    8       14    14  43    4.7771   365.2   11.871      34.232
2015    8       14    14  50    4.7837   365.3   11.881      34.291
2015    8       14    14  57    4.7903   365.5   11.890      34.349
2015    8       14    15   3    4.7967   365.7   11.899      34.407
2015    8       14    15  10    4.8030   365.8   11.907      34.464
2015    8       14    15  17    4.8093   366.0   11.915      34.521
2015    8       14    15  24    4.8155   366.2   11.922      34.576
2015    8       14    15  31    4.8217   366.3   11.929      34.632
2015    8       14    15  38    4.8278   366.5   11.936      34.687
2015    8       14    15  45    4.8338   366.7   11.942      34.741
2015    8       14    15  52    4.8398   366.8   11.948      34.796
2015    8       14    15  59    4.8457   367.0   11.954      34.850
2015    8       14    16   6    4.8516   367.2   11.959      34.904
2015    8       14    16  13    4.8575   367.3   11.964      34.958
2015    8       14    16  20    4.8633   367.5   11.969      35.011
2015    8       14    16  27    4.8691   367.7   11.973      35.064
2015    8       14    16  34    4.8749   367.8   11.977      35.117
2015    8       14    16  41    4.8807   368.0   11.981      35.170
2015    8       14    16  48    4.8864   368.2   11.985      35.222
2015    8       14    16  55    4.8922   368.3   11.989      35.275
2015    8       14    17   2    4.8980   368.5   11.993      35.327
2015    8       14    17   9    4.9038   368.7   11.997      35.379
2015    8       14    17  16    4.9096   368.8   12.000      35.431
2015    8       14    17  23    4.9154   369.0   12.004      35.484
2015    8       14    17  30    4.9213   369.1   12.008      35.536
2015    8       14    17  37    4.9272   369.3   12.012      35.589
2015    8       14    17  44    4.9332   369.5   12.016      35.642
2015    8       14    17  51    4.9391   369.6   12.020      35.696
2015    8       14    17  58    4.9452   369.8   12.024      35.750
2015    8       14    18   5    4.9512   370.0   12.029      35.804
2015    8       14    18  12    4.9574   370.1   12.034      35.860
2015    8       14    18  18    4.9637   370.3   12.039      35.916
2015    8       14    18  25    4.9700   370.4   12.045      35.972
2015    8       14    18  32    4.9764   370.6   12.050      36.030
2015    8       14    18  39    4.9828   370.8   12.056      36.090
2015    8       14    18  46    4.9892   370.9   12.062      36.151
2015    8       14    18  53    4.9956   371.1   12.068      36.213
2015    8       14    19   0    5.0020   371.2   12.074      36.275
2015    8       14    19   7    5.0084   371.4   12.079      36.338
2015    8       14    19  14    5.0147   371.6   12.084      36.402
2015    8       14    19  21    5.0211   371.8   12.090      36.465
2015    8       14    19  28    5.0274   371.9   12.094      36.527
2015    8       14    19  35    5.0336   372.1   12.099      36.588
2015    8       14    19  42    5.0398   372.3   12.104      36.649
2015    8       14    19  49    5.0459   372.4   12.108      36.708
2015    8       14    19  56    5.0519   372.6   12.112      36.768
2015    8       14    20   3    5.0579   372.8   12.116      36.827
2015    8       14    20  10    5.0638   373.0   12.119      36.885
2015    8       14    20  17    5.0696   373.2   12.122      36.944
2015    8       14    20  24    5.0753   373.4   12.125      37.001
2015    8       14    20  31    5.0810   373.5   12.127      37.059
2015    8       14    20  38    5.0866   373.7   12.129      37.116
2015    8       14    20  45    5.0922   373.9   12.131      37.172
2015    8       14    20  52    5.0976   374.1   12.133      37.228
2015    8       14    20  59    5.1030   374.3   12.134      37.283
2015    8       14    21   5    5.1084   374.5   12.135      37.337
2015    8       14    21  12    5.1136   374.7   12.135      37.390
2015    8       14    21  19    5.1188   374.9   12.136      37.442
2015    8       14    21  26    5.1240   375.1   12.136      37.494
2015    8       14    21  33    5.1290   375.3   12.135      37.546
2015    8       14    21  40    5.1341   375.5   12.135      37.596
2015    8       14    21  47    5.1390   375.7   12.135      37.647
2015    8       14    21  54    5.1440   375.9   12.134      37.696
2015    8       14    22   1    5.1488   376.1   12.133      37.746
2015    8       14    22   8    5.1537   376.3   12.132      37.795
2015    8       14    22  15    5.1585   376.5   12.131      37.843
2015    8       14    22  22    5.1633   376.7   12.130      37.892
2015    8       14    22  29    5.1681   376.9   12.129      37.940
2015    8       14    22  36    5.1729   377.0   12.128      37.988
2015    8       14    22  43    5.1776   377.2   12.127      38.036
2015    8       14    22  50    5.1824   377.4   12.126      38.083
2015    8       14    22  57    5.1871   377.6   12.126      38.131
2015    8       14    23   4    5.1919   377.8   12.125      38.178
2015    8       14    23  11    5.1966   378.0   12.124      38.226
2015    8       14    23  18    5.2014   378.2   12.124      38.273
2015    8       14    23  25    5.2062   378.4   12.123      38.321
2015    8       14    23  32    5.2111   378.6   12.123      38.370
2015    8       14    23  39    5.2160   378.8   12.124      38.418
2015    8       14    23  46    5.2209   379.0   12.124      38.468
2015    8       14    23  53    5.2259   379.2   12.125      38.517
2015    8       15     0   0    5.2309   379.4   12.126      38.568
2015    8       15     0   6    5.2361   379.6   12.128      38.620
2015    8       15     0  13    5.2413   379.8   12.131      38.673
2015    8       15     0  20    5.2466   380.0   12.134      38.727
2015    8       15     0  27    5.2521   380.2   12.138      38.782
2015    8       15     0  34    5.2577   380.4   12.143      38.839
2015    8       15     0  41    5.2634   380.6   12.148      38.898
2015    8       15     0  48    5.2692   380.8   12.154      38.960
2015    8       15     0  55    5.2752   381.1   12.161      39.027
2015    8       15     1   2    5.2812   381.3   12.167      39.096
2015    8       15     1   9    5.2873   381.5   12.175      39.169
2015    8       15     1  16    5.2934   381.8   12.182      39.246
2015    8       15     1  23    5.2995   382.0   12.189      39.328
2015    8       15     1  30    5.3055   382.3   12.196      39.412
2015    8       15     1  37    5.3115   382.5   12.202      39.496
2015    8       15     1  44    5.3173   382.8   12.208      39.582
2015    8       15     1  51    5.3231   383.0   12.213      39.669
2015    8       15     1  58    5.3287   383.3   12.217      39.755
2015    8       15     2   5    5.3342   383.5   12.221      39.841
2015    8       15     2  12    5.3395   383.8   12.223      39.924
2015    8       15     2  19    5.3447   384.0   12.225      40.007
2015    8       15     2  26    5.3498   384.3   12.226      40.088
2015    8       15     2  33    5.3547   384.5   12.226      40.167
2015    8       15     2  40    5.3595   384.8   12.226      40.244
2015    8       15     2  47    5.3643   385.1   12.225      40.320
2015    8       15     2  54    5.3689   385.3   12.223      40.394
2015    8       15     3   1    5.3735   385.6   12.220      40.467
2015    8       15     3   8    5.3779   385.8   12.217      40.538
2015    8       15     3  15    5.3823   386.1   12.214      40.607
2015    8       15     3  21    5.3866   386.4   12.210      40.675
2015    8       15     3  28    5.3908   386.6   12.205      40.742
2015    8       15     3  35    5.3950   386.9   12.200      40.807
2015    8       15     3  42    5.3991   387.1   12.194      40.872
2015    8       15     3  49    5.4032   387.4   12.188      40.935
2015    8       15     3  56    5.4072   387.7   12.182      40.997
2015    8       15     4   3    5.4112   387.9   12.175      41.058
2015    8       15     4  10    5.4151   388.2   12.168      41.118
2015    8       15     4  17    5.4189   388.5   12.160      41.177
2015    8       15     4  24    5.4227   388.8   12.152      41.235
2015    8       15     4  31    5.4265   389.0   12.144      41.292
2015    8       15     4  38    5.4301   389.3   12.135      41.348
2015    8       15     4  45    5.4337   389.6   12.126      41.403
2015    8       15     4  52    5.4372   389.9   12.116      41.456
2015    8       15     4  59    5.4406   390.2   12.107      41.509
2015    8       15     5   6    5.4440   390.4   12.097      41.560
2015    8       15     5  13    5.4473   390.7   12.086      41.610
2015    8       15     5  20    5.4505   391.0   12.076      41.659
2015    8       15     5  27    5.4537   391.3   12.065      41.707
2015    8       15     5  34    5.4568   391.5   12.055      41.755
2015    8       15     5  41    5.4598   391.8   12.044      41.801
2015    8       15     5  48    5.4628   392.1   12.034      41.847
2015    8       15     5  55    5.4658   392.3   12.023      41.892
2015    8       15     6   2    5.4688   392.6   12.013      41.937
2015    8       15     6   8    5.4717   392.9   12.002      41.981
2015    8       15     6  15    5.4746   393.1   11.992      42.026
2015    8       15     6  22    5.4775   393.4   11.982      42.071
2015    8       15     6  29    5.4804   393.7   11.973      42.117
2015    8       15     6  36    5.4833   394.0   11.963      42.162
2015    8       15     6  43    5.4863   394.2   11.954      42.209
2015    8       15     6  50    5.4892   394.5   11.945      42.256
2015    8       15     6  57    5.4922   394.8   11.937      42.303
2015    8       15     7   4    5.4953   395.0   11.929      42.352
2015    8       15     7  11    5.4983   395.3   11.921      42.401
2015    8       15     7  18    5.5014   395.6   11.914      42.452
2015    8       15     7  25    5.5045   395.8   11.907      42.504
2015    8       15     7  32    5.5077   396.1   11.900      42.559
2015    8       15     7  39    5.5108   396.4   11.893      42.617
2015    8       15     7  46    5.5139   396.7   11.886      42.677
2015    8       15     7  53    5.5170   397.0   11.879      42.741
2015    8       15     8   0    5.5201   397.3   11.872      42.806
2015    8       15     8   7    5.5231   397.6   11.865      42.874
2015    8       15     8  14    5.5261   397.9   11.858      42.943
2015    8       15     8  21    5.5291   398.2   11.850      43.012
2015    8       15     8  28    5.5320   398.5   11.843      43.081
2015    8       15     8  35    5.5349   398.8   11.835      43.150
2015    8       15     8  42    5.5377   399.2   11.827      43.220
2015    8       15     8  49    5.5404   399.5   11.818      43.291
2015    8       15     8  56    5.5431   399.8   11.809      43.362
2015    8       15     9   3    5.5457   400.1   11.799      43.434
2015    8       15     9  10    5.5483   400.4   11.789      43.505
2015    8       15     9  17    5.5507   400.8   11.779      43.576
2015    8       15     9  24    5.5531   401.1   11.768      43.646
2015    8       15     9  30    5.5554   401.4   11.757      43.716
2015    8       15     9  37    5.5576   401.7   11.745      43.784
2015    8       15     9  44    5.5597   402.0   11.732      43.852
2015    8       15     9  51    5.5617   402.4   11.720      43.918
2015    8       15     9  58    5.5637   402.7   11.706      43.983
2015    8       15    10   5    5.5655   403.0   11.692      44.047
2015    8       15    10  12    5.5673   403.4   11.678      44.109
2015    8       15    10  19    5.5690   403.7   11.663      44.170
2015    8       15    10  26    5.5707   404.0   11.647      44.230
2015    8       15    10  33    5.5722   404.4   11.632      44.289
2015    8       15    10  40    5.5737   404.7   11.615      44.346
2015    8       15    10  47    5.5752   405.0   11.599      44.402
2015    8       15    10  54    5.5765   405.4   11.581      44.457
2015    8       15    11   1    5.5778   405.7   11.564      44.511
2015    8       15    11   8    5.5791   406.1   11.546      44.563
2015    8       15    11  15    5.5802   406.4   11.528      44.614
2015    8       15    11  22    5.5813   406.8   11.509      44.663
2015    8       15    11  29    5.5823   407.2   11.489      44.712
2015    8       15    11  36    5.5831   407.5   11.469      44.760
2015    8       15    11  43    5.5838   407.9   11.449      44.806
2015    8       15    11  50    5.5844   408.3   11.428      44.852
2015    8       15    11  57    5.5848   408.7   11.406      44.898
2015    8       15    12   4    5.5849   409.1   11.383      44.944
2015    8       15    12  11    5.5849   409.5   11.360      44.990
2015    8       15    12  17    5.5845   410.0   11.335      45.035
2015    8       15    12  24    5.5838   410.4   11.310      45.079
2015    8       15    12  31    5.5827   410.8   11.283      45.120
2015    8       15    12  38    5.5813   411.2   11.254      45.160
2015    8       15    12  45    5.5793   411.7   11.223      45.199
2015    8       15    12  52    5.5767   412.1   11.191      45.231
2015    8       15    12  59    5.5734   412.5   11.157      45.255
2015    8       15    13   6    5.5697   413.0   11.121      45.274
2015    8       15    13  13    5.5655   413.3   11.085      45.287
2015    8       15    13  20    5.5611   413.7   11.048      45.296
2015    8       15    13  27    5.5564   414.1   11.012      45.300
2015    8       15    13  34    5.5516   414.4   10.976      45.301
2015    8       15    13  41    5.5468   414.8   10.940      45.302
2015    8       15    13  48    5.5423   415.1   10.906      45.305
2015    8       15    13  55    5.5378   415.5   10.873      45.310
2015    8       15    14   2    5.5335   415.8   10.840      45.317
2015    8       15    14   9    5.5292   416.1   10.809      45.326
2015    8       15    14  16    5.5252   416.5   10.778      45.337
2015    8       15    14  23    5.5212   416.8   10.748      45.349
2015    8       15    14  30    5.5175   417.1   10.719      45.364
2015    8       15    14  37    5.5138   417.5   10.691      45.381
2015    8       15    14  44    5.5103   417.8   10.664      45.399
2015    8       15    14  51    5.5069   418.1   10.637      45.420
2015    8       15    14  58    5.5036   418.5   10.611      45.443
2015    8       15    15   5    5.5004   418.8   10.585      45.467
2015    8       15    15  12    5.4973   419.1   10.560      45.492
2015    8       15    15  19    5.4942   419.5   10.535      45.519
2015    8       15    15  25    5.4912   419.8   10.511      45.546
2015    8       15    15  32    5.4882   420.1   10.486      45.575
2015    8       15    15  39    5.4852   420.5   10.462      45.604
2015    8       15    15  46    5.4822   420.8   10.438      45.634
2015    8       15    15  53    5.4793   421.1   10.415      45.664
2015    8       15    16   0    5.4764   421.5   10.391      45.695
2015    8       15    16   7    5.4734   421.8   10.367      45.726
2015    8       15    16  14    5.4704   422.1   10.343      45.758
2015    8       15    16  21    5.4675   422.5   10.320      45.791
2015    8       15    16  28    5.4644   422.8   10.296      45.824
2015    8       15    16  35    5.4614   423.2   10.272      45.858
2015    8       15    16  42    5.4582   423.5   10.248      45.892
2015    8       15    16  49    5.4550   423.9   10.224      45.924
2015    8       15    16  56    5.4517   424.2   10.199      45.957
2015    8       15    17   3    5.4484   424.6   10.175      45.988
2015    8       15    17  10    5.4450   424.9   10.150      46.018
2015    8       15    17  17    5.4415   425.3   10.125      46.047
2015    8       15    17  24    5.4379   425.7   10.100      46.076
2015    8       15    17  31    5.4342   426.0   10.075      46.104
2015    8       15    17  38    5.4302   426.4   10.048      46.131
2015    8       15    17  45    5.4262   426.8   10.022      46.157
2015    8       15    17  52    5.4220   427.1    9.995      46.181
2015    8       15    17  59    5.4176   427.5    9.968      46.203
2015    8       15    18   6    5.4130   427.9    9.939      46.223
2015    8       15    18  13    5.4082   428.3    9.911      46.240
2015    8       15    18  20    5.4031   428.6    9.881      46.254
2015    8       15    18  26    5.3978   429.0    9.851      46.267
2015    8       15    18  33    5.3921   429.4    9.820      46.277
2015    8       15    18  40    5.3862   429.8    9.787      46.281
2015    8       15    18  47    5.3798   430.2    9.754      46.280
2015    8       15    18  54    5.3732   430.5    9.721      46.276
2015    8       15    19   1    5.3662   430.9    9.687      46.268
2015    8       15    19   8    5.3591   431.3    9.653      46.259
2015    8       15    19  15    5.3517   431.7    9.619      46.247
2015    8       15    19  22    5.3443   432.0    9.585      46.237
2015    8       15    19  29    5.3368   432.4    9.552      46.228
2015    8       15    19  36    5.3293   432.8    9.518      46.221
2015    8       15    19  43    5.3214   433.2    9.484      46.214
2015    8       15    19  50    5.3135   433.6    9.449      46.206
2015    8       15    19  57    5.3053   434.0    9.414      46.198
2015    8       15    20   4    5.2969   434.5    9.377      46.191
2015    8       15    20  11    5.2880   434.9    9.340      46.177
2015    8       15    20  18    5.2789   435.3    9.301      46.158
2015    8       15    20  25    5.2694   435.7    9.263      46.133
2015    8       15    20  32    5.2598   436.1    9.224      46.105
2015    8       15    20  39    5.2500   436.4    9.185      46.075
2015    8       15    20  46    5.2402   436.8    9.147      46.039
2015    8       15    20  53    5.2305   437.1    9.110      46.002
2015    8       15    21   0    5.2211   437.4    9.075      45.967
2015    8       15    21   7    5.2118   437.7    9.040      45.934
2015    8       15    21  13    5.2027   438.0    9.006      45.905
2015    8       15    21  20    5.1938   438.3    8.974      45.877
2015    8       15    21  27    5.1851   438.7    8.942      45.852
2015    8       15    21  34    5.1766   439.0    8.911      45.828
2015    8       15    21  41    5.1682   439.3    8.882      45.807
2015    8       15    21  48    5.1600   439.6    8.853      45.788
2015    8       15    21  55    5.1520   439.9    8.825      45.772
2015    8       15    22   2    5.1441   440.2    8.797      45.758
2015    8       15    22   9    5.1363   440.5    8.771      45.745
2015    8       15    22  16    5.1285   440.8    8.744      45.733
2015    8       15    22  23    5.1208   441.1    8.718      45.723
2015    8       15    22  30    5.1131   441.4    8.692      45.714
2015    8       15    22  37    5.1055   441.7    8.666      45.705
2015    8       15    22  44    5.0978   442.0    8.641      45.697
2015    8       15    22  51    5.0902   442.4    8.615      45.689
2015    8       15    22  58    5.0824   442.7    8.590      45.681
2015    8       15    23   5    5.0747   443.0    8.564      45.672
2015    8       15    23  12    5.0669   443.3    8.539      45.663
2015    8       15    23  19    5.0590   443.6    8.513      45.654
2015    8       15    23  26    5.0511   443.9    8.486      45.643
2015    8       15    23  33    5.0431   444.2    8.460      45.630
2015    8       15    23  40    5.0349   444.5    8.434      45.616
2015    8       15    23  47    5.0267   444.8    8.407      45.600
2015    8       15    23  54    5.0184   445.1    8.381      45.583
2015    8       16     0   1    5.0102   445.4    8.355      45.566
2015    8       16     0   8    5.0018   445.7    8.329      45.549
2015    8       16     0  15    4.9934   446.0    8.303      45.532
2015    8       16     0  22    4.9849   446.3    8.277      45.515
2015    8       16     0  28    4.9764   446.6    8.251      45.496
2015    8       16     0  35    4.9678   446.9    8.225      45.477
2015    8       16     0  42    4.9592   447.2    8.199      45.458
2015    8       16     0  49    4.9503   447.5    8.173      45.437
2015    8       16     0  56    4.9415   447.8    8.146      45.415
2015    8       16     1   3    4.9324   448.2    8.119      45.391
2015    8       16     1  10    4.9232   448.5    8.092      45.365
2015    8       16     1  17    4.9137   448.8    8.063      45.338
2015    8       16     1  24    4.9040   449.1    8.034      45.306
2015    8       16     1  31    4.8940   449.4    8.005      45.270
2015    8       16     1  38    4.8838   449.7    7.974      45.228
2015    8       16     1  45    4.8732   450.0    7.944      45.184
2015    8       16     1  52    4.8627   450.3    7.914      45.136
2015    8       16     1  59    4.8520   450.6    7.884      45.084
2015    8       16     2   6    4.8413   450.8    7.855      45.031
2015    8       16     2  13    4.8307   451.0    7.826      44.978
2015    8       16     2  20    4.8202   451.3    7.798      44.927
2015    8       16     2  27    4.8098   451.5    7.771      44.877
2015    8       16     2  34    4.7996   451.7    7.744      44.829
2015    8       16     2  41    4.7896   452.0    7.719      44.781
2015    8       16     2  48    4.7797   452.2    7.694      44.735
2015    8       16     2  55    4.7700   452.4    7.669      44.690
2015    8       16     3   2    4.7605   452.6    7.646      44.648
2015    8       16     3   9    4.7511   452.8    7.623      44.607
2015    8       16     3  15    4.7419   453.0    7.601      44.568
2015    8       16     3  22    4.7328   453.1    7.580      44.529
2015    8       16     3  29    4.7239   453.3    7.559      44.493
2015    8       16     3  36    4.7151   453.5    7.538      44.458
2015    8       16     3  43    4.7064   453.7    7.518      44.425
2015    8       16     3  50    4.6977   454.0    7.498      44.393
2015    8       16     3  57    4.6891   454.2    7.478      44.362
2015    8       16     4   4    4.6806   454.4    7.458      44.331
2015    8       16     4  11    4.6722   454.6    7.439      44.302
2015    8       16     4  18    4.6637   454.9    7.420      44.271
2015    8       16     4  25    4.6553   455.1    7.400      44.240
2015    8       16     4  32    4.6469   455.3    7.381      44.209
2015    8       16     4  39    4.6386   455.5    7.362      44.178
2015    8       16     4  46    4.6302   455.7    7.342      44.147
2015    8       16     4  53    4.6217   455.9    7.322      44.116
2015    8       16     5   0    4.6132   456.1    7.302      44.084
2015    8       16     5   7    4.6046   456.3    7.282      44.052
2015    8       16     5  14    4.5960   456.6    7.262      44.019
2015    8       16     5  21    4.5873   456.8    7.241      43.985
2015    8       16     5  28    4.5785   457.0    7.220      43.950
2015    8       16     5  35    4.5697   457.2    7.199      43.913
2015    8       16     5  42    4.5609   457.5    7.178      43.874
2015    8       16     5  49    4.5521   457.7    7.157      43.835
2015    8       16     5  56    4.5432   457.9    7.136      43.794
2015    8       16     6   3    4.5343   458.0    7.115      43.751
2015    8       16     6  10    4.5255   458.2    7.094      43.705
2015    8       16     6  17    4.5167   458.4    7.073      43.658
2015    8       16     6  24    4.5079   458.6    7.052      43.609
2015    8       16     6  30    4.4992   458.7    7.032      43.561
2015    8       16     6  37    4.4906   458.9    7.012      43.514
2015    8       16     6  44    4.4821   459.1    6.993      43.469
2015    8       16     6  51    4.4737   459.2    6.974      43.425
2015    8       16     6  58    4.4653   459.4    6.956      43.382
2015    8       16     7   5    4.4571   459.6    6.938      43.340
2015    8       16     7  12    4.4489   459.8    6.921      43.298
2015    8       16     7  19    4.4406   460.0    6.903      43.256
2015    8       16     7  26    4.4325   460.2    6.886      43.215
2015    8       16     7  33    4.4242   460.4    6.868      43.172
2015    8       16     7  40    4.4160   460.6    6.851      43.129
2015    8       16     7  47    4.4077   460.8    6.833      43.086
2015    8       16     7  54    4.3993   460.9    6.816      43.042
2015    8       16     8   1    4.3908   461.1    6.798      42.997
2015    8       16     8   8    4.3823   461.3    6.780      42.952
2015    8       16     8  15    4.3738   461.5    6.763      42.906
2015    8       16     8  22    4.3652   461.7    6.745      42.860
2015    8       16     8  29    4.3566   461.8    6.728      42.813
2015    8       16     8  36    4.3481   462.0    6.710      42.766
2015    8       16     8  43    4.3396   462.1    6.693      42.718
2015    8       16     8  50    4.3312   462.3    6.675      42.672
2015    8       16     8  57    4.3228   462.5    6.658      42.624
2015    8       16     9   4    4.3145   462.6    6.641      42.578
2015    8       16     9  11    4.3063   462.8    6.624      42.531
2015    8       16     9  18    4.2982   462.9    6.607      42.484
2015    8       16     9  24    4.2902   463.1    6.591      42.437
2015    8       16     9  31    4.2822   463.2    6.575      42.390
2015    8       16     9  38    4.2743   463.3    6.558      42.343
2015    8       16     9  45    4.2665   463.4    6.543      42.296
2015    8       16     9  52    4.2588   463.6    6.527      42.249
2015    8       16     9  59    4.2511   463.7    6.512      42.203
2015    8       16    10   6    4.2435   463.8    6.497      42.157
2015    8       16    10  13    4.2360   463.9    6.482      42.112
2015    8       16    10  20    4.2286   464.0    6.467      42.067
2015    8       16    10  27    4.2212   464.1    6.453      42.023
2015    8       16    10  34    4.2138   464.2    6.439      41.979
2015    8       16    10  41    4.2065   464.4    6.425      41.935
2015    8       16    10  48    4.1992   464.5    6.411      41.893
2015    8       16    10  55    4.1920   464.6    6.397      41.850
2015    8       16    11   2    4.1847   464.7    6.384      41.808
2015    8       16    11   9    4.1775   464.8    6.370      41.764
2015    8       16    11  16    4.1702   464.9    6.357      41.720
2015    8       16    11  23    4.1630   465.0    6.343      41.676
2015    8       16    11  30    4.1557   465.1    6.330      41.630
2015    8       16    11  37    4.1486   465.2    6.317      41.586
2015    8       16    11  44    4.1414   465.3    6.305      41.541
2015    8       16    11  51    4.1344   465.4    6.292      41.497
2015    8       16    11  58    4.1275   465.4    6.280      41.454
2015    8       16    12   5    4.1207   465.5    6.268      41.411
2015    8       16    12  12    4.1139   465.5    6.256      41.368
2015    8       16    12  18    4.1072   465.6    6.244      41.325
2015    8       16    12  25    4.1006   465.6    6.233      41.282
2015    8       16    12  32    4.0941   465.7    6.221      41.240
2015    8       16    12  39    4.0877   465.7    6.210      41.200
2015    8       16    12  46    4.0812   465.8    6.199      41.160
2015    8       16    12  53    4.0749   465.9    6.188      41.121
2015    8       16    13   0    4.0686   466.0    6.177      41.084
2015    8       16    13   7    4.0623   466.0    6.166      41.046
2015    8       16    13  14    4.0561   466.1    6.156      41.007
2015    8       16    13  21    4.0499   466.2    6.145      40.967
2015    8       16    13  28    4.0438   466.3    6.134      40.927
2015    8       16    13  35    4.0376   466.4    6.123      40.884
2015    8       16    13  42    4.0314   466.5    6.112      40.842
2015    8       16    13  49    4.0252   466.5    6.101      40.800
2015    8       16    13  56    4.0190   466.6    6.090      40.757
2015    8       16    14   3    4.0127   466.7    6.079      40.714
2015    8       16    14  10    4.0064   466.8    6.068      40.670
2015    8       16    14  17    4.0001   466.8    6.057      40.626
2015    8       16    14  24    3.9938   466.9    6.046      40.582
2015    8       16    14  31    3.9875   467.0    6.035      40.536
2015    8       16    14  38    3.9812   467.1    6.024      40.491
2015    8       16    14  45    3.9750   467.1    6.013      40.445
2015    8       16    14  52    3.9688   467.2    6.003      40.400
2015    8       16    14  59    3.9626   467.2    5.992      40.355
2015    8       16    15   6    3.9565   467.3    5.982      40.310
2015    8       16    15  13    3.9504   467.3    5.971      40.265
2015    8       16    15  20    3.9443   467.4    5.961      40.220
2015    8       16    15  27    3.9383   467.4    5.951      40.175
2015    8       16    15  33    3.9323   467.5    5.941      40.131
2015    8       16    15  40    3.9264   467.5    5.931      40.086
2015    8       16    15  47    3.9205   467.6    5.922      40.042
2015    8       16    15  54    3.9147   467.6    5.912      39.998
2015    8       16    16   1    3.9089   467.7    5.903      39.955
2015    8       16    16   8    3.9032   467.7    5.893      39.912
2015    8       16    16  15    3.8974   467.8    5.884      39.869
2015    8       16    16  22    3.8918   467.8    5.876      39.826
2015    8       16    16  29    3.8861   467.9    5.867      39.783
2015    8       16    16  36    3.8805   467.9    5.858      39.740
2015    8       16    16  43    3.8749   468.0    5.849      39.697
2015    8       16    16  50    3.8694   468.0    5.841      39.653
2015    8       16    16  57    3.8639   468.0    5.832      39.609
2015    8       16    17   4    3.8585   468.1    5.824      39.566
2015    8       16    17  11    3.8532   468.1    5.816      39.522
2015    8       16    17  18    3.8479   468.1    5.807      39.478
2015    8       16    17  25    3.8426   468.1    5.799      39.435
2015    8       16    17  32    3.8375   468.1    5.792      39.392
2015    8       16    17  39    3.8323   468.1    5.784      39.349
2015    8       16    17  46    3.8273   468.2    5.776      39.306
2015    8       16    17  53    3.8223   468.2    5.769      39.265
2015    8       16    18   0    3.8174   468.2    5.761      39.223
2015    8       16    18   7    3.8125   468.2    5.754      39.183
2015    8       16    18  14    3.8077   468.1    5.748      39.142
2015    8       16    18  20    3.8029   468.1    5.741      39.103
2015    8       16    18  27    3.7982   468.1    5.734      39.064
2015    8       16    18  34    3.7936   468.1    5.728      39.027
2015    8       16    18  41    3.7890   468.1    5.722      38.989
2015    8       16    18  48    3.7844   468.1    5.716      38.953
2015    8       16    18  55    3.7800   468.1    5.710      38.917
2015    8       16    19   2    3.7755   468.1    5.704      38.881
2015    8       16    19   9    3.7712   468.0    5.699      38.845
2015    8       16    19  16    3.7668   468.0    5.693      38.809
2015    8       16    19  23    3.7625   468.0    5.688      38.774
2015    8       16    19  30    3.7583   468.0    5.682      38.738
2015    8       16    19  37    3.7541   468.0    5.677      38.702
2015    8       16    19  44    3.7500   467.9    5.671      38.666
2015    8       16    19  51    3.7459   467.9    5.666      38.630
2015    8       16    19  58    3.7418   467.9    5.660      38.594
2015    8       16    20   5    3.7378   467.9    5.655      38.558
2015    8       16    20  12    3.7338   467.8    5.650      38.522
2015    8       16    20  19    3.7299   467.8    5.644      38.486
2015    8       16    20  26    3.7260   467.8    5.639      38.451
2015    8       16    20  33    3.7221   467.8    5.634      38.415
2015    8       16    20  40    3.7183   467.8    5.629      38.379
2015    8       16    20  47    3.7145   467.7    5.624      38.343
2015    8       16    20  54    3.7107   467.7    5.619      38.308
2015    8       16    21   1    3.7069   467.7    5.614      38.272
2015    8       16    21   8    3.7032   467.7    5.609      38.237
2015    8       16    21  15    3.6995   467.6    5.604      38.202
2015    8       16    21  22    3.6959   467.6    5.600      38.167
2015    8       16    21  29    3.6923   467.6    5.595      38.132
2015    8       16    21  35    3.6887   467.5    5.591      38.097
2015    8       16    21  42    3.6851   467.5    5.586      38.063
2015    8       16    21  49    3.6816   467.5    5.582      38.029
2015    8       16    21  56    3.6781   467.4    5.578      37.995
2015    8       16    22   3    3.6747   467.4    5.573      37.961
2015    8       16    22  10    3.6713   467.4    5.569      37.928
2015    8       16    22  17    3.6679   467.3    5.565      37.895
2015    8       16    22  24    3.6646   467.3    5.562      37.862
2015    8       16    22  31    3.6614   467.3    5.558      37.830
2015    8       16    22  38    3.6582   467.2    5.554      37.798
2015    8       16    22  45    3.6550   467.2    5.551      37.767
2015    8       16    22  52    3.6519   467.2    5.548      37.736
2015    8       16    22  59    3.6488   467.1    5.544      37.705
2015    8       16    23   6    3.6457   467.1    5.541      37.675
2015    8       16    23  13    3.6427   467.0    5.539      37.646
2015    8       16    23  20    3.6397   467.0    5.536      37.616
2015    8       16    23  27    3.6368   467.0    5.533      37.587
2015    8       16    23  34    3.6339   466.9    5.530      37.559
2015    8       16    23  41    3.6310   466.9    5.528      37.531
2015    8       16    23  48    3.6282   466.8    5.526      37.503
2015    8       16    23  55    3.6254   466.8    5.523      37.476
2015    8       17     0   2    3.6226   466.8    5.521      37.449
