year    month   day   hour  minute  B_enl V_enl   n_enl       T_enl
[year] [month] [day] [hour][minute] [nT]  [km/s]  [cm-3]      [kK]
2015    8        1     0   1    5.0603   527.8    5.631      53.664
2015    8        1     0   8    5.0552   528.1    5.620      53.672
2015    8        1     0  15    5.0502   528.5    5.608      53.679
2015    8        1     0  22    5.0452   528.8    5.597      53.685
2015    8        1     0  28    5.0402   529.1    5.586      53.691
2015    8        1     0  35    5.0353   529.4    5.574      53.697
2015    8        1     0  42    5.0305   529.7    5.563      53.702
2015    8        1     0  49    5.0257   530.0    5.552      53.707
2015    8        1     0  56    5.0209   530.3    5.541      53.712
2015    8        1     1   3    5.0162   530.6    5.530      53.717
2015    8        1     1   9    5.0116   530.9    5.519      53.723
2015    8        1     1  16    5.0070   531.2    5.508      53.729
2015    8        1     1  23    5.0024   531.4    5.498      53.736
2015    8        1     1  30    4.9979   531.7    5.487      53.744
2015    8        1     1  37    4.9934   532.0    5.477      53.752
2015    8        1     1  44    4.9888   532.3    5.467      53.761
2015    8        1     1  50    4.9843   532.6    5.457      53.771
2015    8        1     1  57    4.9798   532.9    5.447      53.781
2015    8        1     2   4    4.9753   533.2    5.437      53.791
2015    8        1     2  11    4.9708   533.5    5.427      53.801
2015    8        1     2  18    4.9663   533.8    5.417      53.811
2015    8        1     2  25    4.9617   534.1    5.407      53.820
2015    8        1     2  31    4.9572   534.4    5.397      53.829
2015    8        1     2  38    4.9527   534.7    5.387      53.837
2015    8        1     2  45    4.9481   535.0    5.378      53.844
2015    8        1     2  52    4.9436   535.3    5.368      53.850
2015    8        1     2  59    4.9390   535.6    5.358      53.857
2015    8        1     3   5    4.9345   535.8    5.348      53.862
2015    8        1     3  12    4.9300   536.1    5.338      53.868
2015    8        1     3  19    4.9255   536.4    5.328      53.873
2015    8        1     3  26    4.9210   536.7    5.319      53.877
2015    8        1     3  33    4.9165   537.0    5.309      53.882
2015    8        1     3  40    4.9120   537.2    5.299      53.886
2015    8        1     3  46    4.9074   537.5    5.290      53.889
2015    8        1     3  53    4.9030   537.8    5.280      53.894
2015    8        1     4   0    4.8985   538.0    5.271      53.898
2015    8        1     4   7    4.8940   538.3    5.261      53.901
2015    8        1     4  14    4.8894   538.6    5.252      53.905
2015    8        1     4  21    4.8849   538.8    5.242      53.909
2015    8        1     4  27    4.8804   539.1    5.233      53.912
2015    8        1     4  34    4.8759   539.4    5.224      53.915
2015    8        1     4  41    4.8714   539.6    5.214      53.918
2015    8        1     4  48    4.8669   539.9    5.205      53.920
2015    8        1     4  55    4.8623   540.2    5.196      53.922
2015    8        1     5   2    4.8578   540.4    5.186      53.924
2015    8        1     5   8    4.8533   540.7    5.177      53.925
2015    8        1     5  15    4.8488   541.0    5.167      53.926
2015    8        1     5  22    4.8443   541.2    5.158      53.927
2015    8        1     5  29    4.8398   541.5    5.149      53.927
2015    8        1     5  36    4.8353   541.7    5.139      53.927
2015    8        1     5  43    4.8308   542.0    5.130      53.927
2015    8        1     5  49    4.8264   542.3    5.121      53.927
2015    8        1     5  56    4.8220   542.5    5.112      53.927
2015    8        1     6   3    4.8175   542.8    5.102      53.926
2015    8        1     6  10    4.8131   543.0    5.093      53.926
2015    8        1     6  17    4.8087   543.3    5.084      53.925
2015    8        1     6  24    4.8043   543.5    5.075      53.924
2015    8        1     6  30    4.7999   543.8    5.066      53.923
2015    8        1     6  37    4.7955   544.0    5.057      53.923
2015    8        1     6  44    4.7911   544.3    5.048      53.922
2015    8        1     6  51    4.7868   544.5    5.039      53.921
2015    8        1     6  58    4.7824   544.8    5.031      53.920
2015    8        1     7   5    4.7781   545.0    5.022      53.919
2015    8        1     7  11    4.7738   545.2    5.013      53.919
2015    8        1     7  18    4.7695   545.5    5.005      53.918
2015    8        1     7  25    4.7652   545.7    4.996      53.917
2015    8        1     7  32    4.7609   546.0    4.988      53.917
2015    8        1     7  39    4.7566   546.2    4.980      53.916
2015    8        1     7  46    4.7523   546.4    4.972      53.916
2015    8        1     7  52    4.7481   546.7    4.963      53.916
2015    8        1     7  59    4.7439   546.9    4.955      53.916
2015    8        1     8   6    4.7397   547.1    4.947      53.916
2015    8        1     8  13    4.7355   547.4    4.940      53.916
2015    8        1     8  20    4.7313   547.6    4.932      53.916
2015    8        1     8  27    4.7271   547.8    4.924      53.916
2015    8        1     8  33    4.7229   548.1    4.916      53.916
2015    8        1     8  40    4.7188   548.3    4.909      53.916
2015    8        1     8  47    4.7146   548.5    4.901      53.917
2015    8        1     8  54    4.7105   548.7    4.894      53.917
2015    8        1     9   1    4.7063   549.0    4.886      53.917
2015    8        1     9   7    4.7022   549.2    4.879      53.918
2015    8        1     9  14    4.6981   549.4    4.871      53.918
2015    8        1     9  21    4.6940   549.6    4.864      53.918
2015    8        1     9  28    4.6898   549.8    4.857      53.919
2015    8        1     9  35    4.6858   550.1    4.849      53.919
2015    8        1     9  42    4.6817   550.3    4.842      53.919
2015    8        1     9  48    4.6776   550.5    4.835      53.918
2015    8        1     9  55    4.6735   550.7    4.828      53.918
2015    8        1    10   2    4.6694   550.9    4.821      53.917
2015    8        1    10   9    4.6653   551.1    4.813      53.916
2015    8        1    10  16    4.6612   551.4    4.806      53.914
2015    8        1    10  23    4.6571   551.6    4.799      53.913
2015    8        1    10  29    4.6531   551.8    4.792      53.910
2015    8        1    10  36    4.6490   552.0    4.784      53.908
2015    8        1    10  43    4.6449   552.2    4.777      53.905
2015    8        1    10  50    4.6408   552.4    4.770      53.901
2015    8        1    10  57    4.6367   552.6    4.763      53.898
2015    8        1    11   4    4.6326   552.8    4.756      53.893
2015    8        1    11  10    4.6285   553.0    4.748      53.889
2015    8        1    11  17    4.6244   553.2    4.741      53.883
2015    8        1    11  24    4.6203   553.4    4.734      53.878
2015    8        1    11  31    4.6162   553.6    4.727      53.872
2015    8        1    11  38    4.6121   553.8    4.719      53.866
2015    8        1    11  45    4.6080   554.0    4.712      53.859
2015    8        1    11  51    4.6039   554.2    4.705      53.852
2015    8        1    11  58    4.5998   554.4    4.698      53.844
2015    8        1    12   5    4.5957   554.6    4.690      53.837
2015    8        1    12  12    4.5916   554.8    4.683      53.828
2015    8        1    12  19    4.5875   555.0    4.676      53.820
2015    8        1    12  26    4.5834   555.2    4.669      53.812
2015    8        1    12  32    4.5794   555.4    4.661      53.803
2015    8        1    12  39    4.5753   555.6    4.654      53.794
2015    8        1    12  46    4.5712   555.8    4.647      53.785
2015    8        1    12  53    4.5671   556.0    4.640      53.776
2015    8        1    13   0    4.5631   556.1    4.633      53.767
2015    8        1    13   7    4.5590   556.3    4.626      53.758
2015    8        1    13  13    4.5550   556.5    4.619      53.749
2015    8        1    13  20    4.5510   556.7    4.612      53.740
2015    8        1    13  27    4.5470   556.9    4.606      53.731
2015    8        1    13  34    4.5429   557.1    4.599      53.723
2015    8        1    13  41    4.5389   557.2    4.592      53.714
2015    8        1    13  48    4.5350   557.4    4.586      53.705
2015    8        1    13  54    4.5310   557.6    4.579      53.697
2015    8        1    14   1    4.5270   557.8    4.573      53.688
2015    8        1    14   8    4.5231   557.9    4.566      53.680
2015    8        1    14  15    4.5192   558.1    4.560      53.672
2015    8        1    14  22    4.5152   558.3    4.553      53.664
2015    8        1    14  29    4.5113   558.4    4.547      53.656
2015    8        1    14  35    4.5075   558.6    4.541      53.648
2015    8        1    14  42    4.5036   558.8    4.535      53.640
2015    8        1    14  49    4.4997   558.9    4.529      53.632
2015    8        1    14  56    4.4959   559.1    4.523      53.624
2015    8        1    15   3    4.4921   559.3    4.517      53.617
2015    8        1    15   9    4.4882   559.4    4.511      53.609
2015    8        1    15  16    4.4844   559.6    4.505      53.601
2015    8        1    15  23    4.4806   559.8    4.499      53.593
2015    8        1    15  30    4.4769   559.9    4.493      53.585
2015    8        1    15  37    4.4731   560.1    4.487      53.577
2015    8        1    15  44    4.4693   560.2    4.482      53.569
2015    8        1    15  50    4.4656   560.4    4.476      53.561
2015    8        1    15  57    4.4619   560.6    4.470      53.553
2015    8        1    16   4    4.4581   560.7    4.465      53.545
2015    8        1    16  11    4.4544   560.9    4.459      53.536
2015    8        1    16  18    4.4507   561.0    4.453      53.528
2015    8        1    16  25    4.4470   561.2    4.448      53.519
2015    8        1    16  31    4.4433   561.3    4.442      53.510
2015    8        1    16  38    4.4397   561.5    4.437      53.501
2015    8        1    16  45    4.4360   561.6    4.431      53.492
2015    8        1    16  52    4.4324   561.8    4.426      53.482
2015    8        1    16  59    4.4287   561.9    4.421      53.473
2015    8        1    17   6    4.4251   562.1    4.415      53.463
2015    8        1    17  12    4.4214   562.2    4.410      53.453
2015    8        1    17  19    4.4178   562.4    4.404      53.442
2015    8        1    17  26    4.4142   562.5    4.399      53.432
2015    8        1    17  33    4.4105   562.6    4.394      53.421
2015    8        1    17  40    4.4069   562.8    4.388      53.410
2015    8        1    17  47    4.4033   562.9    4.383      53.399
2015    8        1    17  53    4.3997   563.1    4.378      53.387
2015    8        1    18   0    4.3960   563.2    4.372      53.376
2015    8        1    18   7    4.3924   563.3    4.367      53.364
2015    8        1    18  14    4.3888   563.5    4.362      53.351
2015    8        1    18  21    4.3852   563.6    4.356      53.339
2015    8        1    18  28    4.3815   563.7    4.351      53.327
2015    8        1    18  34    4.3779   563.9    4.346      53.314
2015    8        1    18  41    4.3743   564.0    4.340      53.301
2015    8        1    18  48    4.3706   564.1    4.335      53.288
2015    8        1    18  55    4.3670   564.3    4.330      53.275
2015    8        1    19   2    4.3634   564.4    4.325      53.261
2015    8        1    19   8    4.3598   564.5    4.319      53.248
2015    8        1    19  15    4.3561   564.6    4.314      53.234
2015    8        1    19  22    4.3525   564.8    4.309      53.220
2015    8        1    19  29    4.3489   564.9    4.304      53.206
2015    8        1    19  36    4.3453   565.0    4.299      53.193
2015    8        1    19  43    4.3416   565.1    4.294      53.178
2015    8        1    19  49    4.3380   565.2    4.289      53.164
2015    8        1    19  56    4.3344   565.4    4.283      53.150
2015    8        1    20   3    4.3308   565.5    4.278      53.136
2015    8        1    20  10    4.3272   565.6    4.273      53.121
2015    8        1    20  17    4.3237   565.7    4.268      53.107
2015    8        1    20  24    4.3201   565.8    4.263      53.093
2015    8        1    20  30    4.3165   565.9    4.259      53.078
2015    8        1    20  37    4.3130   566.0    4.254      53.063
2015    8        1    20  44    4.3095   566.2    4.249      53.049
2015    8        1    20  51    4.3059   566.3    4.244      53.034
2015    8        1    20  58    4.3024   566.4    4.239      53.019
2015    8        1    21   5    4.2989   566.5    4.234      53.004
2015    8        1    21  11    4.2954   566.6    4.230      52.989
2015    8        1    21  18    4.2920   566.7    4.225      52.974
2015    8        1    21  25    4.2885   566.8    4.220      52.959
2015    8        1    21  32    4.2851   566.9    4.216      52.944
2015    8        1    21  39    4.2816   567.0    4.211      52.928
2015    8        1    21  46    4.2782   567.1    4.207      52.913
2015    8        1    21  52    4.2748   567.2    4.202      52.898
2015    8        1    21  59    4.2714   567.3    4.198      52.882
2015    8        1    22   6    4.2681   567.4    4.193      52.866
2015    8        1    22  13    4.2647   567.5    4.189      52.850
2015    8        1    22  20    4.2614   567.6    4.184      52.835
2015    8        1    22  27    4.2581   567.7    4.180      52.819
2015    8        1    22  33    4.2548   567.8    4.176      52.803
2015    8        1    22  40    4.2515   567.8    4.172      52.786
2015    8        1    22  47    4.2482   567.9    4.167      52.770
2015    8        1    22  54    4.2449   568.0    4.163      52.754
2015    8        1    23   1    4.2417   568.1    4.159      52.737
2015    8        1    23   8    4.2384   568.2    4.155      52.721
2015    8        1    23  14    4.2352   568.3    4.151      52.704
2015    8        1    23  21    4.2319   568.4    4.147      52.688
2015    8        1    23  28    4.2287   568.5    4.143      52.671
2015    8        1    23  35    4.2255   568.5    4.139      52.654
2015    8        1    23  42    4.2223   568.6    4.135      52.637
2015    8        1    23  49    4.2191   568.7    4.131      52.620
2015    8        1    23  55    4.2160   568.8    4.127      52.604
2015    8        2     0   2    4.2127   568.9    4.123      52.586
2015    8        2     0   9    4.2093   568.9    4.119      52.568
2015    8        2     0  16    4.2059   569.0    4.114      52.549
2015    8        2     0  23    4.2025   569.1    4.110      52.530
2015    8        2     0  30    4.1991   569.2    4.106      52.511
2015    8        2     0  36    4.1957   569.3    4.102      52.493
2015    8        2     0  43    4.1923   569.3    4.098      52.474
2015    8        2     0  50    4.1889   569.4    4.094      52.456
2015    8        2     0  57    4.1855   569.5    4.090      52.437
2015    8        2     1   4    4.1821   569.5    4.086      52.419
2015    8        2     1  11    4.1787   569.6    4.082      52.401
2015    8        2     1  17    4.1754   569.7    4.079      52.382
2015    8        2     1  24    4.1720   569.8    4.075      52.364
2015    8        2     1  31    4.1686   569.8    4.071      52.346
2015    8        2     1  38    4.1652   569.9    4.067      52.328
2015    8        2     1  45    4.1619   570.0    4.063      52.309
2015    8        2     1  51    4.1585   570.0    4.059      52.291
2015    8        2     1  58    4.1551   570.1    4.055      52.273
2015    8        2     2   5    4.1517   570.2    4.052      52.255
2015    8        2     2  12    4.1484   570.2    4.048      52.237
2015    8        2     2  19    4.1450   570.3    4.044      52.218
2015    8        2     2  26    4.1417   570.3    4.040      52.200
2015    8        2     2  32    4.1383   570.4    4.037      52.182
2015    8        2     2  39    4.1349   570.5    4.033      52.163
2015    8        2     2  46    4.1316   570.5    4.029      52.145
2015    8        2     2  53    4.1282   570.6    4.026      52.126
2015    8        2     3   0    4.1249   570.6    4.022      52.107
2015    8        2     3   7    4.1215   570.7    4.018      52.088
2015    8        2     3  13    4.1182   570.7    4.015      52.069
2015    8        2     3  20    4.1148   570.8    4.011      52.050
2015    8        2     3  27    4.1115   570.9    4.008      52.030
2015    8        2     3  34    4.1082   570.9    4.004      52.011
2015    8        2     3  41    4.1049   571.0    4.000      51.990
2015    8        2     3  48    4.1016   571.0    3.997      51.970
2015    8        2     3  54    4.0983   571.1    3.993      51.950
2015    8        2     4   1    4.0950   571.1    3.990      51.929
2015    8        2     4   8    4.0917   571.1    3.986      51.908
2015    8        2     4  15    4.0885   571.2    3.982      51.886
2015    8        2     4  22    4.0852   571.2    3.979      51.865
2015    8        2     4  29    4.0820   571.3    3.975      51.843
2015    8        2     4  35    4.0787   571.3    3.972      51.821
2015    8        2     4  42    4.0755   571.4    3.968      51.798
2015    8        2     4  49    4.0723   571.4    3.965      51.776
2015    8        2     4  56    4.0691   571.4    3.961      51.753
2015    8        2     5   3    4.0659   571.5    3.958      51.729
2015    8        2     5  10    4.0627   571.5    3.954      51.706
2015    8        2     5  16    4.0596   571.6    3.951      51.682
2015    8        2     5  23    4.0564   571.6    3.948      51.659
2015    8        2     5  30    4.0533   571.6    3.944      51.635
2015    8        2     5  37    4.0502   571.7    3.941      51.611
2015    8        2     5  44    4.0470   571.7    3.937      51.586
2015    8        2     5  51    4.0439   571.7    3.934      51.562
2015    8        2     5  57    4.0408   571.8    3.931      51.538
2015    8        2     6   4    4.0377   571.8    3.927      51.513
2015    8        2     6  11    4.0347   571.8    3.924      51.489
2015    8        2     6  18    4.0316   571.9    3.921      51.464
2015    8        2     6  25    4.0286   571.9    3.917      51.440
2015    8        2     6  32    4.0255   571.9    3.914      51.415
2015    8        2     6  38    4.0225   571.9    3.911      51.391
2015    8        2     6  45    4.0195   572.0    3.908      51.367
2015    8        2     6  52    4.0165   572.0    3.905      51.342
2015    8        2     6  59    4.0135   572.0    3.902      51.319
2015    8        2     7   6    4.0105   572.0    3.898      51.295
2015    8        2     7  13    4.0076   572.1    3.895      51.271
2015    8        2     7  19    4.0046   572.1    3.892      51.248
2015    8        2     7  26    4.0017   572.1    3.889      51.224
2015    8        2     7  33    3.9987   572.1    3.886      51.202
2015    8        2     7  40    3.9958   572.2    3.883      51.179
2015    8        2     7  47    3.9928   572.2    3.880      51.156
2015    8        2     7  53    3.9899   572.2    3.878      51.134
2015    8        2     8   0    3.9870   572.2    3.875      51.112
2015    8        2     8   7    3.9841   572.2    3.872      51.090
2015    8        2     8  14    3.9812   572.3    3.869      51.069
2015    8        2     8  21    3.9783   572.3    3.866      51.047
2015    8        2     8  28    3.9754   572.3    3.864      51.026
2015    8        2     8  34    3.9725   572.3    3.861      51.005
2015    8        2     8  41    3.9696   572.3    3.858      50.984
2015    8        2     8  48    3.9667   572.3    3.855      50.964
2015    8        2     8  55    3.9638   572.4    3.853      50.943
2015    8        2     9   2    3.9610   572.4    3.850      50.923
2015    8        2     9   9    3.9581   572.4    3.847      50.903
2015    8        2     9  15    3.9552   572.4    3.845      50.882
2015    8        2     9  22    3.9523   572.4    3.842      50.862
2015    8        2     9  29    3.9494   572.4    3.840      50.842
2015    8        2     9  36    3.9465   572.4    3.837      50.822
2015    8        2     9  43    3.9436   572.5    3.835      50.802
2015    8        2     9  50    3.9407   572.5    3.832      50.782
2015    8        2     9  56    3.9379   572.5    3.830      50.761
2015    8        2    10   3    3.9350   572.5    3.827      50.741
2015    8        2    10  10    3.9321   572.5    3.825      50.721
2015    8        2    10  17    3.9292   572.5    3.822      50.700
2015    8        2    10  24    3.9263   572.5    3.820      50.679
2015    8        2    10  30    3.9234   572.5    3.817      50.658
2015    8        2    10  37    3.9206   572.5    3.815      50.637
2015    8        2    10  44    3.9177   572.5    3.812      50.615
2015    8        2    10  51    3.9148   572.5    3.810      50.594
2015    8        2    10  58    3.9120   572.5    3.807      50.571
2015    8        2    11   5    3.9091   572.5    3.805      50.549
2015    8        2    11  11    3.9062   572.6    3.803      50.526
2015    8        2    11  18    3.9034   572.6    3.800      50.503
2015    8        2    11  25    3.9005   572.6    3.798      50.480
2015    8        2    11  32    3.8977   572.6    3.795      50.456
2015    8        2    11  39    3.8948   572.6    3.793      50.432
2015    8        2    11  46    3.8920   572.6    3.790      50.408
2015    8        2    11  52    3.8892   572.6    3.788      50.383
2015    8        2    11  59    3.8864   572.6    3.785      50.358
2015    8        2    12   6    3.8835   572.5    3.783      50.333
2015    8        2    12  13    3.8807   572.5    3.780      50.307
2015    8        2    12  20    3.8779   572.5    3.778      50.281
2015    8        2    12  27    3.8751   572.5    3.775      50.254
2015    8        2    12  33    3.8723   572.5    3.773      50.228
2015    8        2    12  40    3.8695   572.5    3.770      50.201
2015    8        2    12  47    3.8668   572.5    3.768      50.174
2015    8        2    12  54    3.8640   572.5    3.765      50.147
2015    8        2    13   1    3.8612   572.5    3.763      50.119
2015    8        2    13   7    3.8585   572.5    3.760      50.091
2015    8        2    13  14    3.8557   572.5    3.758      50.064
2015    8        2    13  21    3.8530   572.5    3.755      50.036
2015    8        2    13  28    3.8503   572.4    3.753      50.008
2015    8        2    13  35    3.8476   572.4    3.750      49.980
2015    8        2    13  42    3.8449   572.4    3.748      49.953
2015    8        2    13  48    3.8422   572.4    3.745      49.925
2015    8        2    13  55    3.8395   572.4    3.743      49.897
2015    8        2    14   2    3.8369   572.4    3.740      49.870
2015    8        2    14   9    3.8342   572.4    3.738      49.843
2015    8        2    14  16    3.8316   572.3    3.736      49.816
2015    8        2    14  23    3.8289   572.3    3.733      49.788
2015    8        2    14  29    3.8263   572.3    3.731      49.762
2015    8        2    14  36    3.8237   572.3    3.729      49.735
2015    8        2    14  43    3.8211   572.3    3.726      49.709
2015    8        2    14  50    3.8185   572.2    3.724      49.683
2015    8        2    14  57    3.8160   572.2    3.722      49.658
2015    8        2    15   4    3.8134   572.2    3.720      49.632
2015    8        2    15  10    3.8108   572.2    3.718      49.607
2015    8        2    15  17    3.8083   572.2    3.715      49.582
2015    8        2    15  24    3.8057   572.1    3.713      49.558
2015    8        2    15  31    3.8032   572.1    3.711      49.534
2015    8        2    15  38    3.8006   572.1    3.709      49.510
2015    8        2    15  44    3.7981   572.1    3.707      49.486
2015    8        2    15  51    3.7956   572.0    3.705      49.462
2015    8        2    15  58    3.7930   572.0    3.703      49.439
2015    8        2    16   5    3.7905   572.0    3.701      49.416
2015    8        2    16  12    3.7880   572.0    3.699      49.393
2015    8        2    16  19    3.7854   571.9    3.697      49.371
2015    8        2    16  25    3.7829   571.9    3.696      49.348
2015    8        2    16  32    3.7804   571.9    3.694      49.326
2015    8        2    16  39    3.7778   571.9    3.692      49.303
2015    8        2    16  46    3.7753   571.8    3.690      49.281
2015    8        2    16  53    3.7727   571.8    3.688      49.259
2015    8        2    17   0    3.7702   571.8    3.686      49.236
2015    8        2    17   6    3.7676   571.7    3.685      49.214
2015    8        2    17  13    3.7650   571.7    3.683      49.192
2015    8        2    17  20    3.7625   571.7    3.681      49.170
2015    8        2    17  27    3.7599   571.7    3.679      49.147
2015    8        2    17  34    3.7573   571.6    3.677      49.125
2015    8        2    17  41    3.7547   571.6    3.676      49.102
2015    8        2    17  47    3.7521   571.6    3.674      49.079
2015    8        2    17  54    3.7496   571.5    3.672      49.056
2015    8        2    18   1    3.7470   571.5    3.670      49.032
2015    8        2    18   8    3.7444   571.5    3.668      49.009
2015    8        2    18  15    3.7418   571.4    3.667      48.985
2015    8        2    18  22    3.7392   571.4    3.665      48.961
2015    8        2    18  28    3.7366   571.4    3.663      48.936
2015    8        2    18  35    3.7340   571.3    3.661      48.911
2015    8        2    18  42    3.7314   571.3    3.659      48.886
2015    8        2    18  49    3.7288   571.2    3.657      48.860
2015    8        2    18  56    3.7262   571.2    3.655      48.834
2015    8        2    19   3    3.7236   571.2    3.653      48.807
2015    8        2    19   9    3.7210   571.1    3.651      48.780
2015    8        2    19  16    3.7184   571.1    3.649      48.752
2015    8        2    19  23    3.7158   571.0    3.647      48.724
2015    8        2    19  30    3.7132   571.0    3.645      48.696
2015    8        2    19  37    3.7106   571.0    3.643      48.667
2015    8        2    19  44    3.7080   570.9    3.641      48.638
2015    8        2    19  50    3.7054   570.9    3.639      48.608
2015    8        2    19  57    3.7028   570.8    3.637      48.578
2015    8        2    20   4    3.7003   570.8    3.635      48.548
2015    8        2    20  11    3.6977   570.7    3.633      48.518
2015    8        2    20  18    3.6951   570.7    3.631      48.487
2015    8        2    20  25    3.6926   570.6    3.628      48.456
2015    8        2    20  31    3.6900   570.6    3.626      48.425
2015    8        2    20  38    3.6875   570.5    3.624      48.394
2015    8        2    20  45    3.6849   570.5    3.622      48.362
2015    8        2    20  52    3.6824   570.4    3.620      48.331
2015    8        2    20  59    3.6798   570.4    3.618      48.299
2015    8        2    21   6    3.6773   570.3    3.615      48.268
2015    8        2    21  12    3.6748   570.3    3.613      48.236
2015    8        2    21  19    3.6723   570.2    3.611      48.205
2015    8        2    21  26    3.6698   570.2    3.609      48.174
2015    8        2    21  33    3.6673   570.1    3.607      48.143
2015    8        2    21  40    3.6648   570.1    3.605      48.113
2015    8        2    21  46    3.6624   570.0    3.603      48.083
2015    8        2    21  53    3.6599   569.9    3.601      48.053
2015    8        2    22   0    3.6575   569.9    3.600      48.023
2015    8        2    22   7    3.6551   569.8    3.598      47.994
2015    8        2    22  14    3.6527   569.8    3.596      47.965
2015    8        2    22  21    3.6503   569.7    3.594      47.937
2015    8        2    22  27    3.6479   569.7    3.593      47.909
2015    8        2    22  34    3.6455   569.6    3.591      47.881
2015    8        2    22  41    3.6431   569.5    3.590      47.854
2015    8        2    22  48    3.6408   569.5    3.588      47.828
2015    8        2    22  55    3.6384   569.4    3.587      47.801
2015    8        2    23   2    3.6361   569.4    3.585      47.776
2015    8        2    23   8    3.6338   569.3    3.584      47.750
2015    8        2    23  15    3.6314   569.2    3.583      47.725
2015    8        2    23  22    3.6291   569.2    3.582      47.700
2015    8        2    23  29    3.6267   569.1    3.580      47.676
2015    8        2    23  36    3.6244   569.1    3.579      47.652
2015    8        2    23  43    3.6221   569.0    3.578      47.628
2015    8        2    23  49    3.6197   568.9    3.577      47.605
2015    8        2    23  56    3.6173   568.9    3.576      47.581
2015    8        3     0   3    3.6149   568.8    3.575      47.558
2015    8        3     0  10    3.6125   568.7    3.574      47.535
2015    8        3     0  17    3.6101   568.7    3.573      47.512
2015    8        3     0  24    3.6077   568.6    3.571      47.489
2015    8        3     0  30    3.6052   568.5    3.570      47.465
2015    8        3     0  37    3.6028   568.5    3.569      47.442
2015    8        3     0  44    3.6004   568.4    3.568      47.419
2015    8        3     0  51    3.5979   568.3    3.567      47.396
2015    8        3     0  58    3.5954   568.3    3.566      47.372
2015    8        3     1   5    3.5930   568.2    3.564      47.349
2015    8        3     1  11    3.5905   568.1    3.563      47.325
2015    8        3     1  18    3.5880   568.1    3.562      47.301
2015    8        3     1  25    3.5856   568.0    3.560      47.277
2015    8        3     1  32    3.5831   567.9    3.559      47.252
2015    8        3     1  39    3.5806   567.8    3.557      47.227
2015    8        3     1  46    3.5781   567.8    3.556      47.201
2015    8        3     1  52    3.5757   567.7    3.555      47.174
2015    8        3     1  59    3.5732   567.6    3.553      47.147
2015    8        3     2   6    3.5708   567.5    3.551      47.119
2015    8        3     2  13    3.5683   567.5    3.550      47.090
2015    8        3     2  20    3.5659   567.4    3.548      47.061
2015    8        3     2  26    3.5634   567.3    3.546      47.031
2015    8        3     2  33    3.5610   567.2    3.544      47.000
2015    8        3     2  40    3.5585   567.1    3.543      46.968
2015    8        3     2  47    3.5561   567.1    3.541      46.937
2015    8        3     2  54    3.5536   567.0    3.539      46.904
2015    8        3     3   1    3.5512   566.9    3.537      46.871
2015    8        3     3   7    3.5488   566.8    3.535      46.837
2015    8        3     3  14    3.5463   566.7    3.533      46.803
2015    8        3     3  21    3.5439   566.6    3.531      46.768
2015    8        3     3  28    3.5415   566.6    3.529      46.733
2015    8        3     3  35    3.5390   566.5    3.527      46.697
2015    8        3     3  42    3.5366   566.4    3.524      46.661
2015    8        3     3  48    3.5341   566.3    3.522      46.625
2015    8        3     3  55    3.5317   566.2    3.520      46.588
2015    8        3     4   2    3.5293   566.1    3.518      46.550
2015    8        3     4   9    3.5269   566.0    3.516      46.513
2015    8        3     4  16    3.5244   565.9    3.513      46.474
2015    8        3     4  23    3.5220   565.8    3.511      46.436
2015    8        3     4  29    3.5196   565.7    3.509      46.397
2015    8        3     4  36    3.5172   565.6    3.507      46.359
2015    8        3     4  43    3.5148   565.5    3.505      46.320
2015    8        3     4  50    3.5124   565.4    3.503      46.282
2015    8        3     4  57    3.5100   565.3    3.501      46.243
2015    8        3     5   4    3.5076   565.2    3.499      46.205
2015    8        3     5  10    3.5053   565.1    3.497      46.167
2015    8        3     5  17    3.5029   565.0    3.495      46.130
2015    8        3     5  24    3.5006   564.9    3.493      46.093
2015    8        3     5  31    3.4983   564.8    3.492      46.057
2015    8        3     5  38    3.4960   564.7    3.490      46.022
2015    8        3     5  45    3.4938   564.6    3.489      45.987
2015    8        3     5  51    3.4916   564.5    3.488      45.954
2015    8        3     5  58    3.4894   564.4    3.487      45.921
2015    8        3     6   5    3.4872   564.3    3.486      45.889
2015    8        3     6  12    3.4850   564.2    3.485      45.858
2015    8        3     6  19    3.4829   564.1    3.484      45.827
2015    8        3     6  26    3.4807   564.0    3.483      45.798
2015    8        3     6  32    3.4786   563.9    3.482      45.770
2015    8        3     6  39    3.4765   563.8    3.482      45.742
2015    8        3     6  46    3.4744   563.7    3.482      45.715
2015    8        3     6  53    3.4723   563.6    3.481      45.689
2015    8        3     7   0    3.4702   563.5    3.481      45.663
2015    8        3     7   6    3.4681   563.4    3.481      45.638
2015    8        3     7  13    3.4659   563.3    3.480      45.614
2015    8        3     7  20    3.4638   563.2    3.480      45.590
2015    8        3     7  27    3.4616   563.1    3.480      45.566
2015    8        3     7  34    3.4594   563.0    3.480      45.542
2015    8        3     7  41    3.4572   562.9    3.479      45.518
2015    8        3     7  47    3.4550   562.8    3.479      45.495
2015    8        3     7  54    3.4528   562.7    3.479      45.471
2015    8        3     8   1    3.4505   562.6    3.478      45.448
2015    8        3     8   8    3.4483   562.5    3.478      45.424
2015    8        3     8  15    3.4461   562.3    3.477      45.401
2015    8        3     8  22    3.4438   562.2    3.477      45.377
2015    8        3     8  28    3.4416   562.1    3.476      45.352
2015    8        3     8  35    3.4394   562.0    3.476      45.328
2015    8        3     8  42    3.4372   561.9    3.475      45.304
2015    8        3     8  49    3.4350   561.8    3.474      45.279
2015    8        3     8  56    3.4328   561.7    3.473      45.254
2015    8        3     9   3    3.4306   561.6    3.472      45.228
2015    8        3     9   9    3.4284   561.4    3.472      45.202
2015    8        3     9  16    3.4262   561.3    3.471      45.175
2015    8        3     9  23    3.4240   561.2    3.470      45.148
2015    8        3     9  30    3.4218   561.1    3.469      45.119
2015    8        3     9  37    3.4197   561.0    3.468      45.091
2015    8        3     9  44    3.4175   560.9    3.466      45.061
2015    8        3     9  50    3.4154   560.8    3.465      45.031
2015    8        3     9  57    3.4132   560.6    3.464      45.000
2015    8        3    10   4    3.4110   560.5    3.463      44.968
2015    8        3    10  11    3.4089   560.4    3.461      44.936
2015    8        3    10  18    3.4067   560.3    3.460      44.903
2015    8        3    10  25    3.4046   560.2    3.459      44.869
2015    8        3    10  31    3.4024   560.1    3.457      44.835
2015    8        3    10  38    3.4003   559.9    3.456      44.800
2015    8        3    10  45    3.3981   559.8    3.454      44.765
2015    8        3    10  52    3.3960   559.7    3.453      44.728
2015    8        3    10  59    3.3938   559.6    3.451      44.692
2015    8        3    11   6    3.3917   559.4    3.450      44.655
2015    8        3    11  12    3.3895   559.3    3.448      44.617
2015    8        3    11  19    3.3874   559.2    3.447      44.578
2015    8        3    11  26    3.3852   559.1    3.445      44.539
2015    8        3    11  33    3.3830   558.9    3.443      44.500
2015    8        3    11  40    3.3809   558.8    3.442      44.460
2015    8        3    11  47    3.3787   558.7    3.440      44.420
2015    8        3    11  53    3.3766   558.5    3.439      44.380
2015    8        3    12   0    3.3745   558.4    3.437      44.339
2015    8        3    12   7    3.3724   558.3    3.436      44.299
2015    8        3    12  14    3.3702   558.1    3.435      44.258
2015    8        3    12  21    3.3682   558.0    3.433      44.218
2015    8        3    12  27    3.3661   557.9    3.432      44.178
2015    8        3    12  34    3.3640   557.7    3.431      44.138
2015    8        3    12  41    3.3620   557.6    3.430      44.098
2015    8        3    12  48    3.3599   557.4    3.429      44.059
2015    8        3    12  55    3.3580   557.3    3.428      44.021
2015    8        3    13   2    3.3560   557.2    3.427      43.983
2015    8        3    13   8    3.3540   557.0    3.426      43.946
2015    8        3    13  15    3.3521   556.9    3.426      43.909
2015    8        3    13  22    3.3502   556.7    3.425      43.873
2015    8        3    13  29    3.3483   556.6    3.425      43.839
2015    8        3    13  36    3.3464   556.5    3.425      43.804
2015    8        3    13  43    3.3445   556.3    3.424      43.771
2015    8        3    13  49    3.3427   556.2    3.424      43.738
2015    8        3    13  56    3.3408   556.0    3.424      43.706
2015    8        3    14   3    3.3390   555.9    3.424      43.674
2015    8        3    14  10    3.3372   555.8    3.424      43.644
2015    8        3    14  17    3.3353   555.6    3.424      43.613
2015    8        3    14  24    3.3335   555.5    3.424      43.583
2015    8        3    14  30    3.3316   555.4    3.424      43.553
2015    8        3    14  37    3.3298   555.2    3.424      43.524
2015    8        3    14  44    3.3279   555.1    3.424      43.495
2015    8        3    14  51    3.3260   555.0    3.424      43.465
2015    8        3    14  58    3.3241   554.8    3.424      43.437
2015    8        3    15   5    3.3222   554.7    3.424      43.408
2015    8        3    15  11    3.3203   554.6    3.424      43.379
2015    8        3    15  18    3.3184   554.4    3.424      43.350
2015    8        3    15  25    3.3165   554.3    3.424      43.321
2015    8        3    15  32    3.3146   554.1    3.424      43.292
2015    8        3    15  39    3.3127   554.0    3.423      43.263
2015    8        3    15  45    3.3109   553.9    3.423      43.234
2015    8        3    15  52    3.3090   553.7    3.423      43.205
2015    8        3    15  59    3.3071   553.6    3.423      43.175
2015    8        3    16   6    3.3053   553.4    3.422      43.146
2015    8        3    16  13    3.3034   553.3    3.422      43.117
2015    8        3    16  20    3.3016   553.2    3.422      43.087
2015    8        3    16  26    3.2997   553.0    3.421      43.057
2015    8        3    16  33    3.2979   552.9    3.421      43.027
2015    8        3    16  40    3.2961   552.7    3.420      42.997
2015    8        3    16  47    3.2943   552.6    3.420      42.967
2015    8        3    16  54    3.2925   552.5    3.420      42.936
2015    8        3    17   1    3.2906   552.3    3.419      42.905
2015    8        3    17   7    3.2889   552.2    3.419      42.875
2015    8        3    17  14    3.2870   552.0    3.418      42.843
2015    8        3    17  21    3.2853   551.9    3.418      42.812
2015    8        3    17  28    3.2835   551.8    3.417      42.780
2015    8        3    17  35    3.2817   551.6    3.417      42.749
2015    8        3    17  42    3.2799   551.5    3.416      42.716
2015    8        3    17  48    3.2781   551.3    3.416      42.684
2015    8        3    17  55    3.2764   551.2    3.415      42.651
2015    8        3    18   2    3.2746   551.0    3.415      42.618
2015    8        3    18   9    3.2728   550.9    3.414      42.585
2015    8        3    18  16    3.2711   550.7    3.413      42.551
2015    8        3    18  23    3.2693   550.6    3.413      42.517
2015    8        3    18  29    3.2675   550.5    3.412      42.483
2015    8        3    18  36    3.2658   550.3    3.412      42.449
2015    8        3    18  43    3.2640   550.2    3.411      42.414
2015    8        3    18  50    3.2622   550.0    3.411      42.379
2015    8        3    18  57    3.2605   549.9    3.410      42.344
2015    8        3    19   4    3.2587   549.7    3.410      42.309
2015    8        3    19  10    3.2570   549.6    3.409      42.273
2015    8        3    19  17    3.2553   549.4    3.409      42.237
2015    8        3    19  24    3.2535   549.3    3.408      42.202
2015    8        3    19  31    3.2518   549.1    3.408      42.166
2015    8        3    19  38    3.2501   548.9    3.408      42.130
2015    8        3    19  45    3.2484   548.8    3.407      42.095
2015    8        3    19  51    3.2467   548.6    3.407      42.059
2015    8        3    19  58    3.2450   548.5    3.407      42.023
2015    8        3    20   5    3.2433   548.3    3.406      41.988
2015    8        3    20  12    3.2416   548.2    3.406      41.952
2015    8        3    20  19    3.2399   548.0    3.406      41.916
2015    8        3    20  26    3.2382   547.9    3.406      41.881
2015    8        3    20  32    3.2366   547.7    3.406      41.846
2015    8        3    20  39    3.2349   547.6    3.406      41.810
2015    8        3    20  46    3.2333   547.4    3.406      41.775
2015    8        3    20  53    3.2316   547.2    3.405      41.740
2015    8        3    21   0    3.2300   547.1    3.405      41.705
2015    8        3    21   6    3.2283   546.9    3.405      41.671
2015    8        3    21  13    3.2267   546.8    3.405      41.636
2015    8        3    21  20    3.2251   546.6    3.406      41.602
2015    8        3    21  27    3.2234   546.5    3.406      41.567
2015    8        3    21  34    3.2218   546.3    3.406      41.533
2015    8        3    21  41    3.2202   546.2    3.406      41.499
2015    8        3    21  47    3.2186   546.0    3.406      41.465
2015    8        3    21  54    3.2169   545.8    3.406      41.431
2015    8        3    22   1    3.2153   545.7    3.406      41.398
2015    8        3    22   8    3.2137   545.5    3.406      41.364
2015    8        3    22  15    3.2121   545.4    3.406      41.331
2015    8        3    22  22    3.2105   545.2    3.406      41.298
2015    8        3    22  28    3.2089   545.1    3.407      41.264
2015    8        3    22  35    3.2073   544.9    3.407      41.232
2015    8        3    22  42    3.2057   544.7    3.407      41.199
2015    8        3    22  49    3.2041   544.6    3.407      41.166
2015    8        3    22  56    3.2026   544.4    3.407      41.134
2015    8        3    23   3    3.2010   544.3    3.407      41.101
2015    8        3    23   9    3.1994   544.1    3.407      41.069
2015    8        3    23  16    3.1979   544.0    3.408      41.037
2015    8        3    23  23    3.1963   543.8    3.408      41.004
2015    8        3    23  30    3.1948   543.6    3.408      40.972
2015    8        3    23  37    3.1932   543.5    3.408      40.940
2015    8        3    23  44    3.1917   543.3    3.408      40.908
2015    8        3    23  50    3.1901   543.2    3.408      40.876
2015    8        3    23  57    3.1886   543.0    3.408      40.844
2015    8        4     0   4    3.1871   542.9    3.408      40.812
2015    8        4     0  11    3.1855   542.7    3.409      40.780
2015    8        4     0  18    3.1840   542.5    3.409      40.748
2015    8        4     0  25    3.1825   542.4    3.409      40.716
2015    8        4     0  31    3.1810   542.2    3.409      40.684
2015    8        4     0  38    3.1794   542.1    3.409      40.652
2015    8        4     0  45    3.1779   541.9    3.409      40.620
2015    8        4     0  52    3.1764   541.8    3.409      40.588
2015    8        4     0  59    3.1749   541.6    3.409      40.556
2015    8        4     1   6    3.1734   541.4    3.409      40.524
2015    8        4     1  12    3.1719   541.3    3.410      40.492
2015    8        4     1  19    3.1705   541.1    3.410      40.460
2015    8        4     1  26    3.1690   541.0    3.410      40.428
2015    8        4     1  33    3.1675   540.8    3.410      40.396
2015    8        4     1  40    3.1660   540.7    3.410      40.364
2015    8        4     1  46    3.1645   540.5    3.410      40.332
2015    8        4     1  53    3.1630   540.3    3.411      40.300
2015    8        4     2   0    3.1616   540.2    3.411      40.268
2015    8        4     2   7    3.1601   540.0    3.411      40.236
2015    8        4     2  14    3.1586   539.9    3.411      40.205
2015    8        4     2  21    3.1571   539.7    3.411      40.172
2015    8        4     2  27    3.1557   539.6    3.411      40.141
2015    8        4     2  34    3.1542   539.4    3.412      40.108
2015    8        4     2  41    3.1527   539.2    3.412      40.076
2015    8        4     2  48    3.1513   539.1    3.412      40.044
2015    8        4     2  55    3.1498   538.9    3.412      40.012
2015    8        4     3   2    3.1483   538.8    3.412      39.979
2015    8        4     3   8    3.1468   538.6    3.412      39.947
2015    8        4     3  15    3.1453   538.5    3.412      39.914
2015    8        4     3  22    3.1439   538.3    3.413      39.881
2015    8        4     3  29    3.1424   538.1    3.413      39.848
2015    8        4     3  36    3.1409   538.0    3.413      39.816
2015    8        4     3  43    3.1395   537.8    3.413      39.782
2015    8        4     3  49    3.1380   537.7    3.413      39.749
2015    8        4     3  56    3.1365   537.5    3.413      39.716
2015    8        4     4   3    3.1350   537.3    3.413      39.682
2015    8        4     4  10    3.1336   537.2    3.413      39.649
2015    8        4     4  17    3.1321   537.0    3.413      39.616
2015    8        4     4  24    3.1307   536.9    3.413      39.582
2015    8        4     4  30    3.1292   536.7    3.413      39.549
2015    8        4     4  37    3.1278   536.5    3.413      39.516
2015    8        4     4  44    3.1263   536.4    3.413      39.482
2015    8        4     4  51    3.1249   536.2    3.413      39.449
2015    8        4     4  58    3.1235   536.0    3.414      39.416
2015    8        4     5   4    3.1221   535.9    3.414      39.383
2015    8        4     5  11    3.1207   535.7    3.414      39.350
2015    8        4     5  18    3.1193   535.5    3.414      39.318
2015    8        4     5  25    3.1178   535.4    3.414      39.285
2015    8        4     5  32    3.1165   535.2    3.415      39.253
2015    8        4     5  39    3.1151   535.0    3.415      39.221
2015    8        4     5  45    3.1137   534.8    3.415      39.189
2015    8        4     5  52    3.1123   534.7    3.416      39.158
2015    8        4     5  59    3.1110   534.5    3.416      39.126
2015    8        4     6   6    3.1096   534.3    3.416      39.095
2015    8        4     6  13    3.1082   534.2    3.417      39.064
2015    8        4     6  20    3.1069   534.0    3.417      39.033
2015    8        4     6  26    3.1056   533.8    3.417      39.002
2015    8        4     6  33    3.1042   533.7    3.418      38.972
2015    8        4     6  40    3.1029   533.5    3.418      38.941
2015    8        4     6  47    3.1016   533.3    3.419      38.911
2015    8        4     6  54    3.1002   533.1    3.419      38.880
2015    8        4     7   1    3.0989   533.0    3.420      38.850
2015    8        4     7   7    3.0976   532.8    3.420      38.820
2015    8        4     7  14    3.0963   532.6    3.421      38.789
2015    8        4     7  21    3.0949   532.5    3.421      38.759
2015    8        4     7  28    3.0936   532.3    3.422      38.729
2015    8        4     7  35    3.0923   532.1    3.422      38.699
2015    8        4     7  42    3.0910   531.9    3.422      38.668
2015    8        4     7  48    3.0897   531.8    3.423      38.638
2015    8        4     7  55    3.0883   531.6    3.423      38.608
2015    8        4     8   2    3.0870   531.4    3.424      38.577
2015    8        4     8   9    3.0857   531.3    3.424      38.547
2015    8        4     8  16    3.0844   531.1    3.425      38.517
2015    8        4     8  23    3.0831   530.9    3.425      38.487
2015    8        4     8  29    3.0817   530.8    3.425      38.456
2015    8        4     8  36    3.0804   530.6    3.426      38.426
2015    8        4     8  43    3.0791   530.4    3.426      38.396
2015    8        4     8  50    3.0778   530.2    3.427      38.366
2015    8        4     8  57    3.0765   530.1    3.427      38.336
2015    8        4     9   4    3.0752   529.9    3.428      38.306
2015    8        4     9  10    3.0739   529.7    3.428      38.277
2015    8        4     9  17    3.0726   529.6    3.429      38.248
2015    8        4     9  24    3.0713   529.4    3.430      38.218
2015    8        4     9  31    3.0700   529.2    3.430      38.189
2015    8        4     9  38    3.0687   529.0    3.431      38.160
2015    8        4     9  44    3.0674   528.9    3.432      38.132
2015    8        4     9  51    3.0661   528.7    3.432      38.104
2015    8        4     9  58    3.0648   528.5    3.433      38.076
2015    8        4    10   5    3.0635   528.4    3.434      38.048
2015    8        4    10  12    3.0623   528.2    3.435      38.020
2015    8        4    10  19    3.0610   528.0    3.435      37.993
2015    8        4    10  25    3.0597   527.9    3.436      37.966
2015    8        4    10  32    3.0585   527.7    3.437      37.939
2015    8        4    10  39    3.0572   527.5    3.438      37.912
2015    8        4    10  46    3.0560   527.3    3.439      37.885
2015    8        4    10  53    3.0548   527.2    3.440      37.859
2015    8        4    11   0    3.0535   527.0    3.440      37.833
2015    8        4    11   6    3.0523   526.8    3.441      37.807
2015    8        4    11  13    3.0510   526.7    3.442      37.780
2015    8        4    11  20    3.0498   526.5    3.443      37.754
2015    8        4    11  27    3.0485   526.3    3.444      37.728
2015    8        4    11  34    3.0473   526.2    3.444      37.702
2015    8        4    11  41    3.0460   526.0    3.445      37.675
2015    8        4    11  47    3.0448   525.8    3.446      37.649
2015    8        4    11  54    3.0435   525.6    3.446      37.622
2015    8        4    12   1    3.0423   525.5    3.447      37.596
2015    8        4    12   8    3.0410   525.3    3.448      37.569
2015    8        4    12  15    3.0398   525.1    3.448      37.541
2015    8        4    12  22    3.0385   525.0    3.449      37.514
2015    8        4    12  28    3.0373   524.8    3.449      37.487
2015    8        4    12  35    3.0360   524.6    3.450      37.459
2015    8        4    12  42    3.0348   524.4    3.450      37.432
2015    8        4    12  49    3.0335   524.3    3.451      37.404
2015    8        4    12  56    3.0323   524.1    3.451      37.376
2015    8        4    13   3    3.0311   523.9    3.452      37.348
2015    8        4    13   9    3.0299   523.7    3.452      37.321
2015    8        4    13  16    3.0287   523.6    3.453      37.293
2015    8        4    13  23    3.0275   523.4    3.453      37.265
2015    8        4    13  30    3.0263   523.2    3.453      37.237
2015    8        4    13  37    3.0251   523.0    3.454      37.210
2015    8        4    13  43    3.0240   522.8    3.454      37.182
2015    8        4    13  50    3.0228   522.7    3.455      37.155
2015    8        4    13  57    3.0217   522.5    3.456      37.127
2015    8        4    14   4    3.0205   522.3    3.456      37.100
2015    8        4    14  11    3.0194   522.1    3.457      37.073
2015    8        4    14  18    3.0183   521.9    3.457      37.046
2015    8        4    14  24    3.0171   521.8    3.458      37.019
2015    8        4    14  31    3.0160   521.6    3.459      36.992
2015    8        4    14  38    3.0149   521.4    3.459      36.966
2015    8        4    14  45    3.0139   521.2    3.460      36.940
2015    8        4    14  52    3.0128   521.0    3.461      36.913
2015    8        4    14  59    3.0117   520.9    3.461      36.887
2015    8        4    15   5    3.0106   520.7    3.462      36.861
2015    8        4    15  12    3.0095   520.5    3.463      36.835
2015    8        4    15  19    3.0084   520.3    3.464      36.809
2015    8        4    15  26    3.0074   520.1    3.465      36.784
2015    8        4    15  33    3.0063   519.9    3.465      36.758
2015    8        4    15  40    3.0052   519.7    3.466      36.733
2015    8        4    15  46    3.0041   519.6    3.467      36.707
2015    8        4    15  53    3.0031   519.4    3.468      36.682
2015    8        4    16   0    3.0020   519.2    3.469      36.657
2015    8        4    16   7    3.0010   519.0    3.469      36.632
2015    8        4    16  14    2.9999   518.8    3.470      36.606
2015    8        4    16  21    2.9988   518.6    3.471      36.581
2015    8        4    16  27    2.9978   518.4    3.472      36.556
2015    8        4    16  34    2.9967   518.2    3.473      36.531
2015    8        4    16  41    2.9957   518.1    3.474      36.506
2015    8        4    16  48    2.9946   517.9    3.475      36.482
2015    8        4    16  55    2.9936   517.7    3.476      36.457
2015    8        4    17   1    2.9925   517.5    3.477      36.432
2015    8        4    17   8    2.9915   517.3    3.478      36.407
2015    8        4    17  15    2.9904   517.1    3.479      36.383
2015    8        4    17  22    2.9894   516.9    3.480      36.359
2015    8        4    17  29    2.9884   516.7    3.481      36.335
2015    8        4    17  36    2.9873   516.5    3.482      36.311
2015    8        4    17  42    2.9863   516.3    3.483      36.287
2015    8        4    17  49    2.9853   516.1    3.484      36.264
2015    8        4    17  56    2.9843   516.0    3.485      36.241
2015    8        4    18   3    2.9833   515.8    3.486      36.218
2015    8        4    18  10    2.9823   515.6    3.488      36.195
2015    8        4    18  17    2.9813   515.4    3.489      36.172
2015    8        4    18  23    2.9804   515.2    3.490      36.150
2015    8        4    18  30    2.9794   515.0    3.492      36.128
2015    8        4    18  37    2.9784   514.8    3.493      36.106
2015    8        4    18  44    2.9774   514.6    3.495      36.084
2015    8        4    18  51    2.9765   514.4    3.496      36.063
2015    8        4    18  58    2.9755   514.2    3.498      36.042
2015    8        4    19   4    2.9746   514.0    3.499      36.021
2015    8        4    19  11    2.9737   513.8    3.501      36.000
2015    8        4    19  18    2.9727   513.6    3.502      35.979
2015    8        4    19  25    2.9718   513.5    3.504      35.959
2015    8        4    19  32    2.9709   513.3    3.506      35.938
2015    8        4    19  39    2.9701   513.1    3.507      35.918
2015    8        4    19  45    2.9692   512.9    3.509      35.898
2015    8        4    19  52    2.9683   512.7    3.511      35.878
2015    8        4    19  59    2.9675   512.5    3.513      35.858
2015    8        4    20   6    2.9667   512.3    3.514      35.839
2015    8        4    20  13    2.9658   512.1    3.516      35.819
2015    8        4    20  19    2.9650   511.9    3.518      35.799
2015    8        4    20  26    2.9641   511.7    3.519      35.779
2015    8        4    20  33    2.9633   511.5    3.521      35.759
2015    8        4    20  40    2.9625   511.4    3.523      35.739
2015    8        4    20  47    2.9616   511.2    3.524      35.718
2015    8        4    20  54    2.9608   511.0    3.526      35.697
2015    8        4    21   0    2.9599   510.8    3.528      35.676
2015    8        4    21   7    2.9591   510.6    3.529      35.655
2015    8        4    21  14    2.9582   510.4    3.530      35.634
2015    8        4    21  21    2.9574   510.2    3.532      35.612
2015    8        4    21  28    2.9565   510.0    3.533      35.590
2015    8        4    21  35    2.9557   509.8    3.535      35.568
2015    8        4    21  41    2.9548   509.6    3.536      35.546
2015    8        4    21  48    2.9540   509.4    3.537      35.524
2015    8        4    21  55    2.9531   509.2    3.539      35.502
2015    8        4    22   2    2.9523   509.0    3.540      35.479
2015    8        4    22   9    2.9515   508.8    3.542      35.457
2015    8        4    22  16    2.9507   508.6    3.543      35.435
2015    8        4    22  22    2.9499   508.4    3.544      35.413
2015    8        4    22  29    2.9491   508.2    3.546      35.391
2015    8        4    22  36    2.9483   508.0    3.547      35.370
2015    8        4    22  43    2.9475   507.8    3.549      35.348
2015    8        4    22  50    2.9468   507.6    3.550      35.327
2015    8        4    22  57    2.9460   507.4    3.552      35.306
2015    8        4    23   3    2.9453   507.2    3.554      35.286
2015    8        4    23  10    2.9445   507.0    3.555      35.265
2015    8        4    23  17    2.9438   506.8    3.557      35.245
2015    8        4    23  24    2.9431   506.6    3.559      35.225
2015    8        4    23  31    2.9425   506.4    3.561      35.206
2015    8        4    23  38    2.9418   506.2    3.563      35.187
2015    8        4    23  44    2.9411   506.0    3.564      35.168
2015    8        4    23  51    2.9404   505.8    3.566      35.149
2015    8        4    23  58    2.9398   505.6    3.568      35.130
2015    8        5     0   5    2.9391   505.4    3.570      35.112
2015    8        5     0  12    2.9385   505.2    3.572      35.093
2015    8        5     0  18    2.9379   505.0    3.574      35.075
2015    8        5     0  25    2.9372   504.8    3.576      35.056
2015    8        5     0  32    2.9366   504.6    3.579      35.038
2015    8        5     0  39    2.9360   504.4    3.581      35.020
2015    8        5     0  46    2.9353   504.2    3.583      35.002
2015    8        5     0  53    2.9347   504.0    3.585      34.983
2015    8        5     0  59    2.9341   503.8    3.587      34.965
2015    8        5     1   6    2.9335   503.6    3.589      34.946
2015    8        5     1  13    2.9328   503.4    3.591      34.927
2015    8        5     1  20    2.9322   503.2    3.593      34.908
2015    8        5     1  27    2.9316   503.0    3.595      34.889
2015    8        5     1  34    2.9310   502.8    3.597      34.870
2015    8        5     1  40    2.9303   502.6    3.599      34.850
2015    8        5     1  47    2.9297   502.4    3.601      34.831
2015    8        5     1  54    2.9291   502.2    3.603      34.812
2015    8        5     2   1    2.9285   502.0    3.606      34.792
2015    8        5     2   8    2.9280   501.8    3.608      34.773
2015    8        5     2  15    2.9274   501.6    3.610      34.753
2015    8        5     2  21    2.9268   501.4    3.612      34.734
2015    8        5     2  28    2.9263   501.2    3.614      34.714
2015    8        5     2  35    2.9257   501.0    3.616      34.695
2015    8        5     2  42    2.9252   500.8    3.619      34.676
2015    8        5     2  49    2.9247   500.6    3.621      34.657
2015    8        5     2  56    2.9242   500.4    3.623      34.638
2015    8        5     3   2    2.9237   500.2    3.625      34.619
2015    8        5     3   9    2.9232   500.0    3.628      34.600
2015    8        5     3  16    2.9227   499.8    3.630      34.582
2015    8        5     3  23    2.9222   499.6    3.633      34.563
2015    8        5     3  30    2.9217   499.4    3.635      34.545
2015    8        5     3  36    2.9213   499.2    3.637      34.526
2015    8        5     3  43    2.9208   499.0    3.640      34.508
2015    8        5     3  50    2.9203   498.8    3.642      34.489
2015    8        5     3  57    2.9198   498.6    3.645      34.471
2015    8        5     4   4    2.9193   498.4    3.647      34.452
2015    8        5     4  11    2.9188   498.2    3.650      34.434
2015    8        5     4  17    2.9183   498.0    3.652      34.415
2015    8        5     4  24    2.9178   497.8    3.654      34.396
2015    8        5     4  31    2.9173   497.6    3.657      34.378
2015    8        5     4  38    2.9169   497.4    3.659      34.359
2015    8        5     4  45    2.9164   497.2    3.662      34.340
2015    8        5     4  52    2.9159   497.0    3.664      34.322
2015    8        5     4  58    2.9155   496.8    3.666      34.303
2015    8        5     5   5    2.9150   496.6    3.669      34.284
2015    8        5     5  12    2.9146   496.4    3.671      34.266
2015    8        5     5  19    2.9141   496.2    3.674      34.247
2015    8        5     5  26    2.9137   496.0    3.676      34.228
2015    8        5     5  33    2.9132   495.8    3.679      34.210
2015    8        5     5  39    2.9128   495.6    3.681      34.192
2015    8        5     5  46    2.9124   495.4    3.684      34.173
2015    8        5     5  53    2.9120   495.2    3.686      34.155
2015    8        5     6   0    2.9115   495.0    3.688      34.136
2015    8        5     6   7    2.9111   494.8    3.691      34.118
2015    8        5     6  14    2.9107   494.6    3.693      34.100
2015    8        5     6  20    2.9103   494.4    3.696      34.082
2015    8        5     6  27    2.9099   494.2    3.699      34.064
2015    8        5     6  34    2.9095   494.0    3.701      34.046
2015    8        5     6  41    2.9091   493.8    3.704      34.028
2015    8        5     6  48    2.9087   493.6    3.706      34.010
2015    8        5     6  55    2.9083   493.4    3.709      33.992
2015    8        5     7   1    2.9079   493.2    3.712      33.974
2015    8        5     7   8    2.9075   493.0    3.714      33.956
2015    8        5     7  15    2.9072   492.8    3.717      33.938
2015    8        5     7  22    2.9068   492.6    3.720      33.921
2015    8        5     7  29    2.9064   492.4    3.722      33.903
2015    8        5     7  35    2.9061   492.2    3.725      33.886
2015    8        5     7  42    2.9057   492.0    3.728      33.869
2015    8        5     7  49    2.9053   491.8    3.730      33.852
2015    8        5     7  56    2.9050   491.6    3.733      33.834
2015    8        5     8   3    2.9046   491.4    3.736      33.817
2015    8        5     8  10    2.9043   491.2    3.739      33.800
2015    8        5     8  16    2.9040   491.0    3.742      33.783
2015    8        5     8  23    2.9036   490.8    3.745      33.766
2015    8        5     8  30    2.9033   490.6    3.747      33.749
2015    8        5     8  37    2.9030   490.4    3.750      33.732
2015    8        5     8  44    2.9026   490.2    3.753      33.715
2015    8        5     8  51    2.9023   490.0    3.756      33.698
2015    8        5     8  57    2.9020   489.8    3.759      33.681
2015    8        5     9   4    2.9017   489.6    3.762      33.664
2015    8        5     9  11    2.9014   489.4    3.765      33.647
2015    8        5     9  18    2.9010   489.2    3.768      33.629
2015    8        5     9  25    2.9007   489.0    3.770      33.612
2015    8        5     9  32    2.9004   488.8    3.773      33.594
2015    8        5     9  38    2.9001   488.6    3.776      33.577
2015    8        5     9  45    2.8998   488.4    3.779      33.559
2015    8        5     9  52    2.8994   488.2    3.782      33.541
2015    8        5     9  59    2.8991   488.0    3.784      33.523
2015    8        5    10   6    2.8988   487.8    3.787      33.505
2015    8        5    10  13    2.8984   487.7    3.790      33.486
2015    8        5    10  19    2.8981   487.5    3.792      33.468
2015    8        5    10  26    2.8978   487.3    3.795      33.449
2015    8        5    10  33    2.8974   487.1    3.798      33.431
2015    8        5    10  40    2.8971   486.9    3.800      33.412
2015    8        5    10  47    2.8968   486.7    3.803      33.393
2015    8        5    10  53    2.8964   486.5    3.805      33.373
2015    8        5    11   0    2.8961   486.3    3.808      33.354
2015    8        5    11   7    2.8958   486.1    3.810      33.335
2015    8        5    11  14    2.8954   485.9    3.813      33.316
2015    8        5    11  21    2.8951   485.7    3.816      33.297
2015    8        5    11  28    2.8947   485.5    3.818      33.277
2015    8        5    11  34    2.8944   485.3    3.821      33.258
2015    8        5    11  41    2.8941   485.1    3.823      33.239
2015    8        5    11  48    2.8937   484.9    3.826      33.219
2015    8        5    11  55    2.8934   484.7    3.828      33.200
2015    8        5    12   2    2.8931   484.5    3.831      33.181
2015    8        5    12   9    2.8927   484.3    3.833      33.162
2015    8        5    12  15    2.8924   484.1    3.836      33.143
2015    8        5    12  22    2.8921   483.9    3.838      33.124
2015    8        5    12  29    2.8917   483.7    3.841      33.105
2015    8        5    12  36    2.8914   483.5    3.843      33.086
2015    8        5    12  43    2.8911   483.3    3.846      33.068
2015    8        5    12  50    2.8908   483.1    3.849      33.049
2015    8        5    12  56    2.8905   482.9    3.851      33.031
2015    8        5    13   3    2.8902   482.7    3.854      33.013
2015    8        5    13  10    2.8899   482.5    3.857      32.995
2015    8        5    13  17    2.8896   482.3    3.859      32.977
2015    8        5    13  24    2.8893   482.2    3.862      32.959
2015    8        5    13  30    2.8890   482.0    3.865      32.941
2015    8        5    13  37    2.8887   481.8    3.868      32.924
2015    8        5    13  44    2.8884   481.6    3.870      32.906
2015    8        5    13  51    2.8881   481.4    3.873      32.889
2015    8        5    13  58    2.8878   481.2    3.876      32.872
2015    8        5    14   5    2.8875   481.0    3.879      32.854
2015    8        5    14  11    2.8872   480.8    3.882      32.837
2015    8        5    14  18    2.8869   480.6    3.884      32.820
2015    8        5    14  25    2.8866   480.4    3.887      32.803
2015    8        5    14  32    2.8863   480.2    3.890      32.786
2015    8        5    14  39    2.8861   480.0    3.893      32.769
2015    8        5    14  46    2.8858   479.8    3.896      32.752
2015    8        5    14  52    2.8855   479.6    3.899      32.736
2015    8        5    14  59    2.8852   479.4    3.902      32.719
2015    8        5    15   6    2.8849   479.2    3.905      32.702
2015    8        5    15  13    2.8846   479.0    3.908      32.685
2015    8        5    15  20    2.8843   478.8    3.911      32.669
2015    8        5    15  27    2.8840   478.6    3.914      32.652
2015    8        5    15  33    2.8837   478.4    3.916      32.635
2015    8        5    15  40    2.8834   478.2    3.919      32.618
2015    8        5    15  47    2.8831   478.0    3.922      32.602
2015    8        5    15  54    2.8828   477.8    3.925      32.585
2015    8        5    16   1    2.8825   477.6    3.928      32.568
2015    8        5    16   8    2.8822   477.4    3.931      32.551
2015    8        5    16  14    2.8818   477.2    3.934      32.535
2015    8        5    16  21    2.8815   477.0    3.937      32.518
2015    8        5    16  28    2.8812   476.8    3.940      32.501
2015    8        5    16  35    2.8809   476.6    3.943      32.485
2015    8        5    16  42    2.8805   476.4    3.946      32.468
2015    8        5    16  49    2.8802   476.2    3.949      32.451
2015    8        5    16  55    2.8799   476.0    3.952      32.434
2015    8        5    17   2    2.8795   475.8    3.955      32.417
2015    8        5    17   9    2.8792   475.6    3.957      32.401
2015    8        5    17  16    2.8788   475.4    3.960      32.384
2015    8        5    17  23    2.8785   475.2    3.963      32.367
2015    8        5    17  29    2.8782   475.0    3.966      32.350
2015    8        5    17  36    2.8778   474.9    3.969      32.333
2015    8        5    17  43    2.8774   474.7    3.972      32.316
2015    8        5    17  50    2.8771   474.5    3.975      32.300
2015    8        5    17  57    2.8767   474.3    3.978      32.282
2015    8        5    18   4    2.8763   474.1    3.980      32.266
2015    8        5    18  10    2.8760   473.9    3.983      32.248
2015    8        5    18  17    2.8756   473.7    3.986      32.231
2015    8        5    18  24    2.8752   473.5    3.989      32.214
2015    8        5    18  31    2.8748   473.3    3.992      32.197
2015    8        5    18  38    2.8744   473.1    3.995      32.180
2015    8        5    18  45    2.8741   472.9    3.997      32.163
2015    8        5    18  51    2.8737   472.7    4.000      32.145
2015    8        5    18  58    2.8733   472.5    4.003      32.128
2015    8        5    19   5    2.8729   472.3    4.006      32.111
2015    8        5    19  12    2.8725   472.1    4.009      32.093
2015    8        5    19  19    2.8721   471.9    4.011      32.076
2015    8        5    19  26    2.8717   471.7    4.014      32.058
2015    8        5    19  32    2.8713   471.5    4.017      32.041
2015    8        5    19  39    2.8709   471.3    4.020      32.023
2015    8        5    19  46    2.8704   471.1    4.023      32.005
2015    8        5    19  53    2.8700   470.9    4.025      31.988
2015    8        5    20   0    2.8696   470.6    4.028      31.970
2015    8        5    20   6    2.8692   470.4    4.031      31.952
2015    8        5    20  13    2.8688   470.2    4.034      31.934
2015    8        5    20  20    2.8684   470.0    4.036      31.916
2015    8        5    20  27    2.8680   469.8    4.039      31.898
2015    8        5    20  34    2.8675   469.6    4.042      31.880
2015    8        5    20  41    2.8671   469.4    4.045      31.861
2015    8        5    20  47    2.8667   469.2    4.047      31.843
2015    8        5    20  54    2.8663   469.0    4.050      31.825
2015    8        5    21   1    2.8659   468.8    4.053      31.806
2015    8        5    21   8    2.8654   468.6    4.056      31.788
2015    8        5    21  15    2.8650   468.4    4.059      31.769
2015    8        5    21  22    2.8646   468.2    4.061      31.751
2015    8        5    21  28    2.8642   468.0    4.064      31.732
2015    8        5    21  35    2.8637   467.8    4.067      31.714
2015    8        5    21  42    2.8633   467.6    4.070      31.695
2015    8        5    21  49    2.8629   467.4    4.073      31.676
2015    8        5    21  56    2.8625   467.2    4.075      31.658
2015    8        5    22   3    2.8620   467.0    4.078      31.639
2015    8        5    22   9    2.8616   466.8    4.081      31.620
2015    8        5    22  16    2.8612   466.6    4.084      31.601
2015    8        5    22  23    2.8608   466.4    4.087      31.583
2015    8        5    22  30    2.8604   466.2    4.090      31.564
2015    8        5    22  37    2.8600   466.0    4.093      31.545
2015    8        5    22  44    2.8596   465.8    4.096      31.526
2015    8        5    22  50    2.8592   465.6    4.099      31.508
2015    8        5    22  57    2.8588   465.4    4.102      31.489
2015    8        5    23   4    2.8584   465.1    4.105      31.470
2015    8        5    23  11    2.8580   464.9    4.107      31.451
2015    8        5    23  18    2.8576   464.7    4.110      31.432
2015    8        5    23  24    2.8572   464.5    4.113      31.413
2015    8        5    23  31    2.8568   464.3    4.116      31.395
2015    8        5    23  38    2.8564   464.1    4.120      31.376
2015    8        5    23  45    2.8560   463.9    4.123      31.358
2015    8        5    23  52    2.8557   463.7    4.126      31.339
2015    8        5    23  59    2.8553   463.5    4.129      31.320
2015    8        6     0   5    2.8549   463.3    4.132      31.302
2015    8        6     0  12    2.8545   463.1    4.135      31.283
2015    8        6     0  19    2.8542   462.9    4.138      31.264
2015    8        6     0  26    2.8538   462.7    4.141      31.246
2015    8        6     0  33    2.8535   462.5    4.144      31.227
2015    8        6     0  40    2.8531   462.3    4.147      31.209
2015    8        6     0  46    2.8527   462.0    4.150      31.190
2015    8        6     0  53    2.8524   461.8    4.154      31.172
2015    8        6     1   0    2.8520   461.6    4.157      31.153
2015    8        6     1   7    2.8516   461.4    4.160      31.135
2015    8        6     1  14    2.8513   461.2    4.163      31.116
2015    8        6     1  21    2.8509   461.0    4.166      31.098
2015    8        6     1  27    2.8506   460.8    4.169      31.079
2015    8        6     1  34    2.8502   460.6    4.172      31.061
2015    8        6     1  41    2.8498   460.4    4.176      31.042
2015    8        6     1  48    2.8495   460.2    4.179      31.024
2015    8        6     1  55    2.8491   460.0    4.182      31.005
2015    8        6     2   1    2.8487   459.8    4.185      30.987
2015    8        6     2   8    2.8484   459.6    4.188      30.968
2015    8        6     2  15    2.8480   459.3    4.191      30.950
2015    8        6     2  22    2.8476   459.1    4.194      30.931
2015    8        6     2  29    2.8473   458.9    4.198      30.912
2015    8        6     2  36    2.8469   458.7    4.201      30.894
2015    8        6     2  42    2.8465   458.5    4.204      30.875
2015    8        6     2  49    2.8461   458.3    4.207      30.856
2015    8        6     2  56    2.8458   458.1    4.210      30.838
2015    8        6     3   3    2.8454   457.9    4.213      30.819
2015    8        6     3  10    2.8450   457.7    4.216      30.800
2015    8        6     3  17    2.8446   457.5    4.220      30.781
2015    8        6     3  23    2.8442   457.3    4.223      30.763
2015    8        6     3  30    2.8438   457.1    4.226      30.744
2015    8        6     3  37    2.8434   456.9    4.229      30.725
2015    8        6     3  44    2.8431   456.6    4.232      30.706
2015    8        6     3  51    2.8427   456.4    4.235      30.687
2015    8        6     3  58    2.8423   456.2    4.238      30.668
2015    8        6     4   4    2.8419   456.0    4.241      30.650
2015    8        6     4  11    2.8415   455.8    4.244      30.631
2015    8        6     4  18    2.8411   455.6    4.248      30.612
2015    8        6     4  25    2.8407   455.4    4.251      30.593
2015    8        6     4  32    2.8403   455.2    4.254      30.574
2015    8        6     4  39    2.8399   455.0    4.257      30.555
2015    8        6     4  45    2.8395   454.8    4.260      30.537
2015    8        6     4  52    2.8392   454.5    4.263      30.518
2015    8        6     4  59    2.8388   454.3    4.266      30.499
2015    8        6     5   6    2.8384   454.1    4.270      30.480
2015    8        6     5  13    2.8380   453.9    4.273      30.461
2015    8        6     5  19    2.8376   453.7    4.276      30.442
2015    8        6     5  26    2.8372   453.5    4.279      30.424
2015    8        6     5  33    2.8368   453.3    4.282      30.405
2015    8        6     5  40    2.8364   453.1    4.285      30.386
2015    8        6     5  47    2.8360   452.9    4.289      30.368
2015    8        6     5  54    2.8357   452.6    4.292      30.349
2015    8        6     6   0    2.8353   452.4    4.295      30.330
2015    8        6     6   7    2.8349   452.2    4.298      30.312
2015    8        6     6  14    2.8345   452.0    4.302      30.293
2015    8        6     6  21    2.8341   451.8    4.305      30.274
2015    8        6     6  28    2.8338   451.6    4.308      30.256
2015    8        6     6  35    2.8334   451.4    4.311      30.237
2015    8        6     6  41    2.8330   451.2    4.314      30.218
2015    8        6     6  48    2.8326   451.0    4.318      30.200
2015    8        6     6  55    2.8323   450.7    4.321      30.181
2015    8        6     7   2    2.8319   450.5    4.324      30.163
2015    8        6     7   9    2.8315   450.3    4.327      30.144
2015    8        6     7  16    2.8311   450.1    4.331      30.125
2015    8        6     7  22    2.8308   449.9    4.334      30.107
2015    8        6     7  29    2.8304   449.7    4.337      30.088
2015    8        6     7  36    2.8300   449.5    4.340      30.070
2015    8        6     7  43    2.8297   449.2    4.344      30.051
2015    8        6     7  50    2.8293   449.0    4.347      30.032
2015    8        6     7  56    2.8290   448.8    4.350      30.014
2015    8        6     8   3    2.8286   448.6    4.353      29.995
2015    8        6     8  10    2.8283   448.4    4.357      29.977
2015    8        6     8  17    2.8279   448.2    4.360      29.958
2015    8        6     8  24    2.8276   448.0    4.363      29.939
2015    8        6     8  31    2.8272   447.7    4.366      29.921
2015    8        6     8  37    2.8269   447.5    4.370      29.902
2015    8        6     8  44    2.8265   447.3    4.373      29.884
2015    8        6     8  51    2.8262   447.1    4.376      29.865
2015    8        6     8  58    2.8259   446.9    4.380      29.847
2015    8        6     9   5    2.8255   446.7    4.383      29.828
2015    8        6     9  12    2.8252   446.5    4.386      29.810
2015    8        6     9  18    2.8249   446.2    4.389      29.792
2015    8        6     9  25    2.8246   446.0    4.393      29.773
2015    8        6     9  32    2.8243   445.8    4.396      29.755
2015    8        6     9  39    2.8240   445.6    4.400      29.737
2015    8        6     9  46    2.8237   445.4    4.403      29.719
2015    8        6     9  53    2.8234   445.2    4.406      29.701
2015    8        6     9  59    2.8231   444.9    4.410      29.683
2015    8        6    10   6    2.8229   444.7    4.413      29.664
2015    8        6    10  13    2.8226   444.5    4.417      29.646
2015    8        6    10  20    2.8223   444.3    4.420      29.628
2015    8        6    10  27    2.8220   444.1    4.423      29.610
2015    8        6    10  34    2.8218   443.9    4.427      29.593
2015    8        6    10  40    2.8215   443.6    4.430      29.575
2015    8        6    10  47    2.8213   443.4    4.434      29.557
2015    8        6    10  54    2.8211   443.2    4.437      29.539
2015    8        6    11   1    2.8208   443.0    4.441      29.521
2015    8        6    11   8    2.8206   442.8    4.445      29.504
2015    8        6    11  14    2.8204   442.6    4.448      29.486
2015    8        6    11  21    2.8201   442.3    4.452      29.468
2015    8        6    11  28    2.8199   442.1    4.455      29.451
2015    8        6    11  35    2.8197   441.9    4.459      29.433
2015    8        6    11  42    2.8195   441.7    4.463      29.416
2015    8        6    11  49    2.8193   441.5    4.466      29.398
2015    8        6    11  55    2.8192   441.3    4.470      29.381
2015    8        6    12   2    2.8190   441.0    4.474      29.363
2015    8        6    12   9    2.8188   440.8    4.477      29.346
2015    8        6    12  16    2.8186   440.6    4.481      29.329
2015    8        6    12  23    2.8184   440.4    4.485      29.311
2015    8        6    12  30    2.8183   440.2    4.489      29.294
2015    8        6    12  36    2.8181   440.0    4.492      29.277
2015    8        6    12  43    2.8180   439.7    4.496      29.260
2015    8        6    12  50    2.8178   439.5    4.500      29.242
2015    8        6    12  57    2.8177   439.3    4.504      29.225
2015    8        6    13   4    2.8176   439.1    4.508      29.208
2015    8        6    13  11    2.8174   438.9    4.512      29.191
2015    8        6    13  17    2.8173   438.7    4.516      29.174
2015    8        6    13  24    2.8172   438.4    4.519      29.157
2015    8        6    13  31    2.8171   438.2    4.523      29.140
2015    8        6    13  38    2.8170   438.0    4.527      29.122
2015    8        6    13  45    2.8169   437.8    4.531      29.105
2015    8        6    13  51    2.8168   437.6    4.535      29.088
2015    8        6    13  58    2.8167   437.3    4.539      29.071
2015    8        6    14   5    2.8166   437.1    4.543      29.054
2015    8        6    14  12    2.8165   436.9    4.547      29.037
2015    8        6    14  19    2.8164   436.7    4.551      29.020
2015    8        6    14  26    2.8164   436.5    4.555      29.003
2015    8        6    14  32    2.8163   436.3    4.559      28.986
2015    8        6    14  39    2.8163   436.0    4.564      28.969
2015    8        6    14  46    2.8162   435.8    4.568      28.952
2015    8        6    14  53    2.8162   435.6    4.572      28.935
2015    8        6    15   0    2.8161   435.4    4.576      28.918
2015    8        6    15   7    2.8161   435.2    4.580      28.901
2015    8        6    15  13    2.8161   434.9    4.584      28.884
2015    8        6    15  20    2.8161   434.7    4.588      28.866
2015    8        6    15  27    2.8161   434.5    4.592      28.849
2015    8        6    15  34    2.8161   434.3    4.597      28.832
2015    8        6    15  41    2.8161   434.1    4.601      28.815
2015    8        6    15  48    2.8161   433.9    4.605      28.798
2015    8        6    15  54    2.8161   433.6    4.609      28.781
2015    8        6    16   1    2.8161   433.4    4.613      28.764
2015    8        6    16   8    2.8162   433.2    4.617      28.747
2015    8        6    16  15    2.8163   433.0    4.622      28.730
2015    8        6    16  22    2.8163   432.8    4.626      28.713
2015    8        6    16  28    2.8164   432.5    4.630      28.696
2015    8        6    16  35    2.8165   432.3    4.634      28.679
2015    8        6    16  42    2.8165   432.1    4.639      28.662
2015    8        6    16  49    2.8166   431.9    4.643      28.645
2015    8        6    16  56    2.8168   431.7    4.647      28.628
2015    8        6    17   3    2.8169   431.4    4.652      28.611
2015    8        6    17   9    2.8170   431.2    4.656      28.594
2015    8        6    17  16    2.8172   431.0    4.660      28.577
2015    8        6    17  23    2.8173   430.8    4.665      28.560
2015    8        6    17  30    2.8175   430.5    4.669      28.543
2015    8        6    17  37    2.8177   430.3    4.674      28.526
2015    8        6    17  44    2.8179   430.1    4.678      28.509
2015    8        6    17  50    2.8182   429.9    4.683      28.493
2015    8        6    17  57    2.8184   429.7    4.687      28.476
2015    8        6    18   4    2.8186   429.4    4.692      28.460
2015    8        6    18  11    2.8189   429.2    4.697      28.443
2015    8        6    18  18    2.8192   429.0    4.701      28.427
2015    8        6    18  25    2.8195   428.8    4.706      28.411
2015    8        6    18  31    2.8199   428.6    4.711      28.394
2015    8        6    18  38    2.8202   428.3    4.716      28.378
2015    8        6    18  45    2.8206   428.1    4.720      28.362
2015    8        6    18  52    2.8210   427.9    4.725      28.346
2015    8        6    18  59    2.8214   427.7    4.730      28.331
2015    8        6    19   5    2.8218   427.4    4.735      28.315
2015    8        6    19  12    2.8223   427.2    4.740      28.300
2015    8        6    19  19    2.8227   427.0    4.745      28.284
2015    8        6    19  26    2.8232   426.8    4.750      28.269
2015    8        6    19  33    2.8237   426.6    4.756      28.254
2015    8        6    19  40    2.8243   426.3    4.761      28.239
2015    8        6    19  46    2.8248   426.1    4.766      28.224
2015    8        6    19  53    2.8254   425.9    4.771      28.209
2015    8        6    20   0    2.8259   425.7    4.777      28.194
2015    8        6    20   7    2.8266   425.4    4.782      28.180
2015    8        6    20  14    2.8272   425.2    4.788      28.165
2015    8        6    20  21    2.8278   425.0    4.793      28.151
2015    8        6    20  27    2.8285   424.8    4.799      28.137
2015    8        6    20  34    2.8291   424.6    4.804      28.122
2015    8        6    20  41    2.8298   424.3    4.810      28.108
2015    8        6    20  48    2.8306   424.1    4.815      28.094
2015    8        6    20  55    2.8313   423.9    4.821      28.080
2015    8        6    21   2    2.8320   423.7    4.827      28.067
2015    8        6    21   8    2.8328   423.5    4.833      28.053
2015    8        6    21  15    2.8336   423.2    4.839      28.039
2015    8        6    21  22    2.8344   423.0    4.844      28.026
2015    8        6    21  29    2.8352   422.8    4.850      28.012
2015    8        6    21  36    2.8360   422.6    4.856      27.999
2015    8        6    21  43    2.8369   422.4    4.862      27.986
2015    8        6    21  49    2.8377   422.1    4.868      27.973
2015    8        6    21  56    2.8386   421.9    4.874      27.959
2015    8        6    22   3    2.8395   421.7    4.880      27.946
2015    8        6    22  10    2.8404   421.5    4.887      27.933
2015    8        6    22  17    2.8414   421.3    4.893      27.920
2015    8        6    22  23    2.8423   421.0    4.899      27.907
2015    8        6    22  30    2.8433   420.8    4.905      27.895
2015    8        6    22  37    2.8443   420.6    4.911      27.882
2015    8        6    22  44    2.8453   420.4    4.918      27.869
2015    8        6    22  51    2.8463   420.2    4.924      27.856
2015    8        6    22  58    2.8474   420.0    4.930      27.843
2015    8        6    23   4    2.8485   419.7    4.937      27.831
2015    8        6    23  11    2.8495   419.5    4.943      27.818
2015    8        6    23  18    2.8506   419.3    4.950      27.806
2015    8        6    23  25    2.8518   419.1    4.956      27.793
2015    8        6    23  32    2.8529   418.9    4.963      27.781
2015    8        6    23  39    2.8541   418.6    4.969      27.769
2015    8        6    23  45    2.8553   418.4    4.976      27.756
2015    8        6    23  52    2.8565   418.2    4.982      27.744
2015    8        6    23  59    2.8578   418.0    4.989      27.732
2015    8        7     0   6    2.8591   417.8    4.996      27.720
2015    8        7     0  13    2.8604   417.6    5.003      27.708
2015    8        7     0  19    2.8617   417.3    5.009      27.696
2015    8        7     0  26    2.8631   417.1    5.016      27.684
2015    8        7     0  33    2.8645   416.9    5.023      27.673
2015    8        7     0  40    2.8660   416.7    5.030      27.662
2015    8        7     0  47    2.8674   416.5    5.037      27.650
2015    8        7     0  54    2.8689   416.3    5.044      27.639
2015    8        7     1   0    2.8704   416.0    5.051      27.628
2015    8        7     1   7    2.8719   415.8    5.059      27.617
2015    8        7     1  14    2.8735   415.6    5.066      27.606
2015    8        7     1  21    2.8751   415.4    5.073      27.596
2015    8        7     1  28    2.8767   415.2    5.081      27.585
2015    8        7     1  35    2.8784   415.0    5.088      27.575
2015    8        7     1  41    2.8801   414.8    5.096      27.565
2015    8        7     1  48    2.8818   414.5    5.103      27.555
2015    8        7     1  55    2.8835   414.3    5.111      27.545
2015    8        7     2   2    2.8853   414.1    5.118      27.535
2015    8        7     2   9    2.8871   413.9    5.126      27.525
2015    8        7     2  16    2.8889   413.7    5.134      27.515
2015    8        7     2  22    2.8908   413.5    5.142      27.506
2015    8        7     2  29    2.8926   413.3    5.150      27.497
2015    8        7     2  36    2.8945   413.1    5.157      27.487
2015    8        7     2  43    2.8965   412.9    5.165      27.478
2015    8        7     2  50    2.8984   412.7    5.174      27.469
2015    8        7     2  56    2.9004   412.5    5.182      27.460
2015    8        7     3   3    2.9024   412.2    5.190      27.451
2015    8        7     3  10    2.9044   412.0    5.198      27.442
2015    8        7     3  17    2.9064   411.8    5.206      27.434
2015    8        7     3  24    2.9085   411.6    5.215      27.425
2015    8        7     3  31    2.9106   411.4    5.223      27.416
2015    8        7     3  37    2.9127   411.2    5.232      27.408
2015    8        7     3  44    2.9148   411.0    5.240      27.400
2015    8        7     3  51    2.9170   410.8    5.249      27.391
2015    8        7     3  58    2.9192   410.6    5.257      27.383
2015    8        7     4   5    2.9214   410.4    5.266      27.375
2015    8        7     4  12    2.9236   410.2    5.275      27.367
2015    8        7     4  18    2.9259   410.0    5.284      27.359
2015    8        7     4  25    2.9282   409.8    5.293      27.352
2015    8        7     4  32    2.9305   409.6    5.302      27.344
2015    8        7     4  39    2.9328   409.4    5.312      27.337
2015    8        7     4  46    2.9352   409.2    5.321      27.330
2015    8        7     4  53    2.9376   409.0    5.331      27.323
2015    8        7     4  59    2.9401   408.8    5.340      27.316
2015    8        7     5   6    2.9425   408.6    5.350      27.310
2015    8        7     5  13    2.9451   408.4    5.360      27.304
2015    8        7     5  20    2.9476   408.2    5.370      27.299
2015    8        7     5  27    2.9503   408.0    5.381      27.294
2015    8        7     5  33    2.9529   407.8    5.391      27.290
2015    8        7     5  40    2.9556   407.6    5.402      27.285
2015    8        7     5  47    2.9584   407.4    5.413      27.282
2015    8        7     5  54    2.9612   407.2    5.424      27.279
2015    8        7     6   1    2.9640   407.0    5.435      27.277
2015    8        7     6   8    2.9669   406.8    5.447      27.275
2015    8        7     6  14    2.9699   406.6    5.459      27.274
2015    8        7     6  21    2.9729   406.4    5.470      27.273
2015    8        7     6  28    2.9759   406.2    5.482      27.273
2015    8        7     6  35    2.9791   406.0    5.495      27.274
2015    8        7     6  42    2.9822   405.8    5.507      27.275
2015    8        7     6  49    2.9855   405.6    5.520      27.276
2015    8        7     6  55    2.9887   405.4    5.532      27.279
2015    8        7     7   2    2.9921   405.3    5.545      27.282
2015    8        7     7   9    2.9954   405.1    5.558      27.285
2015    8        7     7  16    2.9988   404.9    5.572      27.289
2015    8        7     7  23    3.0023   404.7    5.585      27.293
2015    8        7     7  30    3.0058   404.5    5.598      27.298
2015    8        7     7  36    3.0093   404.4    5.612      27.304
2015    8        7     7  43    3.0128   404.2    5.626      27.310
2015    8        7     7  50    3.0164   404.0    5.639      27.317
2015    8        7     7  57    3.0199   403.8    5.653      27.324
2015    8        7     8   4    3.0235   403.7    5.667      27.332
2015    8        7     8  10    3.0271   403.5    5.680      27.341
2015    8        7     8  17    3.0307   403.3    5.694      27.350
2015    8        7     8  24    3.0344   403.2    5.708      27.361
2015    8        7     8  31    3.0380   403.0    5.721      27.372
2015    8        7     8  38    3.0417   402.9    5.735      27.383
2015    8        7     8  45    3.0454   402.7    5.748      27.395
2015    8        7     8  51    3.0492   402.5    5.762      27.407
2015    8        7     8  58    3.0529   402.4    5.775      27.419
2015    8        7     9   5    3.0566   402.2    5.788      27.432
2015    8        7     9  12    3.0604   402.1    5.801      27.444
2015    8        7     9  19    3.0642   401.9    5.815      27.457
2015    8        7     9  26    3.0680   401.8    5.828      27.470
2015    8        7     9  32    3.0718   401.6    5.841      27.482
2015    8        7     9  39    3.0756   401.5    5.855      27.495
2015    8        7     9  46    3.0795   401.3    5.868      27.508
2015    8        7     9  53    3.0834   401.2    5.881      27.520
2015    8        7    10   0    3.0873   401.0    5.894      27.532
2015    8        7    10   7    3.0912   400.9    5.907      27.545
2015    8        7    10  13    3.0951   400.7    5.921      27.557
2015    8        7    10  20    3.0991   400.6    5.934      27.569
2015    8        7    10  27    3.1031   400.4    5.947      27.581
2015    8        7    10  34    3.1071   400.3    5.960      27.593
2015    8        7    10  41    3.1111   400.2    5.974      27.605
2015    8        7    10  47    3.1151   400.0    5.987      27.616
2015    8        7    10  54    3.1192   399.9    6.000      27.628
2015    8        7    11   1    3.1233   399.7    6.014      27.640
2015    8        7    11   8    3.1274   399.6    6.027      27.651
2015    8        7    11  15    3.1315   399.5    6.041      27.663
2015    8        7    11  22    3.1357   399.3    6.054      27.674
2015    8        7    11  28    3.1398   399.2    6.068      27.686
2015    8        7    11  35    3.1441   399.1    6.082      27.697
2015    8        7    11  42    3.1483   399.0    6.096      27.709
2015    8        7    11  49    3.1526   398.8    6.110      27.720
2015    8        7    11  56    3.1569   398.7    6.124      27.732
2015    8        7    12   3    3.1612   398.6    6.139      27.744
2015    8        7    12   9    3.1656   398.4    6.153      27.756
2015    8        7    12  16    3.1700   398.3    6.168      27.769
2015    8        7    12  23    3.1745   398.2    6.183      27.782
2015    8        7    12  30    3.1790   398.1    6.198      27.795
2015    8        7    12  37    3.1835   397.9    6.214      27.809
2015    8        7    12  44    3.1881   397.8    6.229      27.824
2015    8        7    12  50    3.1928   397.7    6.245      27.838
2015    8        7    12  57    3.1975   397.6    6.261      27.854
2015    8        7    13   4    3.2022   397.5    6.277      27.870
2015    8        7    13  11    3.2070   397.4    6.294      27.886
2015    8        7    13  18    3.2119   397.2    6.311      27.903
2015    8        7    13  24    3.2168   397.1    6.328      27.920
2015    8        7    13  31    3.2218   397.0    6.345      27.938
2015    8        7    13  38    3.2268   396.9    6.363      27.957
2015    8        7    13  45    3.2319   396.8    6.381      27.976
2015    8        7    13  52    3.2370   396.7    6.399      27.995
2015    8        7    13  59    3.2423   396.6    6.418      28.015
2015    8        7    14   5    3.2476   396.5    6.437      28.037
2015    8        7    14  12    3.2529   396.4    6.456      28.058
2015    8        7    14  19    3.2583   396.3    6.475      28.082
2015    8        7    14  26    3.2638   396.2    6.494      28.106
2015    8        7    14  33    3.2693   396.2    6.514      28.132
2015    8        7    14  40    3.2747   396.1    6.533      28.160
2015    8        7    14  46    3.2803   396.0    6.552      28.189
2015    8        7    14  53    3.2858   395.9    6.571      28.220
2015    8        7    15   0    3.2912   395.8    6.589      28.252
2015    8        7    15   7    3.2967   395.8    6.608      28.285
2015    8        7    15  14    3.3022   395.7    6.626      28.319
2015    8        7    15  20    3.3076   395.6    6.645      28.354
2015    8        7    15  27    3.3130   395.6    6.662      28.389
2015    8        7    15  34    3.3184   395.5    6.680      28.424
2015    8        7    15  41    3.3238   395.4    6.697      28.459
2015    8        7    15  48    3.3291   395.4    6.714      28.494
2015    8        7    15  55    3.3345   395.3    6.731      28.530
2015    8        7    16   1    3.3398   395.3    6.747      28.565
2015    8        7    16   8    3.3451   395.2    6.764      28.600
2015    8        7    16  15    3.3504   395.1    6.780      28.635
2015    8        7    16  22    3.3557   395.1    6.796      28.669
2015    8        7    16  29    3.3609   395.0    6.811      28.703
2015    8        7    16  36    3.3662   395.0    6.827      28.737
2015    8        7    16  42    3.3715   394.9    6.842      28.770
2015    8        7    16  49    3.3767   394.9    6.857      28.803
2015    8        7    16  56    3.3819   394.8    6.872      28.836
2015    8        7    17   3    3.3872   394.8    6.887      28.868
2015    8        7    17  10    3.3924   394.7    6.901      28.900
2015    8        7    17  17    3.3976   394.7    6.915      28.931
2015    8        7    17  23    3.4028   394.6    6.930      28.962
2015    8        7    17  30    3.4080   394.6    6.944      28.992
2015    8        7    17  37    3.4132   394.6    6.958      29.022
2015    8        7    17  44    3.4184   394.5    6.972      29.052
2015    8        7    17  51    3.4235   394.5    6.986      29.081
2015    8        7    17  57    3.4287   394.4    6.999      29.110
2015    8        7    18   4    3.4339   394.4    7.013      29.139
2015    8        7    18  11    3.4391   394.4    7.027      29.167
2015    8        7    18  18    3.4442   394.3    7.040      29.195
2015    8        7    18  25    3.4494   394.3    7.054      29.223
2015    8        7    18  32    3.4546   394.2    7.067      29.250
2015    8        7    18  38    3.4598   394.2    7.081      29.278
2015    8        7    18  45    3.4649   394.2    7.094      29.305
2015    8        7    18  52    3.4701   394.2    7.108      29.331
2015    8        7    18  59    3.4753   394.1    7.121      29.358
2015    8        7    19   6    3.4805   394.1    7.135      29.384
2015    8        7    19  13    3.4857   394.1    7.148      29.410
2015    8        7    19  19    3.4909   394.0    7.162      29.437
2015    8        7    19  26    3.4961   394.0    7.175      29.463
2015    8        7    19  33    3.5013   394.0    7.189      29.489
2015    8        7    19  40    3.5066   394.0    7.203      29.516
2015    8        7    19  47    3.5118   393.9    7.217      29.543
2015    8        7    19  54    3.5171   393.9    7.231      29.570
2015    8        7    20   0    3.5224   393.9    7.245      29.597
2015    8        7    20   7    3.5276   393.9    7.259      29.625
2015    8        7    20  14    3.5330   393.9    7.273      29.652
2015    8        7    20  21    3.5383   393.9    7.288      29.680
2015    8        7    20  28    3.5436   393.8    7.302      29.709
2015    8        7    20  35    3.5489   393.8    7.317      29.737
2015    8        7    20  41    3.5543   393.8    7.332      29.766
2015    8        7    20  48    3.5597   393.8    7.347      29.796
2015    8        7    20  55    3.5651   393.8    7.362      29.826
2015    8        7    21   2    3.5705   393.8    7.377      29.855
2015    8        7    21   9    3.5759   393.8    7.392      29.886
2015    8        7    21  15    3.5813   393.8    7.408      29.916
2015    8        7    21  22    3.5868   393.8    7.424      29.948
2015    8        7    21  29    3.5922   393.8    7.440      29.980
2015    8        7    21  36    3.5977   393.8    7.455      30.013
2015    8        7    21  43    3.6032   393.8    7.471      30.046
2015    8        7    21  50    3.6086   393.8    7.487      30.080
2015    8        7    21  56    3.6141   393.8    7.502      30.116
2015    8        7    22   3    3.6195   393.8    7.517      30.153
2015    8        7    22  10    3.6249   393.9    7.532      30.191
2015    8        7    22  17    3.6303   393.9    7.547      30.230
2015    8        7    22  24    3.6356   393.9    7.562      30.268
2015    8        7    22  31    3.6409   393.9    7.577      30.308
2015    8        7    22  37    3.6462   393.9    7.591      30.347
2015    8        7    22  44    3.6515   393.9    7.605      30.386
2015    8        7    22  51    3.6567   393.9    7.619      30.424
2015    8        7    22  58    3.6620   394.0    7.633      30.462
2015    8        7    23   5    3.6672   394.0    7.647      30.500
2015    8        7    23  11    3.6724   394.0    7.661      30.538
2015    8        7    23  18    3.6777   394.0    7.674      30.575
2015    8        7    23  25    3.6829   394.0    7.688      30.613
2015    8        7    23  32    3.6881   394.1    7.701      30.650
2015    8        7    23  39    3.6932   394.1    7.714      30.689
2015    8        7    23  46    3.6984   394.1    7.727      30.728
2015    8        7    23  52    3.7035   394.2    7.739      30.768
2015    8        7    23  59    3.7085   394.2    7.751      30.809
2015    8        8     0   6    3.7136   394.2    7.763      30.850
2015    8        8     0  13    3.7185   394.3    7.775      30.892
2015    8        8     0  20    3.7235   394.3    7.786      30.934
2015    8        8     0  27    3.7283   394.3    7.797      30.975
2015    8        8     0  33    3.7332   394.4    7.807      31.016
2015    8        8     0  40    3.7380   394.4    7.818      31.056
2015    8        8     0  47    3.7427   394.4    7.828      31.096
2015    8        8     0  54    3.7474   394.5    7.837      31.136
2015    8        8     1   1    3.7521   394.5    7.847      31.175
2015    8        8     1   8    3.7567   394.6    7.856      31.214
2015    8        8     1  14    3.7613   394.6    7.865      31.252
2015    8        8     1  21    3.7658   394.7    7.874      31.290
2015    8        8     1  28    3.7703   394.7    7.882      31.327
2015    8        8     1  35    3.7748   394.7    7.890      31.363
2015    8        8     1  42    3.7792   394.8    7.898      31.399
2015    8        8     1  48    3.7836   394.8    7.906      31.434
2015    8        8     1  55    3.7880   394.9    7.914      31.469
2015    8        8     2   2    3.7923   394.9    7.921      31.503
2015    8        8     2   9    3.7966   395.0    7.929      31.537
2015    8        8     2  16    3.8008   395.0    7.936      31.570
2015    8        8     2  23    3.8051   395.0    7.943      31.603
2015    8        8     2  29    3.8093   395.1    7.950      31.635
2015    8        8     2  36    3.8134   395.1    7.956      31.667
2015    8        8     2  43    3.8176   395.2    7.963      31.699
2015    8        8     2  50    3.8217   395.2    7.969      31.730
2015    8        8     2  57    3.8258   395.3    7.976      31.761
2015    8        8     3   4    3.8299   395.3    7.982      31.792
2015    8        8     3  10    3.8339   395.4    7.988      31.822
2015    8        8     3  17    3.8380   395.4    7.994      31.852
2015    8        8     3  24    3.8420   395.5    8.001      31.882
2015    8        8     3  31    3.8460   395.5    8.007      31.912
2015    8        8     3  38    3.8500   395.6    8.013      31.942
2015    8        8     3  45    3.8540   395.6    8.019      31.972
2015    8        8     3  51    3.8580   395.7    8.025      32.002
2015    8        8     3  58    3.8619   395.7    8.031      32.031
2015    8        8     4   5    3.8659   395.8    8.037      32.061
2015    8        8     4  12    3.8698   395.9    8.043      32.091
2015    8        8     4  19    3.8737   395.9    8.049      32.120
2015    8        8     4  25    3.8776   396.0    8.055      32.150
2015    8        8     4  32    3.8815   396.0    8.061      32.180
2015    8        8     4  39    3.8853   396.1    8.066      32.210
2015    8        8     4  46    3.8891   396.2    8.072      32.240
2015    8        8     4  53    3.8929   396.2    8.078      32.270
2015    8        8     5   0    3.8967   396.3    8.084      32.299
2015    8        8     5   6    3.9004   396.3    8.090      32.329
2015    8        8     5  13    3.9042   396.4    8.095      32.358
2015    8        8     5  20    3.9079   396.5    8.101      32.388
2015    8        8     5  27    3.9116   396.5    8.107      32.417
2015    8        8     5  34    3.9153   396.6    8.112      32.446
2015    8        8     5  41    3.9189   396.7    8.118      32.475
2015    8        8     5  47    3.9226   396.7    8.124      32.504
2015    8        8     5  54    3.9263   396.8    8.129      32.532
2015    8        8     6   1    3.9299   396.9    8.135      32.561
2015    8        8     6   8    3.9335   396.9    8.140      32.589
2015    8        8     6  15    3.9372   397.0    8.146      32.617
2015    8        8     6  22    3.9408   397.1    8.152      32.645
2015    8        8     6  28    3.9445   397.1    8.158      32.673
2015    8        8     6  35    3.9481   397.2    8.164      32.701
2015    8        8     6  42    3.9518   397.2    8.170      32.729
2015    8        8     6  49    3.9554   397.3    8.177      32.757
2015    8        8     6  56    3.9591   397.4    8.183      32.785
2015    8        8     7   2    3.9628   397.4    8.190      32.813
2015    8        8     7   9    3.9665   397.5    8.197      32.842
2015    8        8     7  16    3.9702   397.6    8.204      32.872
2015    8        8     7  23    3.9739   397.7    8.211      32.903
2015    8        8     7  30    3.9775   397.8    8.217      32.936
2015    8        8     7  37    3.9812   397.8    8.224      32.970
2015    8        8     7  43    3.9847   397.9    8.231      33.005
2015    8        8     7  50    3.9883   398.0    8.238      33.041
2015    8        8     7  57    3.9918   398.1    8.245      33.077
2015    8        8     8   4    3.9953   398.1    8.252      33.114
2015    8        8     8  11    3.9987   398.2    8.258      33.151
2015    8        8     8  18    4.0022   398.3    8.265      33.188
2015    8        8     8  24    4.0055   398.4    8.272      33.225
2015    8        8     8  31    4.0088   398.5    8.279      33.264
2015    8        8     8  38    4.0121   398.6    8.286      33.305
2015    8        8     8  45    4.0153   398.6    8.292      33.346
2015    8        8     8  52    4.0184   398.7    8.298      33.389
2015    8        8     8  59    4.0215   398.8    8.304      33.433
2015    8        8     9   5    4.0245   399.0    8.309      33.478
2015    8        8     9  12    4.0274   399.1    8.314      33.523
2015    8        8     9  19    4.0302   399.2    8.319      33.567
2015    8        8     9  26    4.0330   399.3    8.323      33.610
2015    8        8     9  33    4.0357   399.4    8.327      33.653
2015    8        8     9  39    4.0383   399.5    8.330      33.694
2015    8        8     9  46    4.0408   399.6    8.333      33.735
2015    8        8     9  53    4.0433   399.7    8.335      33.775
2015    8        8    10   0    4.0457   399.8    8.337      33.813
2015    8        8    10   7    4.0480   399.9    8.339      33.851
2015    8        8    10  14    4.0503   400.0    8.340      33.888
2015    8        8    10  20    4.0525   400.1    8.341      33.924
2015    8        8    10  27    4.0547   400.2    8.342      33.959
2015    8        8    10  34    4.0568   400.4    8.342      33.993
2015    8        8    10  41    4.0590   400.5    8.342      34.027
2015    8        8    10  48    4.0610   400.6    8.342      34.060
2015    8        8    10  55    4.0631   400.7    8.342      34.092
2015    8        8    11   1    4.0651   400.8    8.342      34.124
2015    8        8    11   8    4.0671   400.9    8.341      34.155
2015    8        8    11  15    4.0690   401.0    8.340      34.185
2015    8        8    11  22    4.0710   401.1    8.340      34.215
2015    8        8    11  29    4.0729   401.2    8.339      34.245
2015    8        8    11  36    4.0748   401.4    8.338      34.274
2015    8        8    11  42    4.0767   401.5    8.337      34.302
2015    8        8    11  49    4.0786   401.6    8.336      34.330
2015    8        8    11  56    4.0804   401.7    8.335      34.358
2015    8        8    12   3    4.0823   401.8    8.334      34.385
2015    8        8    12  10    4.0842   401.9    8.332      34.412
2015    8        8    12  16    4.0860   402.0    8.331      34.439
2015    8        8    12  23    4.0879   402.1    8.330      34.465
2015    8        8    12  30    4.0898   402.2    8.329      34.492
2015    8        8    12  37    4.0917   402.4    8.328      34.518
2015    8        8    12  44    4.0937   402.5    8.327      34.544
2015    8        8    12  51    4.0956   402.6    8.326      34.570
2015    8        8    12  57    4.0976   402.7    8.325      34.595
2015    8        8    13   4    4.0996   402.8    8.325      34.622
2015    8        8    13  11    4.1015   402.9    8.324      34.650
2015    8        8    13  18    4.1035   403.0    8.324      34.678
2015    8        8    13  25    4.1054   403.1    8.323      34.707
2015    8        8    13  32    4.1073   403.3    8.322      34.736
2015    8        8    13  38    4.1091   403.4    8.321      34.767
2015    8        8    13  45    4.1109   403.5    8.321      34.797
2015    8        8    13  52    4.1127   403.6    8.320      34.827
2015    8        8    13  59    4.1144   403.8    8.319      34.856
2015    8        8    14   6    4.1161   403.9    8.317      34.886
2015    8        8    14  12    4.1177   404.0    8.316      34.914
2015    8        8    14  19    4.1192   404.1    8.315      34.943
2015    8        8    14  26    4.1207   404.3    8.314      34.971
2015    8        8    14  33    4.1221   404.4    8.312      35.000
2015    8        8    14  40    4.1235   404.5    8.311      35.028
2015    8        8    14  47    4.1248   404.6    8.309      35.055
2015    8        8    14  53    4.1261   404.8    8.308      35.083
2015    8        8    15   0    4.1273   404.9    8.306      35.110
2015    8        8    15   7    4.1285   405.0    8.304      35.137
2015    8        8    15  14    4.1297   405.1    8.303      35.164
2015    8        8    15  21    4.1307   405.2    8.301      35.191
2015    8        8    15  28    4.1318   405.3    8.300      35.217
2015    8        8    15  34    4.1328   405.5    8.298      35.243
2015    8        8    15  41    4.1338   405.6    8.297      35.269
2015    8        8    15  48    4.1348   405.7    8.296      35.295
2015    8        8    15  55    4.1357   405.8    8.295      35.320
2015    8        8    16   2    4.1366   405.9    8.294      35.346
2015    8        8    16   9    4.1375   406.0    8.293      35.373
2015    8        8    16  15    4.1383   406.2    8.292      35.401
2015    8        8    16  22    4.1391   406.3    8.291      35.431
2015    8        8    16  29    4.1398   406.4    8.290      35.462
2015    8        8    16  36    4.1404   406.6    8.288      35.493
2015    8        8    16  43    4.1409   406.7    8.286      35.526
2015    8        8    16  49    4.1414   406.8    8.283      35.559
2015    8        8    16  56    4.1417   407.0    8.280      35.591
2015    8        8    17   3    4.1420   407.1    8.277      35.621
2015    8        8    17  10    4.1422   407.2    8.273      35.651
2015    8        8    17  17    4.1423   407.4    8.269      35.680
2015    8        8    17  24    4.1422   407.5    8.264      35.708
2015    8        8    17  30    4.1421   407.7    8.259      35.735
2015    8        8    17  37    4.1420   407.8    8.253      35.761
2015    8        8    17  44    4.1417   407.9    8.248      35.786
2015    8        8    17  51    4.1414   408.1    8.242      35.810
2015    8        8    17  58    4.1410   408.2    8.235      35.833
2015    8        8    18   5    4.1406   408.4    8.228      35.855
2015    8        8    18  11    4.1401   408.5    8.222      35.876
2015    8        8    18  18    4.1396   408.6    8.215      35.897
2015    8        8    18  25    4.1390   408.8    8.207      35.916
2015    8        8    18  32    4.1384   408.9    8.200      35.935
2015    8        8    18  39    4.1378   409.0    8.192      35.953
2015    8        8    18  46    4.1371   409.2    8.185      35.971
2015    8        8    18  52    4.1364   409.3    8.177      35.988
2015    8        8    18  59    4.1356   409.4    8.169      36.005
2015    8        8    19   6    4.1349   409.6    8.161      36.020
2015    8        8    19  13    4.1340   409.7    8.153      36.036
2015    8        8    19  20    4.1332   409.8    8.146      36.051
2015    8        8    19  27    4.1323   409.9    8.137      36.066
2015    8        8    19  33    4.1315   410.1    8.129      36.081
2015    8        8    19  40    4.1306   410.2    8.121      36.095
2015    8        8    19  47    4.1298   410.3    8.113      36.108
2015    8        8    19  54    4.1289   410.5    8.105      36.122
2015    8        8    20   1    4.1280   410.6    8.097      36.135
2015    8        8    20   7    4.1271   410.7    8.089      36.147
2015    8        8    20  14    4.1263   410.8    8.080      36.159
2015    8        8    20  21    4.1255   411.0    8.072      36.171
2015    8        8    20  28    4.1247   411.1    8.064      36.181
2015    8        8    20  35    4.1238   411.2    8.055      36.192
2015    8        8    20  42    4.1230   411.3    8.047      36.202
2015    8        8    20  48    4.1221   411.5    8.038      36.212
2015    8        8    20  55    4.1211   411.6    8.029      36.222
2015    8        8    21   2    4.1201   411.7    8.020      36.233
2015    8        8    21   9    4.1190   411.9    8.011      36.242
2015    8        8    21  16    4.1178   412.0    8.002      36.252
2015    8        8    21  23    4.1166   412.1    7.992      36.261
2015    8        8    21  29    4.1153   412.2    7.982      36.269
2015    8        8    21  36    4.1139   412.4    7.972      36.275
2015    8        8    21  43    4.1124   412.5    7.962      36.281
2015    8        8    21  50    4.1109   412.6    7.952      36.286
2015    8        8    21  57    4.1093   412.7    7.942      36.291
2015    8        8    22   3    4.1077   412.8    7.931      36.294
2015    8        8    22  10    4.1059   412.9    7.920      36.297
2015    8        8    22  17    4.1042   413.0    7.909      36.299
2015    8        8    22  24    4.1023   413.1    7.898      36.301
2015    8        8    22  31    4.1004   413.2    7.887      36.302
2015    8        8    22  38    4.0985   413.4    7.875      36.303
2015    8        8    22  44    4.0965   413.5    7.864      36.303
2015    8        8    22  51    4.0944   413.6    7.852      36.302
2015    8        8    22  58    4.0923   413.7    7.840      36.301
2015    8        8    23   5    4.0901   413.8    7.828      36.299
2015    8        8    23  12    4.0879   413.9    7.816      36.297
2015    8        8    23  19    4.0856   414.0    7.804      36.295
2015    8        8    23  25    4.0833   414.1    7.792      36.292
2015    8        8    23  32    4.0809   414.2    7.779      36.289
2015    8        8    23  39    4.0784   414.3    7.766      36.285
2015    8        8    23  46    4.0759   414.4    7.754      36.281
2015    8        8    23  53    4.0733   414.5    7.741      36.277
2015    8        9     0   0    4.0706   414.6    7.727      36.272
2015    8        9     0   6    4.0679   414.7    7.714      36.267
2015    8        9     0  13    4.0651   414.9    7.700      36.260
2015    8        9     0  20    4.0623   415.0    7.686      36.254
2015    8        9     0  27    4.0594   415.1    7.672      36.246
2015    8        9     0  34    4.0564   415.2    7.657      36.237
2015    8        9     0  40    4.0532   415.3    7.642      36.227
2015    8        9     0  47    4.0500   415.4    7.627      36.215
2015    8        9     0  54    4.0467   415.5    7.611      36.201
2015    8        9     1   1    4.0433   415.6    7.596      36.184
2015    8        9     1   8    4.0399   415.7    7.580      36.165
2015    8        9     1  15    4.0364   415.8    7.565      36.144
2015    8        9     1  21    4.0329   415.8    7.549      36.122
2015    8        9     1  28    4.0294   415.9    7.533      36.098
2015    8        9     1  35    4.0258   416.0    7.518      36.073
2015    8        9     1  42    4.0223   416.0    7.503      36.048
2015    8        9     1  49    4.0187   416.1    7.487      36.023
2015    8        9     1  56    4.0152   416.2    7.472      35.997
2015    8        9     2   2    4.0116   416.2    7.457      35.970
2015    8        9     2   9    4.0081   416.3    7.442      35.943
2015    8        9     2  16    4.0045   416.3    7.427      35.916
2015    8        9     2  23    4.0010   416.4    7.412      35.889
2015    8        9     2  30    3.9974   416.4    7.398      35.861
2015    8        9     2  37    3.9939   416.5    7.383      35.833
2015    8        9     2  43    3.9903   416.5    7.368      35.805
2015    8        9     2  50    3.9868   416.6    7.354      35.777
2015    8        9     2  57    3.9832   416.6    7.340      35.749
2015    8        9     3   4    3.9797   416.7    7.325      35.720
2015    8        9     3  11    3.9762   416.7    7.311      35.691
2015    8        9     3  17    3.9726   416.8    7.296      35.663
2015    8        9     3  24    3.9691   416.8    7.282      35.633
2015    8        9     3  31    3.9656   416.9    7.268      35.603
2015    8        9     3  38    3.9620   416.9    7.253      35.572
2015    8        9     3  45    3.9585   417.0    7.239      35.541
2015    8        9     3  52    3.9549   417.0    7.224      35.509
2015    8        9     3  58    3.9514   417.0    7.209      35.477
2015    8        9     4   5    3.9478   417.1    7.194      35.443
2015    8        9     4  12    3.9442   417.1    7.180      35.409
2015    8        9     4  19    3.9405   417.2    7.165      35.373
2015    8        9     4  26    3.9369   417.2    7.150      35.337
2015    8        9     4  33    3.9332   417.2    7.135      35.299
2015    8        9     4  39    3.9295   417.3    7.120      35.261
2015    8        9     4  46    3.9257   417.3    7.105      35.222
2015    8        9     4  53    3.9220   417.3    7.090      35.182
2015    8        9     5   0    3.9181   417.3    7.075      35.142
2015    8        9     5   7    3.9143   417.4    7.060      35.102
2015    8        9     5  14    3.9105   417.4    7.045      35.061
2015    8        9     5  20    3.9066   417.4    7.030      35.020
2015    8        9     5  27    3.9027   417.4    7.015      34.978
2015    8        9     5  34    3.8989   417.4    7.001      34.937
2015    8        9     5  41    3.8950   417.4    6.986      34.896
2015    8        9     5  48    3.8911   417.4    6.972      34.854
2015    8        9     5  54    3.8873   417.4    6.958      34.812
2015    8        9     6   1    3.8834   417.4    6.944      34.770
2015    8        9     6   8    3.8795   417.4    6.930      34.728
2015    8        9     6  15    3.8756   417.4    6.916      34.685
2015    8        9     6  22    3.8718   417.3    6.902      34.641
2015    8        9     6  29    3.8679   417.3    6.889      34.597
2015    8        9     6  35    3.8640   417.3    6.876      34.551
2015    8        9     6  42    3.8602   417.3    6.864      34.506
2015    8        9     6  49    3.8563   417.3    6.851      34.459
2015    8        9     6  56    3.8524   417.2    6.840      34.413
2015    8        9     7   3    3.8485   417.2    6.828      34.366
2015    8        9     7  10    3.8446   417.2    6.817      34.319
2015    8        9     7  16    3.8407   417.2    6.806      34.273
2015    8        9     7  23    3.8369   417.1    6.796      34.226
2015    8        9     7  30    3.8331   417.1    6.786      34.179
2015    8        9     7  37    3.8293   417.1    6.777      34.133
2015    8        9     7  44    3.8255   417.1    6.768      34.087
2015    8        9     7  51    3.8218   417.1    6.758      34.041
2015    8        9     7  57    3.8180   417.0    6.750      33.994
2015    8        9     8   4    3.8143   417.0    6.741      33.947
2015    8        9     8  11    3.8105   417.0    6.733      33.898
2015    8        9     8  18    3.8068   416.9    6.726      33.849
2015    8        9     8  25    3.8031   416.9    6.718      33.800
2015    8        9     8  31    3.7995   416.8    6.711      33.751
2015    8        9     8  38    3.7959   416.8    6.704      33.704
2015    8        9     8  45    3.7924   416.7    6.698      33.658
2015    8        9     8  52    3.7889   416.6    6.691      33.614
2015    8        9     8  59    3.7854   416.6    6.684      33.573
2015    8        9     9   6    3.7820   416.5    6.677      33.532
2015    8        9     9  12    3.7786   416.5    6.670      33.493
2015    8        9     9  19    3.7752   416.4    6.663      33.453
2015    8        9     9  26    3.7718   416.3    6.656      33.413
2015    8        9     9  33    3.7685   416.3    6.649      33.373
2015    8        9     9  40    3.7651   416.2    6.642      33.332
2015    8        9     9  47    3.7618   416.2    6.635      33.292
2015    8        9     9  53    3.7585   416.1    6.627      33.251
2015    8        9    10   0    3.7552   416.0    6.620      33.211
2015    8        9    10   7    3.7519   415.9    6.613      33.170
2015    8        9    10  14    3.7486   415.9    6.605      33.128
2015    8        9    10  21    3.7454   415.8    6.598      33.086
2015    8        9    10  28    3.7422   415.7    6.590      33.044
2015    8        9    10  34    3.7389   415.7    6.583      33.001
2015    8        9    10  41    3.7357   415.6    6.576      32.958
2015    8        9    10  48    3.7325   415.5    6.568      32.915
2015    8        9    10  55    3.7293   415.4    6.561      32.872
2015    8        9    11   2    3.7262   415.4    6.553      32.828
2015    8        9    11   8    3.7230   415.3    6.546      32.784
2015    8        9    11  15    3.7199   415.2    6.539      32.740
2015    8        9    11  22    3.7168   415.1    6.531      32.696
2015    8        9    11  29    3.7137   415.1    6.524      32.652
2015    8        9    11  36    3.7106   415.0    6.516      32.608
2015    8        9    11  43    3.7075   414.9    6.509      32.564
2015    8        9    11  49    3.7045   414.8    6.502      32.520
2015    8        9    11  56    3.7014   414.7    6.495      32.476
2015    8        9    12   3    3.6984   414.7    6.487      32.431
2015    8        9    12  10    3.6953   414.6    6.480      32.388
2015    8        9    12  17    3.6923   414.5    6.473      32.343
2015    8        9    12  24    3.6892   414.4    6.466      32.300
2015    8        9    12  30    3.6862   414.3    6.458      32.256
2015    8        9    12  37    3.6832   414.3    6.451      32.212
2015    8        9    12  44    3.6802   414.2    6.444      32.169
2015    8        9    12  51    3.6772   414.1    6.437      32.126
2015    8        9    12  58    3.6743   414.0    6.431      32.083
2015    8        9    13   5    3.6714   413.9    6.424      32.041
2015    8        9    13  11    3.6685   413.8    6.417      31.998
2015    8        9    13  18    3.6657   413.7    6.410      31.956
2015    8        9    13  25    3.6629   413.6    6.404      31.913
2015    8        9    13  32    3.6601   413.5    6.398      31.871
2015    8        9    13  39    3.6573   413.4    6.392      31.828
2015    8        9    13  45    3.6546   413.3    6.386      31.785
2015    8        9    13  52    3.6519   413.2    6.380      31.741
2015    8        9    13  59    3.6493   413.0    6.375      31.696
2015    8        9    14   6    3.6467   412.9    6.370      31.651
2015    8        9    14  13    3.6441   412.8    6.365      31.606
2015    8        9    14  20    3.6415   412.7    6.361      31.560
2015    8        9    14  26    3.6389   412.6    6.357      31.515
2015    8        9    14  33    3.6365   412.4    6.354      31.469
2015    8        9    14  40    3.6340   412.3    6.351      31.424
2015    8        9    14  47    3.6316   412.2    6.348      31.379
2015    8        9    14  54    3.6293   412.1    6.346      31.334
2015    8        9    15   1    3.6270   412.0    6.344      31.290
2015    8        9    15   7    3.6248   411.8    6.343      31.247
2015    8        9    15  14    3.6227   411.7    6.342      31.206
2015    8        9    15  21    3.6206   411.6    6.342      31.165
2015    8        9    15  28    3.6187   411.5    6.343      31.125
2015    8        9    15  35    3.6168   411.3    6.344      31.086
2015    8        9    15  42    3.6149   411.2    6.345      31.049
2015    8        9    15  48    3.6132   411.1    6.346      31.013
2015    8        9    15  55    3.6115   411.0    6.348      30.980
2015    8        9    16   2    3.6099   410.9    6.350      30.951
2015    8        9    16   9    3.6083   410.8    6.352      30.923
2015    8        9    16  16    3.6068   410.7    6.354      30.899
2015    8        9    16  22    3.6054   410.5    6.356      30.877
2015    8        9    16  29    3.6039   410.4    6.357      30.856
2015    8        9    16  36    3.6025   410.3    6.359      30.837
2015    8        9    16  43    3.6010   410.2    6.360      30.817
2015    8        9    16  50    3.5996   410.1    6.361      30.797
2015    8        9    16  57    3.5982   410.0    6.362      30.777
2015    8        9    17   3    3.5967   409.9    6.363      30.756
2015    8        9    17  10    3.5953   409.8    6.363      30.736
2015    8        9    17  17    3.5939   409.7    6.364      30.715
2015    8        9    17  24    3.5925   409.5    6.365      30.695
2015    8        9    17  31    3.5911   409.4    6.365      30.673
2015    8        9    17  38    3.5897   409.3    6.366      30.652
2015    8        9    17  44    3.5883   409.2    6.366      30.630
2015    8        9    17  51    3.5869   409.1    6.366      30.608
2015    8        9    17  58    3.5855   409.0    6.367      30.585
2015    8        9    18   5    3.5841   408.9    6.367      30.562
2015    8        9    18  12    3.5827   408.7    6.368      30.539
2015    8        9    18  18    3.5814   408.6    6.368      30.517
2015    8        9    18  25    3.5800   408.5    6.369      30.493
2015    8        9    18  32    3.5787   408.4    6.369      30.470
2015    8        9    18  39    3.5774   408.3    6.370      30.447
2015    8        9    18  46    3.5761   408.2    6.370      30.424
2015    8        9    18  53    3.5748   408.0    6.371      30.401
2015    8        9    18  59    3.5735   407.9    6.371      30.378
2015    8        9    19   6    3.5722   407.8    6.372      30.355
2015    8        9    19  13    3.5710   407.7    6.373      30.332
2015    8        9    19  20    3.5698   407.6    6.374      30.309
2015    8        9    19  27    3.5686   407.4    6.375      30.287
2015    8        9    19  34    3.5675   407.3    6.376      30.265
2015    8        9    19  40    3.5663   407.2    6.377      30.243
2015    8        9    19  47    3.5652   407.1    6.378      30.220
2015    8        9    19  54    3.5641   407.0    6.379      30.199
2015    8        9    20   1    3.5631   406.9    6.380      30.177
2015    8        9    20   8    3.5620   406.7    6.381      30.156
2015    8        9    20  15    3.5610   406.6    6.382      30.135
2015    8        9    20  21    3.5600   406.5    6.383      30.115
2015    8        9    20  28    3.5591   406.4    6.385      30.095
2015    8        9    20  35    3.5581   406.3    6.385      30.075
2015    8        9    20  42    3.5572   406.1    6.386      30.055
2015    8        9    20  49    3.5563   406.0    6.387      30.036
2015    8        9    20  55    3.5554   405.9    6.388      30.016
2015    8        9    21   2    3.5545   405.8    6.389      29.996
2015    8        9    21   9    3.5537   405.7    6.389      29.976
2015    8        9    21  16    3.5528   405.5    6.390      29.955
2015    8        9    21  23    3.5520   405.4    6.390      29.934
2015    8        9    21  30    3.5512   405.3    6.390      29.913
2015    8        9    21  36    3.5503   405.2    6.391      29.892
2015    8        9    21  43    3.5495   405.1    6.391      29.871
2015    8        9    21  50    3.5488   404.9    6.391      29.849
2015    8        9    21  57    3.5480   404.8    6.391      29.827
2015    8        9    22   4    3.5472   404.7    6.391      29.805
2015    8        9    22  11    3.5464   404.6    6.391      29.782
2015    8        9    22  17    3.5457   404.5    6.391      29.760
2015    8        9    22  24    3.5449   404.3    6.391      29.737
2015    8        9    22  31    3.5442   404.2    6.390      29.714
2015    8        9    22  38    3.5435   404.1    6.390      29.691
2015    8        9    22  45    3.5428   404.0    6.390      29.667
2015    8        9    22  52    3.5421   403.9    6.390      29.643
2015    8        9    22  58    3.5414   403.7    6.389      29.619
2015    8        9    23   5    3.5407   403.6    6.389      29.595
2015    8        9    23  12    3.5401   403.5    6.389      29.571
2015    8        9    23  19    3.5394   403.4    6.388      29.547
2015    8        9    23  26    3.5388   403.2    6.388      29.522
2015    8        9    23  32    3.5382   403.1    6.387      29.497
2015    8        9    23  39    3.5376   403.0    6.387      29.473
2015    8        9    23  46    3.5371   402.9    6.387      29.448
2015    8        9    23  53    3.5365   402.7    6.386      29.423
2015    8       10     0   0    3.5360   402.6    6.386      29.398
2015    8       10     0   7    3.5354   402.5    6.386      29.373
2015    8       10     0  13    3.5349   402.4    6.385      29.348
2015    8       10     0  20    3.5344   402.2    6.385      29.323
2015    8       10     0  27    3.5339   402.1    6.385      29.299
2015    8       10     0  34    3.5335   402.0    6.385      29.274
2015    8       10     0  41    3.5330   401.8    6.385      29.250
2015    8       10     0  48    3.5326   401.7    6.385      29.225
2015    8       10     0  54    3.5322   401.6    6.385      29.201
2015    8       10     1   1    3.5318   401.5    6.385      29.176
2015    8       10     1   8    3.5314   401.3    6.385      29.152
2015    8       10     1  15    3.5310   401.2    6.385      29.128
2015    8       10     1  22    3.5307   401.1    6.385      29.104
2015    8       10     1  29    3.5303   400.9    6.386      29.080
2015    8       10     1  35    3.5300   400.8    6.386      29.057
2015    8       10     1  42    3.5297   400.7    6.387      29.033
2015    8       10     1  49    3.5295   400.5    6.387      29.010
2015    8       10     1  56    3.5292   400.4    6.388      28.987
2015    8       10     2   3    3.5290   400.3    6.389      28.964
2015    8       10     2   9    3.5288   400.1    6.390      28.942
2015    8       10     2  16    3.5286   400.0    6.391      28.919
2015    8       10     2  23    3.5285   399.9    6.392      28.897
2015    8       10     2  30    3.5284   399.7    6.394      28.876
2015    8       10     2  37    3.5283   399.6    6.395      28.855
2015    8       10     2  44    3.5283   399.5    6.397      28.834
2015    8       10     2  50    3.5283   399.3    6.399      28.814
2015    8       10     2  57    3.5283   399.2    6.401      28.794
2015    8       10     3   4    3.5284   399.0    6.404      28.775
2015    8       10     3  11    3.5285   398.9    6.406      28.757
2015    8       10     3  18    3.5287   398.8    6.409      28.739
2015    8       10     3  25    3.5289   398.6    6.412      28.721
2015    8       10     3  31    3.5291   398.5    6.415      28.704
2015    8       10     3  38    3.5294   398.4    6.419      28.689
2015    8       10     3  45    3.5298   398.2    6.422      28.673
2015    8       10     3  52    3.5301   398.1    6.426      28.659
2015    8       10     3  59    3.5306   397.9    6.430      28.645
2015    8       10     4   6    3.5310   397.8    6.434      28.632
2015    8       10     4  12    3.5315   397.7    6.438      28.620
2015    8       10     4  19    3.5321   397.5    6.442      28.608
2015    8       10     4  26    3.5326   397.4    6.446      28.597
2015    8       10     4  33    3.5332   397.3    6.450      28.586
2015    8       10     4  40    3.5339   397.1    6.455      28.576
2015    8       10     4  46    3.5345   397.0    6.460      28.565
2015    8       10     4  53    3.5352   396.9    6.464      28.555
2015    8       10     5   0    3.5360   396.7    6.469      28.545
2015    8       10     5   7    3.5367   396.6    6.474      28.535
2015    8       10     5  14    3.5375   396.5    6.479      28.526
2015    8       10     5  21    3.5383   396.3    6.484      28.516
2015    8       10     5  27    3.5391   396.2    6.489      28.506
2015    8       10     5  34    3.5399   396.1    6.494      28.497
2015    8       10     5  41    3.5407   395.9    6.499      28.488
2015    8       10     5  48    3.5416   395.8    6.504      28.478
2015    8       10     5  55    3.5425   395.6    6.510      28.469
2015    8       10     6   2    3.5434   395.5    6.515      28.460
2015    8       10     6   8    3.5443   395.4    6.520      28.451
2015    8       10     6  15    3.5452   395.2    6.526      28.441
2015    8       10     6  22    3.5461   395.1    6.531      28.432
2015    8       10     6  29    3.5471   395.0    6.536      28.423
2015    8       10     6  36    3.5481   394.8    6.542      28.413
2015    8       10     6  43    3.5491   394.7    6.547      28.404
2015    8       10     6  49    3.5501   394.6    6.553      28.394
2015    8       10     6  56    3.5511   394.4    6.558      28.384
2015    8       10     7   3    3.5522   394.3    6.564      28.375
2015    8       10     7  10    3.5533   394.1    6.569      28.365
2015    8       10     7  17    3.5544   394.0    6.575      28.355
2015    8       10     7  24    3.5556   393.9    6.581      28.345
2015    8       10     7  30    3.5568   393.7    6.586      28.335
2015    8       10     7  37    3.5580   393.6    6.592      28.326
2015    8       10     7  44    3.5592   393.4    6.598      28.316
2015    8       10     7  51    3.5606   393.3    6.604      28.307
2015    8       10     7  58    3.5619   393.2    6.609      28.298
2015    8       10     8   4    3.5633   393.0    6.615      28.290
2015    8       10     8  11    3.5647   392.9    6.621      28.282
2015    8       10     8  18    3.5662   392.7    6.627      28.274
2015    8       10     8  25    3.5678   392.6    6.633      28.266
2015    8       10     8  32    3.5693   392.5    6.640      28.259
2015    8       10     8  39    3.5710   392.3    6.646      28.252
2015    8       10     8  45    3.5727   392.2    6.652      28.245
2015    8       10     8  52    3.5744   392.1    6.659      28.238
2015    8       10     8  59    3.5762   391.9    6.665      28.232
2015    8       10     9   6    3.5780   391.8    6.672      28.227
2015    8       10     9  13    3.5799   391.7    6.679      28.221
2015    8       10     9  20    3.5818   391.5    6.685      28.216
2015    8       10     9  26    3.5838   391.4    6.692      28.212
2015    8       10     9  33    3.5858   391.3    6.699      28.207
2015    8       10     9  40    3.5879   391.2    6.707      28.204
2015    8       10     9  47    3.5900   391.0    6.714      28.200
2015    8       10     9  54    3.5921   390.9    6.721      28.197
2015    8       10    10   0    3.5943   390.8    6.729      28.195
2015    8       10    10   7    3.5966   390.6    6.737      28.193
2015    8       10    10  14    3.5988   390.5    6.745      28.192
2015    8       10    10  21    3.6011   390.4    6.753      28.191
2015    8       10    10  28    3.6035   390.3    6.761      28.190
2015    8       10    10  35    3.6059   390.1    6.769      28.190
2015    8       10    10  41    3.6082   390.0    6.778      28.191
2015    8       10    10  48    3.6107   389.9    6.786      28.192
2015    8       10    10  55    3.6132   389.8    6.795      28.194
2015    8       10    11   2    3.6157   389.7    6.804      28.196
2015    8       10    11   9    3.6183   389.6    6.813      28.199
2015    8       10    11  16    3.6209   389.4    6.823      28.202
2015    8       10    11  22    3.6235   389.3    6.832      28.206
2015    8       10    11  29    3.6262   389.2    6.842      28.211
2015    8       10    11  36    3.6289   389.1    6.852      28.216
2015    8       10    11  43    3.6317   389.0    6.862      28.221
2015    8       10    11  50    3.6345   388.9    6.872      28.228
2015    8       10    11  57    3.6374   388.8    6.883      28.235
2015    8       10    12   3    3.6403   388.7    6.894      28.242
2015    8       10    12  10    3.6432   388.6    6.905      28.250
2015    8       10    12  17    3.6462   388.4    6.916      28.258
2015    8       10    12  24    3.6492   388.3    6.927      28.267
2015    8       10    12  31    3.6523   388.2    6.939      28.277
2015    8       10    12  37    3.6554   388.1    6.951      28.287
2015    8       10    12  44    3.6585   388.0    6.963      28.297
2015    8       10    12  51    3.6617   387.9    6.975      28.308
2015    8       10    12  58    3.6649   387.8    6.988      28.320
2015    8       10    13   5    3.6681   387.7    7.000      28.332
2015    8       10    13  12    3.6714   387.7    7.013      28.344
2015    8       10    13  18    3.6747   387.6    7.026      28.357
2015    8       10    13  25    3.6781   387.5    7.040      28.370
2015    8       10    13  32    3.6815   387.4    7.053      28.384
2015    8       10    13  39    3.6850   387.3    7.067      28.398
2015    8       10    13  46    3.6885   387.2    7.082      28.412
2015    8       10    13  53    3.6920   387.1    7.096      28.427
2015    8       10    13  59    3.6957   387.0    7.111      28.442
2015    8       10    14   6    3.6994   386.9    7.126      28.458
2015    8       10    14  13    3.7031   386.8    7.141      28.474
2015    8       10    14  20    3.7069   386.7    7.157      28.491
2015    8       10    14  27    3.7109   386.7    7.172      28.509
2015    8       10    14  34    3.7148   386.6    7.188      28.527
2015    8       10    14  40    3.7188   386.5    7.204      28.547
2015    8       10    14  47    3.7228   386.4    7.220      28.569
2015    8       10    14  54    3.7269   386.4    7.236      28.592
2015    8       10    15   1    3.7309   386.3    7.251      28.617
2015    8       10    15   8    3.7350   386.2    7.267      28.643
2015    8       10    15  14    3.7391   386.2    7.282      28.670
2015    8       10    15  21    3.7433   386.1    7.298      28.699
2015    8       10    15  28    3.7474   386.0    7.313      28.728
2015    8       10    15  35    3.7516   386.0    7.328      28.758
2015    8       10    15  42    3.7559   385.9    7.343      28.788
2015    8       10    15  49    3.7601   385.9    7.358      28.819
2015    8       10    15  55    3.7644   385.8    7.372      28.849
2015    8       10    16   2    3.7687   385.7    7.387      28.880
2015    8       10    16   9    3.7730   385.7    7.401      28.910
2015    8       10    16  16    3.7774   385.6    7.416      28.941
2015    8       10    16  23    3.7818   385.6    7.430      28.972
2015    8       10    16  30    3.7862   385.5    7.444      29.003
2015    8       10    16  36    3.7906   385.5    7.458      29.034
2015    8       10    16  43    3.7951   385.4    7.472      29.065
2015    8       10    16  50    3.7996   385.4    7.486      29.096
2015    8       10    16  57    3.8041   385.3    7.500      29.127
2015    8       10    17   4    3.8086   385.3    7.514      29.158
2015    8       10    17  11    3.8131   385.3    7.528      29.189
2015    8       10    17  17    3.8177   385.2    7.541      29.220
2015    8       10    17  24    3.8222   385.2    7.555      29.251
2015    8       10    17  31    3.8268   385.1    7.568      29.282
2015    8       10    17  38    3.8314   385.1    7.582      29.313
2015    8       10    17  45    3.8359   385.1    7.595      29.344
2015    8       10    17  51    3.8404   385.1    7.608      29.375
2015    8       10    17  58    3.8450   385.0    7.621      29.406
2015    8       10    18   5    3.8495   385.0    7.635      29.437
2015    8       10    18  12    3.8540   385.0    7.648      29.468
2015    8       10    18  19    3.8586   384.9    7.660      29.499
2015    8       10    18  26    3.8631   384.9    7.673      29.529
2015    8       10    18  32    3.8676   384.9    7.686      29.560
2015    8       10    18  39    3.8721   384.9    7.699      29.590
2015    8       10    18  46    3.8767   384.8    7.711      29.621
2015    8       10    18  53    3.8812   384.8    7.724      29.651
2015    8       10    19   0    3.8857   384.8    7.737      29.681
2015    8       10    19   7    3.8902   384.8    7.749      29.711
2015    8       10    19  13    3.8947   384.8    7.761      29.741
2015    8       10    19  20    3.8992   384.8    7.774      29.771
2015    8       10    19  27    3.9038   384.7    7.786      29.800
2015    8       10    19  34    3.9082   384.7    7.799      29.830
2015    8       10    19  41    3.9128   384.7    7.811      29.859
2015    8       10    19  48    3.9173   384.7    7.824      29.888
2015    8       10    19  54    3.9218   384.7    7.836      29.917
2015    8       10    20   1    3.9263   384.7    7.849      29.946
2015    8       10    20   8    3.9309   384.7    7.861      29.975
2015    8       10    20  15    3.9354   384.7    7.874      30.004
2015    8       10    20  22    3.9399   384.7    7.887      30.033
2015    8       10    20  28    3.9445   384.6    7.899      30.062
2015    8       10    20  35    3.9491   384.6    7.912      30.090
2015    8       10    20  42    3.9537   384.6    7.925      30.119
2015    8       10    20  49    3.9583   384.6    7.939      30.148
2015    8       10    20  56    3.9629   384.6    7.952      30.178
2015    8       10    21   3    3.9676   384.6    7.966      30.207
2015    8       10    21   9    3.9723   384.6    7.979      30.236
2015    8       10    21  16    3.9771   384.6    7.993      30.267
2015    8       10    21  23    3.9819   384.6    8.008      30.297
2015    8       10    21  30    3.9867   384.6    8.022      30.327
2015    8       10    21  37    3.9916   384.7    8.037      30.358
2015    8       10    21  44    3.9966   384.7    8.053      30.390
2015    8       10    21  50    4.0016   384.7    8.068      30.422
2015    8       10    21  57    4.0067   384.7    8.084      30.456
2015    8       10    22   4    4.0118   384.7    8.100      30.490
2015    8       10    22  11    4.0169   384.7    8.115      30.526
2015    8       10    22  18    4.0220   384.8    8.131      30.563
2015    8       10    22  25    4.0272   384.8    8.147      30.602
2015    8       10    22  31    4.0323   384.8    8.163      30.642
2015    8       10    22  38    4.0374   384.9    8.178      30.684
2015    8       10    22  45    4.0424   384.9    8.194      30.727
2015    8       10    22  52    4.0475   384.9    8.210      30.770
2015    8       10    22  59    4.0525   385.0    8.225      30.814
2015    8       10    23   5    4.0574   385.0    8.240      30.860
2015    8       10    23  12    4.0623   385.1    8.255      30.907
2015    8       10    23  19    4.0672   385.1    8.270      30.955
2015    8       10    23  26    4.0720   385.2    8.284      31.004
2015    8       10    23  33    4.0767   385.2    8.298      31.054
2015    8       10    23  40    4.0814   385.2    8.312      31.105
2015    8       10    23  46    4.0861   385.3    8.325      31.155
2015    8       10    23  53    4.0906   385.3    8.338      31.205
2015    8       11     0   0    4.0952   385.4    8.351      31.255
