year    month   day   hour  minute  B_enl V_enl   n_enl       T_enl
[year] [month] [day] [hour][minute] [nT]  [km/s]  [cm-3]      [kK]
2015    8       19     0   2    4.5297   432.6    7.934      38.181
2015    8       19     0   9    4.5310   432.8    7.933      38.211
2015    8       19     0  17    4.5323   432.9    7.933      38.242
2015    8       19     0  24    4.5335   433.1    7.933      38.274
2015    8       19     0  31    4.5347   433.3    7.932      38.308
2015    8       19     0  38    4.5358   433.4    7.932      38.342
2015    8       19     0  45    4.5368   433.6    7.931      38.374
2015    8       19     0  52    4.5378   433.8    7.929      38.407
2015    8       19     0  59    4.5387   434.0    7.928      38.440
2015    8       19     1   6    4.5395   434.1    7.926      38.472
2015    8       19     1  14    4.5403   434.3    7.924      38.505
2015    8       19     1  21    4.5409   434.5    7.921      38.537
2015    8       19     1  28    4.5415   434.7    7.918      38.570
2015    8       19     1  35    4.5421   434.8    7.915      38.601
2015    8       19     1  42    4.5426   435.0    7.911      38.632
2015    8       19     1  49    4.5430   435.2    7.907      38.663
2015    8       19     1  56    4.5433   435.4    7.903      38.692
2015    8       19     2   3    4.5436   435.5    7.898      38.721
2015    8       19     2  11    4.5439   435.7    7.894      38.749
2015    8       19     2  18    4.5441   435.9    7.889      38.776
2015    8       19     2  25    4.5442   436.0    7.884      38.803
2015    8       19     2  32    4.5443   436.2    7.878      38.828
2015    8       19     2  39    4.5443   436.4    7.873      38.853
2015    8       19     2  46    4.5443   436.6    7.867      38.878
2015    8       19     2  53    4.5442   436.7    7.861      38.901
2015    8       19     3   0    4.5441   436.9    7.855      38.924
2015    8       19     3   8    4.5439   437.1    7.849      38.946
2015    8       19     3  15    4.5437   437.3    7.842      38.968
2015    8       19     3  22    4.5434   437.4    7.836      38.989
2015    8       19     3  29    4.5431   437.6    7.829      39.009
2015    8       19     3  36    4.5427   437.8    7.822      39.028
2015    8       19     3  43    4.5423   438.0    7.815      39.047
2015    8       19     3  50    4.5419   438.1    7.808      39.065
2015    8       19     3  57    4.5414   438.3    7.800      39.083
2015    8       19     4   4    4.5408   438.5    7.793      39.100
2015    8       19     4  12    4.5402   438.6    7.785      39.116
2015    8       19     4  19    4.5396   438.8    7.778      39.132
2015    8       19     4  26    4.5389   439.0    7.770      39.148
2015    8       19     4  33    4.5382   439.2    7.762      39.162
2015    8       19     4  40    4.5375   439.3    7.754      39.176
2015    8       19     4  47    4.5367   439.5    7.746      39.190
2015    8       19     4  54    4.5359   439.7    7.738      39.203
2015    8       19     5   1    4.5350   439.9    7.730      39.216
2015    8       19     5   8    4.5341   440.0    7.722      39.228
2015    8       19     5  16    4.5332   440.2    7.713      39.240
2015    8       19     5  23    4.5323   440.4    7.705      39.251
2015    8       19     5  30    4.5313   440.5    7.697      39.262
2015    8       19     5  37    4.5302   440.7    7.688      39.272
2015    8       19     5  44    4.5292   440.9    7.680      39.282
2015    8       19     5  51    4.5281   441.0    7.671      39.291
2015    8       19     5  58    4.5270   441.2    7.662      39.301
2015    8       19     6   5    4.5258   441.4    7.654      39.309
2015    8       19     6  12    4.5246   441.6    7.645      39.318
2015    8       19     6  20    4.5233   441.7    7.636      39.326
2015    8       19     6  27    4.5221   441.9    7.627      39.333
2015    8       19     6  34    4.5208   442.1    7.619      39.341
2015    8       19     6  41    4.5194   442.2    7.610      39.348
2015    8       19     6  48    4.5181   442.4    7.601      39.354
2015    8       19     6  55    4.5167   442.5    7.592      39.361
2015    8       19     7   2    4.5152   442.7    7.584      39.367
2015    8       19     7   9    4.5138   442.9    7.575      39.373
2015    8       19     7  17    4.5123   443.0    7.566      39.378
2015    8       19     7  24    4.5108   443.2    7.558      39.384
2015    8       19     7  31    4.5092   443.4    7.549      39.389
2015    8       19     7  38    4.5077   443.5    7.540      39.394
2015    8       19     7  45    4.5061   443.7    7.532      39.399
2015    8       19     7  52    4.5045   443.8    7.523      39.404
2015    8       19     7  59    4.5029   444.0    7.515      39.408
2015    8       19     8   6    4.5012   444.2    7.507      39.413
2015    8       19     8  14    4.4995   444.3    7.498      39.418
2015    8       19     8  21    4.4978   444.5    7.490      39.424
2015    8       19     8  28    4.4960   444.6    7.481      39.431
2015    8       19     8  35    4.4942   444.8    7.473      39.437
2015    8       19     8  42    4.4923   444.9    7.464      39.444
2015    8       19     8  49    4.4904   445.1    7.456      39.451
2015    8       19     8  56    4.4885   445.3    7.447      39.457
2015    8       19     9   3    4.4865   445.4    7.438      39.464
2015    8       19     9  11    4.4845   445.6    7.429      39.469
2015    8       19     9  18    4.4825   445.7    7.421      39.475
2015    8       19     9  25    4.4804   445.9    7.412      39.480
2015    8       19     9  32    4.4783   446.0    7.403      39.485
2015    8       19     9  39    4.4761   446.2    7.394      39.489
2015    8       19     9  46    4.4740   446.3    7.385      39.493
2015    8       19     9  53    4.4718   446.5    7.376      39.497
2015    8       19    10   0    4.4696   446.6    7.367      39.500
2015    8       19    10   8    4.4673   446.8    7.358      39.503
2015    8       19    10  15    4.4650   446.9    7.349      39.505
2015    8       19    10  22    4.4627   447.1    7.341      39.508
2015    8       19    10  29    4.4604   447.2    7.332      39.510
2015    8       19    10  36    4.4580   447.4    7.323      39.511
2015    8       19    10  43    4.4556   447.5    7.314      39.513
2015    8       19    10  50    4.4532   447.6    7.305      39.514
2015    8       19    10  57    4.4507   447.8    7.296      39.515
2015    8       19    11   4    4.4482   447.9    7.287      39.516
2015    8       19    11  12    4.4457   448.1    7.278      39.516
2015    8       19    11  19    4.4431   448.2    7.270      39.517
2015    8       19    11  26    4.4406   448.4    7.261      39.517
2015    8       19    11  33    4.4380   448.5    7.252      39.517
2015    8       19    11  40    4.4353   448.6    7.243      39.516
2015    8       19    11  47    4.4327   448.8    7.234      39.516
2015    8       19    11  54    4.4300   448.9    7.225      39.515
2015    8       19    12   1    4.4273   449.1    7.216      39.514
2015    8       19    12   8    4.4246   449.2    7.207      39.513
2015    8       19    12  16    4.4218   449.3    7.198      39.511
2015    8       19    12  23    4.4190   449.5    7.190      39.510
2015    8       19    12  30    4.4162   449.6    7.181      39.508
2015    8       19    12  37    4.4134   449.8    7.172      39.506
2015    8       19    12  44    4.4105   449.9    7.163      39.504
2015    8       19    12  51    4.4076   450.0    7.154      39.501
2015    8       19    12  58    4.4047   450.2    7.145      39.498
2015    8       19    13   5    4.4018   450.3    7.136      39.495
2015    8       19    13  12    4.3989   450.4    7.127      39.492
2015    8       19    13  20    4.3959   450.6    7.118      39.488
2015    8       19    13  27    4.3929   450.7    7.109      39.485
2015    8       19    13  34    4.3900   450.8    7.100      39.481
2015    8       19    13  41    4.3870   450.9    7.091      39.477
2015    8       19    13  48    4.3840   451.1    7.082      39.473
2015    8       19    13  55    4.3810   451.2    7.074      39.468
2015    8       19    14   2    4.3780   451.3    7.065      39.464
2015    8       19    14   9    4.3750   451.4    7.056      39.459
2015    8       19    14  17    4.3720   451.6    7.048      39.455
2015    8       19    14  24    4.3690   451.7    7.039      39.450
2015    8       19    14  31    4.3660   451.8    7.031      39.446
2015    8       19    14  38    4.3631   451.9    7.022      39.441
2015    8       19    14  45    4.3601   452.0    7.014      39.436
2015    8       19    14  52    4.3572   452.1    7.006      39.432
2015    8       19    14  59    4.3543   452.3    6.998      39.428
2015    8       19    15   6    4.3515   452.4    6.990      39.423
2015    8       19    15  13    4.3486   452.5    6.983      39.419
2015    8       19    15  21    4.3458   452.6    6.975      39.415
2015    8       19    15  28    4.3431   452.7    6.968      39.412
2015    8       19    15  35    4.3403   452.8    6.960      39.409
2015    8       19    15  42    4.3376   452.9    6.953      39.406
2015    8       19    15  49    4.3349   453.1    6.945      39.403
2015    8       19    15  56    4.3322   453.2    6.938      39.401
2015    8       19    16   3    4.3294   453.3    6.930      39.398
2015    8       19    16  11    4.3267   453.4    6.923      39.395
2015    8       19    16  18    4.3240   453.5    6.915      39.391
2015    8       19    16  25    4.3213   453.6    6.908      39.387
2015    8       19    16  32    4.3186   453.7    6.900      39.383
2015    8       19    16  39    4.3158   453.8    6.892      39.378
2015    8       19    16  46    4.3131   454.0    6.885      39.373
2015    8       19    16  53    4.3103   454.1    6.877      39.368
2015    8       19    17   0    4.3076   454.2    6.869      39.362
2015    8       19    17   8    4.3048   454.3    6.862      39.355
2015    8       19    17  15    4.3020   454.4    6.854      39.349
2015    8       19    17  22    4.2993   454.5    6.846      39.342
2015    8       19    17  29    4.2965   454.6    6.839      39.335
2015    8       19    17  36    4.2937   454.7    6.831      39.328
2015    8       19    17  43    4.2909   454.8    6.823      39.320
2015    8       19    17  50    4.2882   454.9    6.816      39.312
2015    8       19    17  57    4.2854   455.0    6.809      39.304
2015    8       19    18   4    4.2826   455.1    6.801      39.297
2015    8       19    18  12    4.2798   455.2    6.794      39.289
2015    8       19    18  19    4.2771   455.3    6.787      39.281
2015    8       19    18  26    4.2743   455.4    6.779      39.273
2015    8       19    18  33    4.2715   455.5    6.772      39.265
2015    8       19    18  40    4.2687   455.6    6.765      39.257
2015    8       19    18  47    4.2660   455.7    6.758      39.249
2015    8       19    18  54    4.2632   455.8    6.751      39.241
2015    8       19    19   1    4.2604   455.9    6.744      39.233
2015    8       19    19   8    4.2576   456.0    6.737      39.225
2015    8       19    19  16    4.2549   456.1    6.730      39.217
2015    8       19    19  23    4.2521   456.2    6.724      39.209
2015    8       19    19  30    4.2493   456.2    6.717      39.201
2015    8       19    19  37    4.2466   456.3    6.710      39.193
2015    8       19    19  44    4.2438   456.4    6.704      39.185
2015    8       19    19  51    4.2411   456.5    6.697      39.177
2015    8       19    19  58    4.2383   456.6    6.690      39.169
2015    8       19    20   5    4.2356   456.7    6.684      39.162
2015    8       19    20  12    4.2329   456.8    6.678      39.154
2015    8       19    20  20    4.2302   456.9    6.671      39.146
2015    8       19    20  27    4.2276   456.9    6.665      39.139
2015    8       19    20  34    4.2249   457.0    6.659      39.131
2015    8       19    20  41    4.2223   457.1    6.653      39.123
2015    8       19    20  48    4.2197   457.2    6.647      39.116
2015    8       19    20  55    4.2172   457.3    6.641      39.109
2015    8       19    21   2    4.2146   457.3    6.636      39.102
2015    8       19    21   9    4.2121   457.4    6.630      39.095
2015    8       19    21  17    4.2097   457.5    6.625      39.088
2015    8       19    21  24    4.2072   457.6    6.620      39.082
2015    8       19    21  31    4.2049   457.6    6.614      39.076
2015    8       19    21  38    4.2025   457.7    6.609      39.070
2015    8       19    21  45    4.2002   457.8    6.605      39.065
2015    8       19    21  52    4.1980   457.9    6.600      39.059
2015    8       19    21  59    4.1958   457.9    6.595      39.055
2015    8       19    22   6    4.1936   458.0    6.591      39.050
2015    8       19    22  13    4.1915   458.1    6.587      39.047
2015    8       19    22  21    4.1894   458.2    6.583      39.043
2015    8       19    22  28    4.1874   458.2    6.579      39.040
2015    8       19    22  35    4.1854   458.3    6.575      39.038
2015    8       19    22  42    4.1835   458.4    6.571      39.036
2015    8       19    22  49    4.1816   458.4    6.567      39.035
2015    8       19    22  56    4.1798   458.5    6.564      39.035
2015    8       19    23   3    4.1779   458.6    6.560      39.035
2015    8       19    23  10    4.1761   458.7    6.556      39.035
2015    8       19    23  18    4.1743   458.7    6.553      39.035
2015    8       19    23  25    4.1726   458.8    6.549      39.035
2015    8       19    23  32    4.1707   458.9    6.545      39.036
2015    8       19    23  39    4.1689   459.0    6.541      39.035
2015    8       19    23  46    4.1672   459.0    6.536      39.035
2015    8       19    23  53    4.1653   459.1    6.532      39.035
2015    8       20     0   0    4.1635   459.2    6.528      39.034
2015    8       20     0   8    4.1617   459.3    6.523      39.033
2015    8       20     0  15    4.1599   459.3    6.519      39.031
2015    8       20     0  22    4.1581   459.4    6.514      39.030
2015    8       20     0  29    4.1563   459.5    6.510      39.028
2015    8       20     0  36    4.1544   459.6    6.505      39.025
2015    8       20     0  43    4.1526   459.6    6.500      39.023
2015    8       20     0  50    4.1507   459.7    6.495      39.020
2015    8       20     0  57    4.1489   459.8    6.491      39.017
2015    8       20     1   4    4.1470   459.9    6.486      39.013
2015    8       20     1  12    4.1452   459.9    6.481      39.010
2015    8       20     1  19    4.1433   460.0    6.476      39.006
2015    8       20     1  26    4.1415   460.1    6.471      39.002
2015    8       20     1  33    4.1396   460.2    6.466      38.997
2015    8       20     1  40    4.1378   460.2    6.461      38.993
2015    8       20     1  47    4.1359   460.3    6.456      38.988
2015    8       20     1  54    4.1341   460.4    6.451      38.983
2015    8       20     2   1    4.1322   460.4    6.446      38.977
2015    8       20     2   8    4.1304   460.5    6.441      38.972
2015    8       20     2  16    4.1286   460.6    6.436      38.966
2015    8       20     2  23    4.1268   460.7    6.431      38.961
2015    8       20     2  30    4.1249   460.7    6.427      38.955
2015    8       20     2  37    4.1231   460.8    6.422      38.948
2015    8       20     2  44    4.1213   460.9    6.417      38.942
2015    8       20     2  51    4.1195   460.9    6.412      38.936
2015    8       20     2  58    4.1177   461.0    6.407      38.929
2015    8       20     3   5    4.1159   461.1    6.402      38.922
2015    8       20     3  12    4.1141   461.2    6.397      38.916
2015    8       20     3  20    4.1124   461.2    6.393      38.909
2015    8       20     3  27    4.1106   461.3    6.388      38.902
2015    8       20     3  34    4.1089   461.4    6.383      38.896
2015    8       20     3  41    4.1071   461.4    6.379      38.889
2015    8       20     3  48    4.1054   461.5    6.374      38.882
2015    8       20     3  55    4.1037   461.6    6.370      38.876
2015    8       20     4   2    4.1021   461.6    6.365      38.869
2015    8       20     4   9    4.1004   461.7    6.361      38.863
2015    8       20     4  17    4.0988   461.8    6.356      38.857
2015    8       20     4  24    4.0971   461.8    6.352      38.850
2015    8       20     4  31    4.0955   461.9    6.348      38.844
2015    8       20     4  38    4.0939   462.0    6.344      38.838
2015    8       20     4  45    4.0923   462.0    6.339      38.833
2015    8       20     4  52    4.0908   462.1    6.335      38.827
2015    8       20     4  59    4.0892   462.2    6.331      38.822
2015    8       20     5   6    4.0877   462.2    6.327      38.816
2015    8       20     5  13    4.0862   462.3    6.323      38.811
2015    8       20     5  21    4.0847   462.4    6.319      38.806
2015    8       20     5  28    4.0832   462.4    6.315      38.802
2015    8       20     5  35    4.0818   462.5    6.312      38.797
2015    8       20     5  42    4.0803   462.6    6.308      38.792
2015    8       20     5  49    4.0788   462.6    6.304      38.788
2015    8       20     5  56    4.0774   462.7    6.300      38.784
2015    8       20     6   3    4.0760   462.8    6.296      38.779
2015    8       20     6  10    4.0745   462.8    6.293      38.775
2015    8       20     6  18    4.0731   462.9    6.289      38.771
2015    8       20     6  25    4.0717   463.0    6.285      38.767
2015    8       20     6  32    4.0703   463.0    6.281      38.764
2015    8       20     6  39    4.0689   463.1    6.278      38.760
2015    8       20     6  46    4.0676   463.2    6.274      38.756
2015    8       20     6  53    4.0662   463.2    6.270      38.752
2015    8       20     7   0    4.0648   463.3    6.266      38.749
2015    8       20     7   8    4.0635   463.3    6.263      38.745
2015    8       20     7  15    4.0621   463.4    6.259      38.742
2015    8       20     7  22    4.0608   463.5    6.255      38.738
2015    8       20     7  29    4.0595   463.5    6.252      38.734
2015    8       20     7  36    4.0581   463.6    6.248      38.731
2015    8       20     7  43    4.0568   463.6    6.244      38.727
2015    8       20     7  50    4.0555   463.7    6.241      38.723
2015    8       20     7  57    4.0542   463.8    6.237      38.720
2015    8       20     8   4    4.0529   463.8    6.234      38.716
2015    8       20     8  12    4.0516   463.9    6.230      38.712
2015    8       20     8  19    4.0503   463.9    6.226      38.708
2015    8       20     8  26    4.0491   464.0    6.223      38.705
2015    8       20     8  33    4.0478   464.0    6.219      38.701
2015    8       20     8  40    4.0466   464.1    6.216      38.697
2015    8       20     8  47    4.0453   464.1    6.212      38.692
2015    8       20     8  54    4.0441   464.2    6.209      38.688
2015    8       20     9   1    4.0429   464.3    6.205      38.684
2015    8       20     9   9    4.0417   464.3    6.202      38.679
2015    8       20     9  16    4.0405   464.4    6.199      38.675
2015    8       20     9  23    4.0394   464.4    6.195      38.671
2015    8       20     9  30    4.0382   464.5    6.192      38.666
2015    8       20     9  37    4.0371   464.5    6.188      38.661
2015    8       20     9  44    4.0359   464.6    6.185      38.657
2015    8       20     9  51    4.0348   464.7    6.182      38.652
2015    8       20     9  58    4.0337   464.7    6.178      38.647
2015    8       20    10   5    4.0326   464.8    6.175      38.642
2015    8       20    10  13    4.0315   464.8    6.172      38.637
2015    8       20    10  20    4.0304   464.9    6.168      38.632
2015    8       20    10  27    4.0293   464.9    6.165      38.626
2015    8       20    10  34    4.0283   465.0    6.161      38.621
2015    8       20    10  41    4.0272   465.1    6.158      38.616
2015    8       20    10  48    4.0261   465.1    6.155      38.611
2015    8       20    10  55    4.0251   465.2    6.151      38.606
2015    8       20    11   2    4.0240   465.2    6.148      38.600
2015    8       20    11   9    4.0230   465.3    6.144      38.595
2015    8       20    11  17    4.0219   465.3    6.141      38.590
2015    8       20    11  24    4.0209   465.4    6.137      38.584
2015    8       20    11  31    4.0199   465.4    6.134      38.579
2015    8       20    11  38    4.0189   465.5    6.131      38.574
2015    8       20    11  45    4.0179   465.6    6.127      38.569
2015    8       20    11  52    4.0169   465.6    6.124      38.563
2015    8       20    11  59    4.0159   465.7    6.120      38.558
2015    8       20    12   6    4.0149   465.7    6.117      38.553
2015    8       20    12  13    4.0139   465.8    6.113      38.548
2015    8       20    12  21    4.0129   465.8    6.110      38.543
2015    8       20    12  28    4.0120   465.9    6.107      38.538
2015    8       20    12  35    4.0110   465.9    6.103      38.533
2015    8       20    12  42    4.0101   466.0    6.100      38.529
2015    8       20    12  49    4.0092   466.1    6.096      38.524
2015    8       20    12  56    4.0083   466.1    6.093      38.519
2015    8       20    13   3    4.0073   466.2    6.090      38.515
2015    8       20    13  10    4.0065   466.2    6.087      38.511
2015    8       20    13  18    4.0056   466.3    6.083      38.506
2015    8       20    13  25    4.0047   466.3    6.080      38.502
2015    8       20    13  32    4.0038   466.4    6.077      38.498
2015    8       20    13  39    4.0030   466.4    6.074      38.494
2015    8       20    13  46    4.0022   466.5    6.071      38.489
2015    8       20    13  53    4.0013   466.5    6.068      38.485
2015    8       20    14   0    4.0005   466.6    6.065      38.481
2015    8       20    14   8    3.9998   466.6    6.062      38.477
2015    8       20    14  15    3.9990   466.7    6.059      38.474
2015    8       20    14  22    3.9982   466.7    6.056      38.470
2015    8       20    14  29    3.9975   466.8    6.053      38.466
2015    8       20    14  36    3.9968   466.8    6.050      38.462
2015    8       20    14  43    3.9961   466.9    6.047      38.459
2015    8       20    14  50    3.9954   466.9    6.045      38.455
2015    8       20    14  57    3.9948   467.0    6.042      38.451
2015    8       20    15   5    3.9941   467.0    6.039      38.448
2015    8       20    15  12    3.9935   467.1    6.037      38.444
2015    8       20    15  19    3.9929   467.1    6.034      38.441
2015    8       20    15  26    3.9924   467.2    6.032      38.437
2015    8       20    15  33    3.9918   467.2    6.030      38.434
2015    8       20    15  40    3.9913   467.3    6.027      38.431
2015    8       20    15  47    3.9908   467.3    6.025      38.428
2015    8       20    15  54    3.9904   467.3    6.023      38.424
2015    8       20    16   1    3.9899   467.4    6.020      38.421
2015    8       20    16   9    3.9895   467.4    6.018      38.418
2015    8       20    16  16    3.9891   467.5    6.016      38.415
2015    8       20    16  23    3.9887   467.5    6.014      38.412
2015    8       20    16  30    3.9884   467.6    6.012      38.409
2015    8       20    16  37    3.9880   467.6    6.010      38.406
2015    8       20    16  44    3.9877   467.7    6.009      38.403
2015    8       20    16  51    3.9874   467.7    6.007      38.400
2015    8       20    16  58    3.9872   467.7    6.005      38.398
2015    8       20    17   5    3.9869   467.8    6.003      38.395
2015    8       20    17  12    3.9866   467.8    6.001      38.393
2015    8       20    17  20    3.9864   467.9    6.000      38.390
2015    8       20    17  27    3.9862   467.9    5.998      38.388
2015    8       20    17  34    3.9859   468.0    5.996      38.386
2015    8       20    17  41    3.9857   468.0    5.994      38.384
2015    8       20    17  48    3.9855   468.1    5.993      38.382
2015    8       20    17  55    3.9853   468.1    5.991      38.379
2015    8       20    18   2    3.9850   468.1    5.989      38.377
2015    8       20    18   9    3.9848   468.2    5.988      38.375
2015    8       20    18  16    3.9845   468.2    5.986      38.373
2015    8       20    18  23    3.9843   468.3    5.984      38.371
2015    8       20    18  31    3.9841   468.3    5.982      38.370
2015    8       20    18  38    3.9838   468.4    5.980      38.369
2015    8       20    18  45    3.9836   468.4    5.978      38.369
2015    8       20    18  52    3.9834   468.5    5.976      38.369
2015    8       20    18  59    3.9831   468.5    5.974      38.369
2015    8       20    19   6    3.9829   468.5    5.972      38.369
2015    8       20    19  13    3.9827   468.6    5.970      38.369
2015    8       20    19  20    3.9825   468.6    5.968      38.369
2015    8       20    19  27    3.9823   468.7    5.966      38.369
2015    8       20    19  34    3.9821   468.7    5.964      38.370
2015    8       20    19  41    3.9819   468.8    5.962      38.370
2015    8       20    19  49    3.9818   468.8    5.959      38.370
2015    8       20    19  56    3.9816   468.8    5.957      38.369
2015    8       20    20   3    3.9815   468.9    5.955      38.369
2015    8       20    20  10    3.9813   468.9    5.953      38.369
2015    8       20    20  17    3.9812   469.0    5.950      38.369
2015    8       20    20  24    3.9811   469.0    5.948      38.369
2015    8       20    20  31    3.9810   469.1    5.946      38.368
2015    8       20    20  38    3.9810   469.1    5.944      38.368
2015    8       20    20  45    3.9809   469.1    5.942      38.368
2015    8       20    20  52    3.9809   469.2    5.940      38.368
2015    8       20    21   0    3.9809   469.2    5.938      38.367
2015    8       20    21   7    3.9809   469.3    5.936      38.367
2015    8       20    21  14    3.9809   469.3    5.934      38.367
2015    8       20    21  21    3.9810   469.4    5.932      38.367
2015    8       20    21  28    3.9811   469.4    5.930      38.367
2015    8       20    21  35    3.9812   469.4    5.928      38.367
2015    8       20    21  42    3.9813   469.5    5.926      38.367
2015    8       20    21  49    3.9815   469.5    5.924      38.367
2015    8       20    21  57    3.9817   469.6    5.922      38.368
2015    8       20    22   4    3.9819   469.6    5.921      38.368
2015    8       20    22  11    3.9821   469.7    5.919      38.369
2015    8       20    22  18    3.9824   469.7    5.918      38.370
2015    8       20    22  25    3.9827   469.7    5.916      38.370
2015    8       20    22  32    3.9831   469.8    5.915      38.371
2015    8       20    22  39    3.9835   469.8    5.913      38.373
2015    8       20    22  46    3.9839   469.9    5.912      38.374
2015    8       20    22  53    3.9843   469.9    5.911      38.376
2015    8       20    23   1    3.9848   470.0    5.910      38.377
2015    8       20    23   8    3.9853   470.0    5.909      38.379
2015    8       20    23  15    3.9859   470.1    5.908      38.381
2015    8       20    23  22    3.9865   470.1    5.907      38.384
2015    8       20    23  29    3.9870   470.2    5.907      38.386
2015    8       20    23  36    3.9877   470.2    5.906      38.389
2015    8       20    23  43    3.9883   470.3    5.906      38.392
2015    8       20    23  50    3.9890   470.3    5.905      38.395
2015    8       20    23  57    3.9897   470.4    5.905      38.398
2015    8       21     0   5    3.9904   470.4    5.905      38.401
2015    8       21     0  12    3.9911   470.5    5.905      38.405
2015    8       21     0  19    3.9919   470.5    5.905      38.409
2015    8       21     0  26    3.9926   470.6    5.905      38.414
2015    8       21     0  33    3.9934   470.6    5.905      38.418
2015    8       21     0  40    3.9942   470.7    5.906      38.424
2015    8       21     0  47    3.9950   470.7    5.906      38.429
2015    8       21     0  54    3.9959   470.8    5.907      38.435
2015    8       21     1   1    3.9967   470.8    5.907      38.441
2015    8       21     1   8    3.9975   470.9    5.908      38.447
2015    8       21     1  16    3.9984   470.9    5.909      38.454
2015    8       21     1  23    3.9992   470.9    5.910      38.460
2015    8       21     1  30    4.0000   471.0    5.911      38.468
2015    8       21     1  37    4.0008   471.0    5.912      38.476
2015    8       21     1  44    4.0016   471.1    5.912      38.486
2015    8       21     1  51    4.0024   471.1    5.913      38.497
2015    8       21     1  58    4.0032   471.2    5.914      38.510
2015    8       21     2   5    4.0039   471.3    5.914      38.525
2015    8       21     2  12    4.0047   471.3    5.915      38.540
2015    8       21     2  19    4.0054   471.4    5.915      38.556
2015    8       21     2  26    4.0061   471.4    5.915      38.572
2015    8       21     2  34    4.0068   471.5    5.915      38.588
2015    8       21     2  41    4.0075   471.5    5.914      38.603
2015    8       21     2  48    4.0081   471.6    5.914      38.618
2015    8       21     2  55    4.0088   471.6    5.913      38.633
2015    8       21     3   2    4.0095   471.7    5.912      38.647
2015    8       21     3   9    4.0101   471.7    5.911      38.660
2015    8       21     3  16    4.0108   471.8    5.910      38.673
2015    8       21     3  23    4.0114   471.8    5.909      38.686
2015    8       21     3  30    4.0121   471.9    5.908      38.698
2015    8       21     3  37    4.0128   472.0    5.906      38.710
2015    8       21     3  45    4.0134   472.0    5.905      38.721
2015    8       21     3  52    4.0141   472.1    5.903      38.732
2015    8       21     3  59    4.0148   472.1    5.902      38.743
2015    8       21     4   6    4.0155   472.2    5.900      38.753
2015    8       21     4  13    4.0162   472.2    5.899      38.763
2015    8       21     4  20    4.0170   472.3    5.897      38.772
2015    8       21     4  27    4.0177   472.3    5.895      38.781
2015    8       21     4  34    4.0185   472.4    5.894      38.790
2015    8       21     4  41    4.0193   472.4    5.892      38.799
2015    8       21     4  49    4.0201   472.5    5.890      38.808
2015    8       21     4  56    4.0209   472.6    5.889      38.816
2015    8       21     5   3    4.0217   472.6    5.887      38.825
2015    8       21     5  10    4.0226   472.7    5.885      38.833
2015    8       21     5  17    4.0235   472.7    5.884      38.841
2015    8       21     5  24    4.0244   472.8    5.882      38.850
2015    8       21     5  31    4.0254   472.8    5.880      38.858
2015    8       21     5  38    4.0263   472.9    5.879      38.866
2015    8       21     5  45    4.0273   473.0    5.878      38.875
2015    8       21     5  53    4.0284   473.0    5.876      38.883
2015    8       21     6   0    4.0294   473.1    5.875      38.892
2015    8       21     6   7    4.0305   473.1    5.874      38.900
2015    8       21     6  14    4.0317   473.2    5.873      38.909
2015    8       21     6  21    4.0328   473.3    5.872      38.918
2015    8       21     6  28    4.0340   473.3    5.871      38.927
2015    8       21     6  35    4.0353   473.4    5.870      38.937
2015    8       21     6  42    4.0365   473.5    5.870      38.947
2015    8       21     6  49    4.0378   473.5    5.869      38.956
2015    8       21     6  57    4.0391   473.6    5.869      38.967
2015    8       21     7   4    4.0405   473.7    5.869      38.977
2015    8       21     7  11    4.0418   473.7    5.869      38.988
2015    8       21     7  18    4.0432   473.8    5.869      38.999
2015    8       21     7  25    4.0446   473.9    5.870      39.010
2015    8       21     7  32    4.0460   473.9    5.870      39.022
2015    8       21     7  39    4.0474   474.0    5.871      39.035
2015    8       21     7  46    4.0488   474.1    5.871      39.048
2015    8       21     7  53    4.0503   474.1    5.872      39.061
2015    8       21     8   0    4.0517   474.2    5.874      39.075
2015    8       21     8   8    4.0531   474.3    5.875      39.090
2015    8       21     8  15    4.0546   474.4    5.876      39.104
2015    8       21     8  22    4.0560   474.4    5.878      39.120
2015    8       21     8  29    4.0573   474.5    5.880      39.136
2015    8       21     8  36    4.0587   474.6    5.882      39.152
2015    8       21     8  43    4.0600   474.6    5.884      39.169
2015    8       21     8  50    4.0613   474.7    5.886      39.187
2015    8       21     8  57    4.0625   474.8    5.888      39.205
2015    8       21     9   4    4.0637   474.9    5.891      39.226
2015    8       21     9  11    4.0649   474.9    5.893      39.248
2015    8       21     9  19    4.0660   475.0    5.895      39.272
2015    8       21     9  26    4.0671   475.1    5.898      39.297
2015    8       21     9  33    4.0682   475.2    5.900      39.323
2015    8       21     9  40    4.0692   475.3    5.902      39.350
2015    8       21     9  47    4.0702   475.3    5.904      39.379
2015    8       21     9  54    4.0711   475.4    5.906      39.410
2015    8       21    10   1    4.0721   475.5    5.908      39.441
2015    8       21    10   8    4.0730   475.6    5.909      39.473
2015    8       21    10  15    4.0738   475.7    5.910      39.506
2015    8       21    10  22    4.0747   475.8    5.911      39.538
2015    8       21    10  30    4.0755   475.8    5.911      39.569
2015    8       21    10  37    4.0763   475.9    5.912      39.599
2015    8       21    10  44    4.0771   476.0    5.912      39.628
2015    8       21    10  51    4.0778   476.1    5.911      39.657
2015    8       21    10  58    4.0786   476.2    5.911      39.684
2015    8       21    11   5    4.0794   476.3    5.910      39.711
2015    8       21    11  12    4.0801   476.4    5.909      39.736
2015    8       21    11  19    4.0809   476.5    5.908      39.761
2015    8       21    11  26    4.0817   476.6    5.906      39.784
2015    8       21    11  33    4.0824   476.6    5.905      39.807
2015    8       21    11  41    4.0832   476.7    5.903      39.829
2015    8       21    11  48    4.0840   476.8    5.901      39.850
2015    8       21    11  55    4.0847   476.9    5.899      39.870
2015    8       21    12   2    4.0855   477.0    5.897      39.890
2015    8       21    12   9    4.0863   477.1    5.895      39.909
2015    8       21    12  16    4.0871   477.2    5.893      39.927
2015    8       21    12  23    4.0879   477.3    5.890      39.945
2015    8       21    12  30    4.0887   477.4    5.888      39.962
2015    8       21    12  38    4.0895   477.5    5.885      39.979
2015    8       21    12  45    4.0903   477.6    5.883      39.995
2015    8       21    12  52    4.0911   477.7    5.880      40.011
2015    8       21    12  59    4.0919   477.8    5.877      40.026
2015    8       21    13   6    4.0927   477.9    5.875      40.041
2015    8       21    13  13    4.0936   478.0    5.872      40.056
2015    8       21    13  20    4.0944   478.1    5.869      40.071
2015    8       21    13  27    4.0953   478.2    5.866      40.085
2015    8       21    13  35    4.0962   478.3    5.864      40.099
2015    8       21    13  42    4.0971   478.4    5.861      40.113
2015    8       21    13  49    4.0979   478.5    5.859      40.126
2015    8       21    13  56    4.0988   478.6    5.856      40.140
2015    8       21    14   3    4.0998   478.6    5.854      40.153
2015    8       21    14  10    4.1007   478.7    5.851      40.167
2015    8       21    14  17    4.1016   478.8    5.849      40.181
2015    8       21    14  24    4.1026   478.9    5.847      40.194
2015    8       21    14  31    4.1035   479.0    5.845      40.208
2015    8       21    14  38    4.1045   479.1    5.843      40.222
2015    8       21    14  46    4.1055   479.2    5.841      40.236
2015    8       21    14  53    4.1065   479.3    5.840      40.251
2015    8       21    15   0    4.1075   479.4    5.839      40.266
2015    8       21    15   7    4.1085   479.6    5.838      40.282
2015    8       21    15  14    4.1095   479.7    5.837      40.297
2015    8       21    15  21    4.1104   479.8    5.836      40.314
2015    8       21    15  28    4.1113   479.9    5.836      40.331
2015    8       21    15  35    4.1121   480.0    5.836      40.349
2015    8       21    15  42    4.1128   480.1    5.837      40.368
2015    8       21    15  49    4.1135   480.2    5.837      40.388
2015    8       21    15  57    4.1141   480.3    5.838      40.409
2015    8       21    16   4    4.1146   480.4    5.839      40.432
2015    8       21    16  11    4.1151   480.5    5.841      40.457
2015    8       21    16  18    4.1154   480.6    5.842      40.485
2015    8       21    16  25    4.1157   480.7    5.844      40.514
2015    8       21    16  32    4.1160   480.9    5.845      40.545
2015    8       21    16  39    4.1162   481.0    5.847      40.577
2015    8       21    16  46    4.1163   481.1    5.848      40.609
2015    8       21    16  53    4.1163   481.2    5.850      40.640
2015    8       21    17   0    4.1163   481.3    5.851      40.673
2015    8       21    17   8    4.1162   481.5    5.852      40.707
2015    8       21    17  15    4.1162   481.6    5.852      40.742
2015    8       21    17  22    4.1160   481.7    5.853      40.778
2015    8       21    17  29    4.1158   481.9    5.853      40.814
2015    8       21    17  36    4.1156   482.0    5.852      40.850
2015    8       21    17  43    4.1154   482.1    5.852      40.886
2015    8       21    17  50    4.1151   482.3    5.851      40.920
2015    8       21    17  57    4.1148   482.4    5.849      40.954
2015    8       21    18   4    4.1145   482.5    5.848      40.987
2015    8       21    18  11    4.1142   482.7    5.846      41.019
2015    8       21    18  19    4.1138   482.8    5.844      41.050
2015    8       21    18  26    4.1135   483.0    5.841      41.080
2015    8       21    18  33    4.1131   483.1    5.838      41.109
2015    8       21    18  40    4.1127   483.2    5.835      41.136
2015    8       21    18  47    4.1122   483.4    5.832      41.163
2015    8       21    18  54    4.1118   483.5    5.828      41.189
2015    8       21    19   1    4.1113   483.7    5.824      41.213
2015    8       21    19   8    4.1108   483.8    5.820      41.237
2015    8       21    19  15    4.1102   484.0    5.816      41.261
2015    8       21    19  23    4.1096   484.1    5.811      41.283
2015    8       21    19  30    4.1089   484.3    5.807      41.305
2015    8       21    19  37    4.1082   484.5    5.802      41.326
2015    8       21    19  44    4.1074   484.6    5.797      41.346
2015    8       21    19  51    4.1066   484.8    5.792      41.366
2015    8       21    19  58    4.1057   485.0    5.787      41.385
2015    8       21    20   5    4.1048   485.1    5.781      41.403
2015    8       21    20  12    4.1038   485.3    5.776      41.421
2015    8       21    20  20    4.1028   485.5    5.770      41.438
2015    8       21    20  27    4.1016   485.6    5.764      41.454
2015    8       21    20  34    4.1005   485.8    5.758      41.469
2015    8       21    20  41    4.0992   486.0    5.752      41.484
2015    8       21    20  48    4.0979   486.1    5.746      41.499
2015    8       21    20  55    4.0965   486.3    5.740      41.512
2015    8       21    21   2    4.0951   486.5    5.733      41.526
2015    8       21    21   9    4.0936   486.6    5.727      41.538
2015    8       21    21  16    4.0920   486.8    5.720      41.550
2015    8       21    21  24    4.0903   487.0    5.713      41.561
2015    8       21    21  31    4.0886   487.1    5.707      41.572
2015    8       21    21  38    4.0868   487.3    5.700      41.583
2015    8       21    21  45    4.0849   487.5    5.693      41.593
2015    8       21    21  52    4.0829   487.6    5.686      41.603
2015    8       21    21  59    4.0809   487.8    5.679      41.612
2015    8       21    22   6    4.0787   487.9    5.673      41.621
2015    8       21    22  13    4.0765   488.1    5.666      41.631
2015    8       21    22  20    4.0742   488.3    5.659      41.639
2015    8       21    22  27    4.0718   488.4    5.653      41.648
2015    8       21    22  35    4.0691   488.6    5.647      41.657
2015    8       21    22  42    4.0665   488.7    5.640      41.665
2015    8       21    22  49    4.0636   488.9    5.634      41.674
2015    8       21    22  56    4.0607   489.0    5.628      41.683
2015    8       21    23   3    4.0576   489.2    5.622      41.693
2015    8       21    23  10    4.0544   489.3    5.617      41.702
2015    8       21    23  17    4.0510   489.5    5.612      41.711
2015    8       21    23  24    4.0475   489.6    5.606      41.723
2015    8       21    23  31    4.0439   489.8    5.601      41.736
2015    8       21    23  38    4.0402   489.9    5.596      41.751
2015    8       21    23  46    4.0364   490.1    5.590      41.766
2015    8       21    23  53    4.0325   490.2    5.584      41.782
2015    8       22     0   0    4.0285   490.4    5.579      41.798
2015    8       22     0   7    4.0244   490.5    5.573      41.812
2015    8       22     0  14    4.0202   490.7    5.566      41.826
2015    8       22     0  21    4.0160   490.8    5.560      41.839
2015    8       22     0  28    4.0117   491.0    5.553      41.850
2015    8       22     0  35    4.0074   491.1    5.547      41.861
2015    8       22     0  42    4.0030   491.3    5.540      41.871
2015    8       22     0  49    3.9986   491.4    5.532      41.881
2015    8       22     0  56    3.9940   491.6    5.525      41.889
2015    8       22     1   4    3.9896   491.7    5.518      41.897
2015    8       22     1  11    3.9850   491.9    5.510      41.905
2015    8       22     1  18    3.9804   492.0    5.502      41.911
2015    8       22     1  25    3.9758   492.2    5.494      41.917
2015    8       22     1  32    3.9711   492.3    5.486      41.922
2015    8       22     1  39    3.9664   492.5    5.477      41.926
2015    8       22     1  46    3.9617   492.6    5.469      41.929
2015    8       22     1  53    3.9569   492.8    5.461      41.932
2015    8       22     2   0    3.9521   492.9    5.452      41.934
2015    8       22     2   8    3.9471   493.1    5.443      41.935
2015    8       22     2  15    3.9422   493.2    5.434      41.936
2015    8       22     2  22    3.9372   493.3    5.425      41.935
2015    8       22     2  29    3.9322   493.5    5.416      41.935
2015    8       22     2  36    3.9270   493.6    5.407      41.934
2015    8       22     2  43    3.9218   493.8    5.398      41.932
2015    8       22     2  50    3.9165   493.9    5.388      41.929
2015    8       22     2  57    3.9112   494.1    5.379      41.927
2015    8       22     3   4    3.9057   494.2    5.369      41.923
2015    8       22     3  12    3.9003   494.4    5.360      41.920
2015    8       22     3  19    3.8946   494.5    5.350      41.915
2015    8       22     3  26    3.8890   494.7    5.340      41.910
2015    8       22     3  33    3.8833   494.8    5.331      41.905
2015    8       22     3  40    3.8775   495.0    5.321      41.899
2015    8       22     3  47    3.8716   495.1    5.311      41.892
2015    8       22     3  54    3.8656   495.3    5.301      41.885
2015    8       22     4   1    3.8596   495.4    5.290      41.876
2015    8       22     4   9    3.8535   495.6    5.280      41.867
2015    8       22     4  16    3.8473   495.7    5.270      41.858
2015    8       22     4  23    3.8411   495.9    5.260      41.847
2015    8       22     4  30    3.8347   496.0    5.249      41.835
2015    8       22     4  37    3.8284   496.2    5.239      41.823
2015    8       22     4  44    3.8219   496.3    5.228      41.810
2015    8       22     4  51    3.8154   496.4    5.218      41.795
2015    8       22     4  58    3.8087   496.6    5.207      41.780
2015    8       22     5   5    3.8020   496.7    5.196      41.763
2015    8       22     5  12    3.7951   496.9    5.186      41.745
2015    8       22     5  20    3.7883   497.0    5.175      41.726
2015    8       22     5  27    3.7812   497.1    5.164      41.706
2015    8       22     5  34    3.7741   497.2    5.153      41.686
2015    8       22     5  41    3.7669   497.4    5.142      41.664
2015    8       22     5  48    3.7596   497.5    5.131      41.641
2015    8       22     5  55    3.7522   497.6    5.120      41.618
2015    8       22     6   2    3.7447   497.7    5.109      41.593
2015    8       22     6   9    3.7371   497.8    5.098      41.568
2015    8       22     6  16    3.7295   497.9    5.087      41.542
2015    8       22     6  23    3.7217   498.0    5.076      41.515
2015    8       22     6  31    3.7138   498.1    5.065      41.487
2015    8       22     6  38    3.7058   498.2    5.054      41.458
2015    8       22     6  45    3.6978   498.3    5.042      41.429
2015    8       22     6  52    3.6897   498.4    5.031      41.399
2015    8       22     6  59    3.6816   498.5    5.020      41.368
2015    8       22     7   6    3.6733   498.6    5.008      41.336
2015    8       22     7  13    3.6651   498.7    4.997      41.303
2015    8       22     7  20    3.6568   498.7    4.985      41.270
2015    8       22     7  27    3.6486   498.8    4.974      41.235
2015    8       22     7  34    3.6402   498.9    4.962      41.200
2015    8       22     7  42    3.6319   499.0    4.951      41.164
2015    8       22     7  49    3.6236   499.0    4.939      41.127
2015    8       22     7  56    3.6153   499.1    4.927      41.090
2015    8       22     8   3    3.6070   499.1    4.916      41.051
2015    8       22     8  10    3.5987   499.2    4.904      41.012
2015    8       22     8  17    3.5904   499.2    4.892      40.971
2015    8       22     8  24    3.5821   499.3    4.881      40.931
2015    8       22     8  31    3.5737   499.3    4.869      40.889
2015    8       22     8  38    3.5655   499.4    4.857      40.847
2015    8       22     8  45    3.5572   499.4    4.845      40.803
2015    8       22     8  53    3.5489   499.5    4.833      40.760
2015    8       22     9   0    3.5406   499.5    4.822      40.715
2015    8       22     9   7    3.5324   499.5    4.810      40.671
2015    8       22     9  14    3.5241   499.6    4.798      40.625
2015    8       22     9  21    3.5159   499.6    4.786      40.580
2015    8       22     9  28    3.5076   499.6    4.774      40.533
2015    8       22     9  35    3.4994   499.6    4.763      40.487
2015    8       22     9  42    3.4912   499.6    4.751      40.439
2015    8       22     9  49    3.4830   499.6    4.739      40.392
2015    8       22     9  57    3.4748   499.7    4.728      40.343
2015    8       22    10   4    3.4667   499.7    4.716      40.295
2015    8       22    10  11    3.4585   499.7    4.705      40.245
2015    8       22    10  18    3.4504   499.7    4.693      40.196
2015    8       22    10  25    3.4422   499.6    4.682      40.145
2015    8       22    10  32    3.4341   499.6    4.671      40.094
2015    8       22    10  39    3.4260   499.6    4.659      40.042
2015    8       22    10  46    3.4180   499.6    4.649      39.990
2015    8       22    10  54    3.4100   499.6    4.638      39.938
2015    8       22    11   1    3.4020   499.6    4.627      39.885
2015    8       22    11   8    3.3940   499.5    4.617      39.833
2015    8       22    11  15    3.3861   499.5    4.607      39.780
2015    8       22    11  22    3.3781   499.5    4.596      39.727
2015    8       22    11  29    3.3702   499.4    4.587      39.675
2015    8       22    11  36    3.3624   499.4    4.577      39.622
2015    8       22    11  43    3.3545   499.3    4.568      39.570
2015    8       22    11  50    3.3467   499.3    4.559      39.518
2015    8       22    11  58    3.3389   499.2    4.550      39.466
2015    8       22    12   5    3.3311   499.2    4.541      39.414
2015    8       22    12  12    3.3233   499.1    4.533      39.362
2015    8       22    12  19    3.3156   499.1    4.525      39.310
2015    8       22    12  26    3.3078   499.0    4.517      39.259
2015    8       22    12  33    3.3001   498.9    4.510      39.207
2015    8       22    12  40    3.2924   498.9    4.502      39.155
2015    8       22    12  47    3.2848   498.8    4.495      39.104
2015    8       22    12  54    3.2771   498.8    4.488      39.052
2015    8       22    13   1    3.2695   498.7    4.482      39.001
2015    8       22    13   9    3.2619   498.6    4.475      38.950
2015    8       22    13  16    3.2544   498.6    4.469      38.898
2015    8       22    13  23    3.2469   498.5    4.462      38.847
2015    8       22    13  30    3.2393   498.4    4.456      38.796
2015    8       22    13  37    3.2318   498.3    4.450      38.743
2015    8       22    13  44    3.2243   498.3    4.444      38.690
2015    8       22    13  51    3.2168   498.2    4.437      38.637
2015    8       22    13  58    3.2092   498.1    4.431      38.583
2015    8       22    14   5    3.2017   498.0    4.424      38.528
2015    8       22    14  12    3.1942   498.0    4.418      38.472
2015    8       22    14  20    3.1866   497.9    4.411      38.416
2015    8       22    14  27    3.1791   497.8    4.404      38.359
2015    8       22    14  34    3.1716   497.7    4.398      38.301
2015    8       22    14  41    3.1641   497.6    4.391      38.243
2015    8       22    14  48    3.1566   497.5    4.384      38.184
2015    8       22    14  55    3.1491   497.4    4.377      38.124
2015    8       22    15   2    3.1417   497.3    4.370      38.064
2015    8       22    15   9    3.1343   497.2    4.363      38.003
2015    8       22    15  16    3.1270   497.1    4.356      37.941
2015    8       22    15  23    3.1197   497.0    4.348      37.879
2015    8       22    15  30    3.1124   496.8    4.341      37.816
2015    8       22    15  38    3.1051   496.7    4.333      37.752
2015    8       22    15  45    3.0979   496.6    4.326      37.688
2015    8       22    15  52    3.0907   496.5    4.319      37.623
2015    8       22    15  59    3.0836   496.4    4.311      37.558
2015    8       22    16   6    3.0764   496.2    4.303      37.492
2015    8       22    16  13    3.0694   496.1    4.296      37.427
2015    8       22    16  20    3.0623   496.0    4.288      37.360
2015    8       22    16  27    3.0554   495.8    4.280      37.294
2015    8       22    16  34    3.0484   495.7    4.273      37.226
2015    8       22    16  41    3.0415   495.6    4.265      37.159
2015    8       22    16  49    3.0347   495.4    4.257      37.092
2015    8       22    16  56    3.0279   495.3    4.249      37.024
2015    8       22    17   3    3.0212   495.1    4.242      36.955
2015    8       22    17  10    3.0145   495.0    4.234      36.887
2015    8       22    17  17    3.0079   494.8    4.226      36.818
2015    8       22    17  24    3.0014   494.7    4.219      36.749
2015    8       22    17  31    2.9949   494.5    4.211      36.679
2015    8       22    17  38    2.9884   494.3    4.204      36.609
2015    8       22    17  46    2.9821   494.2    4.196      36.538
2015    8       22    17  53    2.9758   494.0    4.189      36.467
2015    8       22    18   0    2.9695   493.8    4.182      36.396
2015    8       22    18   7    2.9633   493.6    4.175      36.325
2015    8       22    18  14    2.9572   493.4    4.168      36.253
2015    8       22    18  21    2.9512   493.3    4.161      36.182
2015    8       22    18  28    2.9452   493.1    4.154      36.111
2015    8       22    18  35    2.9392   492.9    4.147      36.041
2015    8       22    18  43    2.9334   492.7    4.141      35.971
2015    8       22    18  50    2.9275   492.5    4.135      35.901
2015    8       22    18  57    2.9218   492.3    4.129      35.833
2015    8       22    19   4    2.9161   492.1    4.123      35.765
2015    8       22    19  11    2.9104   491.9    4.118      35.698
2015    8       22    19  18    2.9048   491.7    4.112      35.632
2015    8       22    19  25    2.8992   491.5    4.107      35.567
2015    8       22    19  32    2.8937   491.3    4.102      35.503
2015    8       22    19  39    2.8882   491.1    4.098      35.440
2015    8       22    19  46    2.8828   490.9    4.093      35.379
2015    8       22    19  54    2.8774   490.6    4.089      35.318
2015    8       22    20   1    2.8720   490.4    4.085      35.258
2015    8       22    20   8    2.8667   490.2    4.082      35.200
2015    8       22    20  15    2.8615   490.0    4.078      35.142
2015    8       22    20  22    2.8563   489.8    4.075      35.086
2015    8       22    20  29    2.8512   489.6    4.072      35.031
2015    8       22    20  36    2.8461   489.4    4.069      34.976
2015    8       22    20  43    2.8410   489.2    4.066      34.921
2015    8       22    20  50    2.8360   489.0    4.063      34.867
2015    8       22    20  57    2.8310   488.8    4.060      34.813
2015    8       22    21   5    2.8259   488.6    4.058      34.758
2015    8       22    21  12    2.8209   488.4    4.055      34.703
2015    8       22    21  19    2.8159   488.2    4.052      34.648
2015    8       22    21  26    2.8110   487.9    4.050      34.593
2015    8       22    21  33    2.8060   487.7    4.047      34.537
2015    8       22    21  40    2.8010   487.5    4.044      34.481
2015    8       22    21  47    2.7960   487.3    4.041      34.425
2015    8       22    21  54    2.7910   487.1    4.038      34.369
2015    8       22    22   1    2.7861   486.9    4.036      34.312
2015    8       22    22   8    2.7811   486.7    4.033      34.255
2015    8       22    22  16    2.7762   486.4    4.030      34.197
2015    8       22    22  23    2.7713   486.2    4.027      34.139
2015    8       22    22  30    2.7664   486.0    4.024      34.080
2015    8       22    22  37    2.7614   485.8    4.021      34.022
2015    8       22    22  44    2.7565   485.5    4.018      33.962
2015    8       22    22  51    2.7517   485.3    4.015      33.903
2015    8       22    22  58    2.7468   485.1    4.012      33.843
2015    8       22    23   5    2.7419   484.9    4.009      33.783
2015    8       22    23  12    2.7370   484.6    4.006      33.722
2015    8       22    23  19    2.7322   484.4    4.003      33.662
2015    8       22    23  26    2.7274   484.1    4.000      33.600
2015    8       22    23  34    2.7226   483.9    3.997      33.539
2015    8       22    23  41    2.7177   483.7    3.994      33.477
2015    8       22    23  48    2.7130   483.4    3.991      33.416
2015    8       22    23  55    2.7082   483.2    3.988      33.353
2015    8       23     0   2    2.7035   482.9    3.985      33.291
2015    8       23     0   9    2.6988   482.7    3.982      33.229
2015    8       23     0  16    2.6941   482.4    3.980      33.167
2015    8       23     0  23    2.6894   482.2    3.977      33.104
2015    8       23     0  31    2.6848   481.9    3.975      33.042
2015    8       23     0  38    2.6802   481.7    3.972      32.980
2015    8       23     0  45    2.6757   481.4    3.970      32.917
2015    8       23     0  52    2.6712   481.2    3.967      32.855
2015    8       23     0  59    2.6667   480.9    3.965      32.794
2015    8       23     1   6    2.6623   480.6    3.963      32.732
2015    8       23     1  13    2.6580   480.4    3.961      32.671
2015    8       23     1  20    2.6536   480.1    3.959      32.610
2015    8       23     1  27    2.6494   479.9    3.957      32.549
2015    8       23     1  35    2.6452   479.6    3.955      32.489
2015    8       23     1  42    2.6410   479.3    3.953      32.429
2015    8       23     1  49    2.6368   479.1    3.952      32.369
2015    8       23     1  56    2.6327   478.8    3.950      32.310
2015    8       23     2   3    2.6286   478.5    3.949      32.250
2015    8       23     2  10    2.6246   478.3    3.947      32.191
2015    8       23     2  17    2.6206   478.0    3.946      32.133
2015    8       23     2  24    2.6166   477.7    3.944      32.074
2015    8       23     2  31    2.6127   477.4    3.943      32.015
2015    8       23     2  39    2.6088   477.2    3.942      31.956
2015    8       23     2  46    2.6049   476.9    3.940      31.897
2015    8       23     2  53    2.6010   476.6    3.938      31.838
2015    8       23     3   0    2.5972   476.3    3.937      31.779
2015    8       23     3   7    2.5934   476.0    3.935      31.720
2015    8       23     3  14    2.5896   475.7    3.933      31.660
2015    8       23     3  21    2.5858   475.4    3.932      31.601
2015    8       23     3  28    2.5821   475.1    3.930      31.541
2015    8       23     3  35    2.5783   474.9    3.928      31.481
2015    8       23     3  42    2.5747   474.6    3.926      31.421
2015    8       23     3  50    2.5710   474.3    3.924      31.360
2015    8       23     3  57    2.5673   474.0    3.922      31.300
2015    8       23     4   4    2.5637   473.7    3.920      31.239
2015    8       23     4  11    2.5601   473.4    3.918      31.178
2015    8       23     4  18    2.5566   473.1    3.916      31.118
2015    8       23     4  25    2.5530   472.8    3.914      31.057
2015    8       23     4  32    2.5494   472.5    3.911      30.996
2015    8       23     4  39    2.5459   472.2    3.909      30.935
2015    8       23     4  46    2.5424   471.9    3.907      30.873
2015    8       23     4  53    2.5389   471.6    3.905      30.812
2015    8       23     5   1    2.5354   471.3    3.903      30.751
2015    8       23     5   8    2.5318   471.1    3.901      30.689
2015    8       23     5  15    2.5284   470.8    3.898      30.628
2015    8       23     5  22    2.5249   470.5    3.896      30.567
2015    8       23     5  29    2.5214   470.2    3.894      30.505
2015    8       23     5  36    2.5179   469.9    3.892      30.444
2015    8       23     5  43    2.5145   469.6    3.890      30.382
2015    8       23     5  50    2.5111   469.3    3.888      30.320
2015    8       23     5  57    2.5076   469.0    3.886      30.259
2015    8       23     6   4    2.5042   468.7    3.884      30.197
2015    8       23     6  11    2.5008   468.4    3.882      30.136
2015    8       23     6  19    2.4974   468.1    3.880      30.074
2015    8       23     6  26    2.4941   467.8    3.878      30.012
2015    8       23     6  33    2.4907   467.5    3.876      29.951
2015    8       23     6  40    2.4874   467.2    3.875      29.889
2015    8       23     6  47    2.4840   466.9    3.873      29.827
2015    8       23     6  54    2.4807   466.6    3.871      29.765
2015    8       23     7   1    2.4774   466.3    3.869      29.704
2015    8       23     7   8    2.4741   466.0    3.868      29.642
2015    8       23     7  15    2.4709   465.7    3.866      29.581
2015    8       23     7  23    2.4676   465.4    3.865      29.520
2015    8       23     7  30    2.4644   465.1    3.863      29.459
2015    8       23     7  37    2.4612   464.7    3.862      29.398
2015    8       23     7  44    2.4581   464.4    3.860      29.337
2015    8       23     7  51    2.4549   464.1    3.859      29.277
2015    8       23     7  58    2.4518   463.8    3.858      29.217
2015    8       23     8   5    2.4487   463.5    3.857      29.158
2015    8       23     8  12    2.4457   463.2    3.856      29.099
2015    8       23     8  19    2.4426   462.9    3.855      29.041
2015    8       23     8  27    2.4396   462.6    3.854      28.983
2015    8       23     8  34    2.4367   462.3    3.854      28.925
2015    8       23     8  41    2.4337   462.0    3.853      28.868
2015    8       23     8  48    2.4308   461.7    3.853      28.812
2015    8       23     8  55    2.4280   461.3    3.852      28.757
2015    8       23     9   2    2.4251   461.0    3.852      28.702
2015    8       23     9   9    2.4223   460.7    3.852      28.647
2015    8       23     9  16    2.4195   460.4    3.852      28.593
2015    8       23     9  24    2.4167   460.1    3.852      28.539
2015    8       23     9  31    2.4140   459.8    3.852      28.486
2015    8       23     9  38    2.4113   459.5    3.852      28.433
2015    8       23     9  45    2.4086   459.2    3.852      28.380
2015    8       23     9  52    2.4059   458.9    3.852      28.327
2015    8       23     9  59    2.4032   458.6    3.852      28.274
2015    8       23    10   6    2.4005   458.2    3.852      28.222
2015    8       23    10  13    2.3979   457.9    3.852      28.169
2015    8       23    10  20    2.3952   457.6    3.852      28.116
2015    8       23    10  27    2.3926   457.3    3.852      28.063
2015    8       23    10  35    2.3900   457.0    3.852      28.009
2015    8       23    10  42    2.3874   456.6    3.852      27.956
2015    8       23    10  49    2.3848   456.3    3.851      27.902
2015    8       23    10  56    2.3822   456.0    3.851      27.848
2015    8       23    11   3    2.3797   455.7    3.851      27.794
2015    8       23    11  10    2.3771   455.3    3.851      27.740
2015    8       23    11  17    2.3746   455.0    3.850      27.686
2015    8       23    11  24    2.3721   454.7    3.850      27.632
2015    8       23    11  31    2.3697   454.3    3.850      27.577
2015    8       23    11  38    2.3672   454.0    3.850      27.523
2015    8       23    11  46    2.3648   453.7    3.850      27.468
2015    8       23    11  53    2.3624   453.3    3.849      27.414
2015    8       23    12   0    2.3599   453.0    3.849      27.359
2015    8       23    12   7    2.3575   452.7    3.849      27.305
2015    8       23    12  14    2.3552   452.3    3.849      27.250
2015    8       23    12  21    2.3528   452.0    3.849      27.196
2015    8       23    12  28    2.3505   451.6    3.850      27.142
2015    8       23    12  35    2.3481   451.3    3.850      27.089
2015    8       23    12  42    2.3458   450.9    3.850      27.035
2015    8       23    12  49    2.3436   450.6    3.851      26.982
2015    8       23    12  57    2.3413   450.3    3.851      26.929
2015    8       23    13   4    2.3390   449.9    3.852      26.877
2015    8       23    13  11    2.3368   449.6    3.853      26.824
2015    8       23    13  18    2.3346   449.2    3.854      26.772
2015    8       23    13  25    2.3325   448.9    3.855      26.721
2015    8       23    13  32    2.3303   448.5    3.856      26.669
2015    8       23    13  39    2.3282   448.2    3.857      26.618
2015    8       23    13  46    2.3261   447.8    3.858      26.567
2015    8       23    13  53    2.3241   447.5    3.859      26.517
2015    8       23    14   0    2.3220   447.1    3.861      26.467
2015    8       23    14   8    2.3200   446.8    3.862      26.417
2015    8       23    14  15    2.3180   446.4    3.863      26.367
2015    8       23    14  22    2.3160   446.1    3.865      26.317
2015    8       23    14  29    2.3140   445.7    3.866      26.268
2015    8       23    14  36    2.3121   445.4    3.868      26.219
2015    8       23    14  43    2.3101   445.0    3.869      26.169
2015    8       23    14  50    2.3082   444.7    3.871      26.120
2015    8       23    14  57    2.3063   444.3    3.873      26.071
2015    8       23    15   4    2.3044   444.0    3.874      26.022
2015    8       23    15  12    2.3025   443.6    3.875      25.974
2015    8       23    15  19    2.3006   443.2    3.877      25.924
2015    8       23    15  26    2.2987   442.9    3.878      25.876
2015    8       23    15  33    2.2969   442.5    3.880      25.827
2015    8       23    15  40    2.2950   442.2    3.881      25.778
2015    8       23    15  47    2.2932   441.8    3.882      25.729
2015    8       23    15  54    2.2913   441.4    3.883      25.680
2015    8       23    16   1    2.2895   441.1    3.885      25.631
2015    8       23    16   8    2.2877   440.7    3.886      25.583
2015    8       23    16  16    2.2860   440.4    3.887      25.534
2015    8       23    16  23    2.2842   440.0    3.888      25.485
2015    8       23    16  30    2.2825   439.6    3.889      25.437
2015    8       23    16  37    2.2808   439.3    3.890      25.388
2015    8       23    16  44    2.2791   438.9    3.891      25.339
2015    8       23    16  51    2.2774   438.5    3.892      25.290
2015    8       23    16  58    2.2758   438.2    3.893      25.241
2015    8       23    17   5    2.2741   437.8    3.894      25.192
2015    8       23    17  12    2.2725   437.5    3.895      25.143
2015    8       23    17  20    2.2709   437.1    3.895      25.094
2015    8       23    17  27    2.2693   436.7    3.896      25.045
2015    8       23    17  34    2.2678   436.4    3.897      24.996
2015    8       23    17  41    2.2663   436.0    3.898      24.947
2015    8       23    17  48    2.2647   435.6    3.899      24.898
2015    8       23    17  55    2.2633   435.3    3.900      24.849
2015    8       23    18   2    2.2618   434.9    3.901      24.800
2015    8       23    18   9    2.2603   434.5    3.902      24.750
2015    8       23    18  16    2.2589   434.2    3.903      24.701
2015    8       23    18  23    2.2575   433.8    3.904      24.652
2015    8       23    18  31    2.2561   433.4    3.905      24.603
2015    8       23    18  38    2.2547   433.0    3.906      24.554
2015    8       23    18  45    2.2533   432.7    3.907      24.505
2015    8       23    18  52    2.2519   432.3    3.908      24.456
2015    8       23    18  59    2.2506   431.9    3.910      24.408
2015    8       23    19   6    2.2493   431.5    3.911      24.359
2015    8       23    19  13    2.2480   431.2    3.912      24.311
2015    8       23    19  20    2.2467   430.8    3.914      24.263
2015    8       23    19  27    2.2455   430.4    3.915      24.216
2015    8       23    19  34    2.2442   430.0    3.917      24.168
2015    8       23    19  42    2.2430   429.6    3.919      24.121
2015    8       23    19  49    2.2419   429.2    3.921      24.074
2015    8       23    19  56    2.2407   428.9    3.923      24.028
2015    8       23    20   3    2.2396   428.5    3.925      23.982
2015    8       23    20  10    2.2386   428.1    3.927      23.936
2015    8       23    20  17    2.2375   427.7    3.930      23.891
2015    8       23    20  24    2.2365   427.3    3.932      23.846
2015    8       23    20  31    2.2355   426.9    3.935      23.802
2015    8       23    20  38    2.2346   426.5    3.938      23.758
2015    8       23    20  45    2.2337   426.1    3.941      23.714
2015    8       23    20  52    2.2329   425.7    3.944      23.670
2015    8       23    21   0    2.2321   425.4    3.947      23.627
2015    8       23    21   7    2.2313   425.0    3.950      23.585
2015    8       23    21  14    2.2306   424.6    3.954      23.543
2015    8       23    21  21    2.2299   424.2    3.957      23.501
2015    8       23    21  28    2.2293   423.8    3.961      23.459
2015    8       23    21  35    2.2287   423.4    3.965      23.418
2015    8       23    21  42    2.2282   423.0    3.969      23.377
2015    8       23    21  49    2.2277   422.6    3.973      23.337
2015    8       23    21  56    2.2273   422.2    3.977      23.297
2015    8       23    22   4    2.2269   421.8    3.982      23.257
2015    8       23    22  11    2.2266   421.4    3.986      23.218
2015    8       23    22  18    2.2263   421.0    3.991      23.179
2015    8       23    22  25    2.2261   420.6    3.996      23.140
2015    8       23    22  32    2.2259   420.2    4.001      23.102
2015    8       23    22  39    2.2258   419.8    4.006      23.064
2015    8       23    22  46    2.2258   419.4    4.011      23.026
2015    8       23    22  53    2.2258   418.9    4.016      22.989
2015    8       23    23   0    2.2259   418.5    4.021      22.953
2015    8       23    23   8    2.2260   418.1    4.027      22.916
2015    8       23    23  15    2.2262   417.7    4.032      22.881
2015    8       23    23  22    2.2266   417.3    4.038      22.846
2015    8       23    23  29    2.2269   416.9    4.044      22.811
2015    8       23    23  36    2.2273   416.5    4.050      22.777
2015    8       23    23  43    2.2278   416.1    4.056      22.743
2015    8       23    23  50    2.2284   415.7    4.062      22.710
2015    8       23    23  57    2.2291   415.2    4.068      22.678
2015    8       24     0   5    2.2298   414.8    4.075      22.646
2015    8       24     0  12    2.2306   414.4    4.081      22.614
2015    8       24     0  19    2.2315   414.0    4.088      22.583
2015    8       24     0  26    2.2325   413.6    4.095      22.552
2015    8       24     0  33    2.2335   413.2    4.102      22.522
2015    8       24     0  40    2.2346   412.8    4.109      22.492
2015    8       24     0  47    2.2358   412.4    4.116      22.462
2015    8       24     0  54    2.2371   412.0    4.124      22.433
2015    8       24     1   1    2.2384   411.6    4.131      22.404
2015    8       24     1   8    2.2398   411.2    4.139      22.376
2015    8       24     1  16    2.2413   410.8    4.147      22.348
2015    8       24     1  23    2.2428   410.3    4.154      22.320
2015    8       24     1  30    2.2444   409.9    4.162      22.292
2015    8       24     1  37    2.2460   409.5    4.170      22.264
2015    8       24     1  44    2.2477   409.1    4.179      22.237
2015    8       24     1  51    2.2495   408.7    4.187      22.210
2015    8       24     1  58    2.2514   408.3    4.195      22.183
2015    8       24     2   5    2.2532   407.9    4.203      22.157
2015    8       24     2  12    2.2552   407.5    4.212      22.130
2015    8       24     2  19    2.2572   407.1    4.220      22.104
2015    8       24     2  27    2.2593   406.7    4.229      22.078
2015    8       24     2  34    2.2613   406.4    4.238      22.052
2015    8       24     2  41    2.2635   406.0    4.246      22.026
2015    8       24     2  48    2.2657   405.6    4.255      22.001
2015    8       24     2  55    2.2680   405.2    4.264      21.975
2015    8       24     3   2    2.2702   404.8    4.273      21.950
2015    8       24     3   9    2.2726   404.4    4.282      21.924
2015    8       24     3  16    2.2750   404.0    4.291      21.899
2015    8       24     3  23    2.2774   403.6    4.300      21.873
2015    8       24     3  30    2.2799   403.2    4.309      21.848
2015    8       24     3  37    2.2825   402.8    4.318      21.822
2015    8       24     3  45    2.2850   402.4    4.327      21.797
2015    8       24     3  52    2.2877   402.1    4.336      21.772
2015    8       24     3  59    2.2903   401.7    4.345      21.746
2015    8       24     4   6    2.2931   401.3    4.354      21.721
2015    8       24     4  13    2.2958   400.9    4.363      21.696
2015    8       24     4  20    2.2987   400.5    4.372      21.670
2015    8       24     4  27    2.3015   400.1    4.381      21.645
2015    8       24     4  34    2.3045   399.8    4.391      21.620
2015    8       24     4  41    2.3074   399.4    4.400      21.595
2015    8       24     4  48    2.3104   399.0    4.409      21.569
2015    8       24     4  56    2.3135   398.6    4.418      21.544
2015    8       24     5   3    2.3167   398.3    4.428      21.519
2015    8       24     5  10    2.3198   397.9    4.437      21.494
2015    8       24     5  17    2.3231   397.5    4.447      21.469
2015    8       24     5  24    2.3264   397.1    4.456      21.444
2015    8       24     5  31    2.3298   396.7    4.466      21.419
2015    8       24     5  38    2.3332   396.4    4.475      21.394
2015    8       24     5  45    2.3367   396.0    4.485      21.370
2015    8       24     5  52    2.3402   395.6    4.495      21.345
2015    8       24     6   0    2.3439   395.3    4.505      21.321
2015    8       24     6   7    2.3475   394.9    4.514      21.297
2015    8       24     6  14    2.3513   394.5    4.524      21.273
2015    8       24     6  21    2.3551   394.2    4.534      21.250
2015    8       24     6  28    2.3590   393.8    4.545      21.226
2015    8       24     6  35    2.3630   393.4    4.555      21.203
2015    8       24     6  42    2.3670   393.1    4.565      21.180
2015    8       24     6  49    2.3711   392.7    4.576      21.158
2015    8       24     6  57    2.3753   392.3    4.586      21.136
2015    8       24     7   4    2.3796   392.0    4.597      21.114
2015    8       24     7  11    2.3839   391.6    4.608      21.093
2015    8       24     7  18    2.3883   391.3    4.619      21.073
2015    8       24     7  25    2.3929   390.9    4.630      21.052
2015    8       24     7  32    2.3975   390.6    4.642      21.033
2015    8       24     7  39    2.4022   390.2    4.653      21.014
2015    8       24     7  46    2.4069   389.9    4.665      20.995
2015    8       24     7  53    2.4118   389.5    4.677      20.977
2015    8       24     8   0    2.4167   389.2    4.689      20.959
2015    8       24     8   8    2.4217   388.8    4.701      20.942
2015    8       24     8  15    2.4268   388.5    4.714      20.926
2015    8       24     8  22    2.4320   388.2    4.726      20.910
2015    8       24     8  29    2.4373   387.8    4.739      20.895
2015    8       24     8  36    2.4427   387.5    4.752      20.880
2015    8       24     8  43    2.4482   387.2    4.766      20.866
2015    8       24     8  50    2.4537   386.8    4.779      20.853
2015    8       24     8  57    2.4593   386.5    4.793      20.840
2015    8       24     9   4    2.4651   386.2    4.807      20.828
2015    8       24     9  11    2.4709   385.9    4.821      20.817
2015    8       24     9  19    2.4768   385.6    4.835      20.806
2015    8       24     9  26    2.4827   385.2    4.850      20.795
2015    8       24     9  33    2.4888   384.9    4.865      20.786
2015    8       24     9  40    2.4949   384.6    4.880      20.777
2015    8       24     9  47    2.5012   384.3    4.895      20.768
2015    8       24     9  54    2.5075   384.0    4.910      20.760
2015    8       24    10   1    2.5139   383.7    4.926      20.753
2015    8       24    10   8    2.5203   383.4    4.941      20.746
2015    8       24    10  15    2.5268   383.1    4.957      20.739
2015    8       24    10  22    2.5334   382.8    4.973      20.734
2015    8       24    10  30    2.5400   382.5    4.990      20.728
2015    8       24    10  37    2.5467   382.2    5.006      20.724
2015    8       24    10  44    2.5535   381.9    5.023      20.719
2015    8       24    10  51    2.5604   381.6    5.039      20.715
2015    8       24    10  58    2.5673   381.4    5.056      20.712
2015    8       24    11   5    2.5742   381.1    5.073      20.709
2015    8       24    11  12    2.5813   380.8    5.090      20.706
2015    8       24    11  19    2.5883   380.5    5.108      20.704
2015    8       24    11  26    2.5954   380.2    5.125      20.702
2015    8       24    11  33    2.6026   380.0    5.143      20.701
2015    8       24    11  40    2.6098   379.7    5.160      20.699
2015    8       24    11  48    2.6170   379.4    5.178      20.698
2015    8       24    11  55    2.6244   379.2    5.196      20.698
2015    8       24    12   2    2.6317   378.9    5.213      20.698
2015    8       24    12   9    2.6391   378.6    5.231      20.698
2015    8       24    12  16    2.6465   378.4    5.249      20.698
2015    8       24    12  23    2.6540   378.1    5.267      20.698
2015    8       24    12  30    2.6615   377.8    5.285      20.699
2015    8       24    12  37    2.6691   377.6    5.303      20.700
2015    8       24    12  44    2.6767   377.3    5.321      20.701
2015    8       24    12  52    2.6843   377.1    5.339      20.702
2015    8       24    12  59    2.6919   376.8    5.357      20.704
2015    8       24    13   6    2.6997   376.6    5.376      20.705
2015    8       24    13  13    2.7074   376.3    5.394      20.707
2015    8       24    13  20    2.7151   376.1    5.412      20.709
2015    8       24    13  27    2.7229   375.8    5.430      20.710
2015    8       24    13  34    2.7308   375.6    5.448      20.712
2015    8       24    13  41    2.7386   375.3    5.466      20.715
2015    8       24    13  49    2.7465   375.1    5.484      20.717
2015    8       24    13  56    2.7543   374.9    5.501      20.719
2015    8       24    14   3    2.7623   374.6    5.519      20.721
2015    8       24    14  10    2.7702   374.4    5.537      20.724
2015    8       24    14  17    2.7782   374.2    5.555      20.726
2015    8       24    14  24    2.7862   373.9    5.572      20.729
2015    8       24    14  31    2.7943   373.7    5.590      20.731
2015    8       24    14  38    2.8024   373.5    5.607      20.734
2015    8       24    14  45    2.8105   373.2    5.625      20.737
2015    8       24    14  53    2.8186   373.0    5.642      20.740
2015    8       24    15   0    2.8269   372.8    5.659      20.742
2015    8       24    15   7    2.8350   372.6    5.677      20.745
2015    8       24    15  14    2.8433   372.3    5.694      20.749
2015    8       24    15  21    2.8516   372.1    5.711      20.752
2015    8       24    15  28    2.8599   371.9    5.728      20.755
2015    8       24    15  35    2.8683   371.7    5.745      20.759
2015    8       24    15  42    2.8767   371.5    5.762      20.763
2015    8       24    15  49    2.8852   371.2    5.779      20.767
2015    8       24    15  56    2.8937   371.0    5.797      20.771
2015    8       24    16   4    2.9022   370.8    5.813      20.775
2015    8       24    16  11    2.9108   370.6    5.830      20.779
2015    8       24    16  18    2.9194   370.4    5.847      20.784
2015    8       24    16  25    2.9281   370.2    5.864      20.789
2015    8       24    16  32    2.9368   370.0    5.881      20.795
2015    8       24    16  39    2.9456   369.8    5.898      20.800
2015    8       24    16  46    2.9544   369.6    5.915      20.806
2015    8       24    16  53    2.9633   369.4    5.932      20.813
2015    8       24    17   0    2.9722   369.2    5.949      20.820
2015    8       24    17   7    2.9813   369.0    5.967      20.827
2015    8       24    17  14    2.9903   368.8    5.984      20.834
2015    8       24    17  22    2.9994   368.6    6.001      20.843
2015    8       24    17  29    3.0085   368.4    6.018      20.851
2015    8       24    17  36    3.0177   368.2    6.036      20.860
2015    8       24    17  43    3.0269   368.0    6.053      20.869
2015    8       24    17  50    3.0363   367.8    6.071      20.880
2015    8       24    17  57    3.0456   367.6    6.089      20.890
2015    8       24    18   4    3.0551   367.5    6.107      20.901
2015    8       24    18  11    3.0646   367.3    6.124      20.913
2015    8       24    18  18    3.0741   367.1    6.143      20.925
2015    8       24    18  25    3.0837   366.9    6.161      20.938
2015    8       24    18  33    3.0934   366.7    6.179      20.951
2015    8       24    18  40    3.1031   366.6    6.198      20.965
2015    8       24    18  47    3.1129   366.4    6.217      20.980
2015    8       24    18  54    3.1227   366.2    6.236      20.995
2015    8       24    19   1    3.1326   366.1    6.255      21.012
2015    8       24    19   8    3.1426   365.9    6.275      21.028
2015    8       24    19  15    3.1526   365.7    6.295      21.046
2015    8       24    19  22    3.1627   365.6    6.315      21.064
2015    8       24    19  29    3.1728   365.4    6.335      21.082
2015    8       24    19  36    3.1830   365.3    6.355      21.102
2015    8       24    19  44    3.1933   365.1    6.376      21.122
2015    8       24    19  51    3.2035   365.0    6.397      21.142
2015    8       24    19  58    3.2139   364.8    6.418      21.164
2015    8       24    20   5    3.2243   364.7    6.440      21.186
2015    8       24    20  12    3.2347   364.5    6.462      21.209
2015    8       24    20  19    3.2452   364.4    6.484      21.232
2015    8       24    20  26    3.2557   364.2    6.507      21.256
2015    8       24    20  33    3.2662   364.1    6.529      21.281
2015    8       24    20  41    3.2767   364.0    6.553      21.306
2015    8       24    20  48    3.2872   363.8    6.576      21.332
2015    8       24    20  55    3.2978   363.7    6.600      21.358
2015    8       24    21   2    3.3083   363.6    6.624      21.385
2015    8       24    21   9    3.3188   363.5    6.648      21.413
2015    8       24    21  16    3.3293   363.3    6.672      21.441
2015    8       24    21  23    3.3399   363.2    6.697      21.470
2015    8       24    21  30    3.3503   363.1    6.723      21.499
2015    8       24    21  37    3.3608   363.0    6.748      21.529
2015    8       24    21  45    3.3713   362.9    6.774      21.559
2015    8       24    21  52    3.3817   362.8    6.800      21.590
2015    8       24    21  59    3.3921   362.6    6.826      21.621
2015    8       24    22   6    3.4025   362.5    6.852      21.654
2015    8       24    22  13    3.4128   362.4    6.879      21.687
2015    8       24    22  20    3.4232   362.3    6.906      21.720
2015    8       24    22  27    3.4336   362.2    6.932      21.754
2015    8       24    22  34    3.4439   362.1    6.959      21.789
2015    8       24    22  41    3.4543   362.0    6.986      21.824
2015    8       24    22  48    3.4646   361.9    7.014      21.859
2015    8       24    22  56    3.4750   361.9    7.041      21.895
2015    8       24    23   3    3.4853   361.8    7.069      21.930
2015    8       24    23  10    3.4957   361.7    7.096      21.966
2015    8       24    23  17    3.5061   361.6    7.125      22.002
2015    8       24    23  24    3.5165   361.5    7.153      22.038
2015    8       24    23  31    3.5270   361.4    7.181      22.074
2015    8       24    23  38    3.5374   361.3    7.210      22.111
2015    8       24    23  45    3.5480   361.2    7.239      22.147
2015    8       24    23  52    3.5585   361.1    7.268      22.183
2015    8       24    23  59    3.5692   361.0    7.298      22.220
2015    8       25     0   7    3.5798   361.0    7.327      22.257
2015    8       25     0  14    3.5904   360.9    7.357      22.294
2015    8       25     0  21    3.6011   360.8    7.387      22.332
2015    8       25     0  28    3.6117   360.7    7.417      22.371
2015    8       25     0  35    3.6224   360.7    7.446      22.410
2015    8       25     0  42    3.6330   360.6    7.476      22.450
2015    8       25     0  49    3.6436   360.5    7.506      22.491
2015    8       25     0  56    3.6543   360.5    7.535      22.533
2015    8       25     1   3    3.6649   360.4    7.564      22.576
2015    8       25     1  10    3.6756   360.4    7.593      22.620
2015    8       25     1  17    3.6862   360.3    7.622      22.663
2015    8       25     1  25    3.6968   360.2    7.651      22.708
2015    8       25     1  32    3.7075   360.2    7.679      22.753
2015    8       25     1  39    3.7181   360.1    7.707      22.798
2015    8       25     1  46    3.7287   360.1    7.735      22.843
2015    8       25     1  53    3.7393   360.0    7.762      22.888
2015    8       25     2   0    3.7498   360.0    7.790      22.933
2015    8       25     2   7    3.7604   359.9    7.817      22.978
2015    8       25     2  14    3.7710   359.9    7.844      23.023
2015    8       25     2  21    3.7816   359.9    7.870      23.069
2015    8       25     2  28    3.7921   359.8    7.897      23.113
2015    8       25     2  36    3.8026   359.8    7.923      23.158
2015    8       25     2  43    3.8132   359.7    7.949      23.203
2015    8       25     2  50    3.8237   359.7    7.975      23.247
2015    8       25     2  57    3.8343   359.6    8.001      23.291
2015    8       25     3   4    3.8448   359.6    8.027      23.335
2015    8       25     3  11    3.8554   359.6    8.053      23.378
2015    8       25     3  18    3.8659   359.5    8.078      23.422
2015    8       25     3  25    3.8765   359.5    8.104      23.464
2015    8       25     3  32    3.8871   359.4    8.129      23.507
2015    8       25     3  40    3.8977   359.4    8.154      23.549
2015    8       25     3  47    3.9083   359.4    8.179      23.592
2015    8       25     3  54    3.9189   359.3    8.204      23.634
2015    8       25     4   1    3.9296   359.3    8.229      23.675
2015    8       25     4   8    3.9402   359.3    8.254      23.717
2015    8       25     4  15    3.9509   359.2    8.279      23.759
2015    8       25     4  22    3.9616   359.2    8.304      23.800
2015    8       25     4  29    3.9724   359.2    8.329      23.842
2015    8       25     4  36    3.9832   359.1    8.353      23.884
2015    8       25     4  44    3.9940   359.1    8.377      23.925
2015    8       25     4  51    4.0048   359.1    8.402      23.967
2015    8       25     4  58    4.0157   359.1    8.426      24.009
2015    8       25     5   5    4.0266   359.0    8.450      24.051
2015    8       25     5  12    4.0376   359.0    8.474      24.093
2015    8       25     5  19    4.0486   359.0    8.498      24.136
2015    8       25     5  26    4.0597   359.0    8.522      24.178
2015    8       25     5  33    4.0708   359.0    8.546      24.220
2015    8       25     5  40    4.0819   358.9    8.570      24.262
2015    8       25     5  48    4.0930   358.9    8.594      24.304
2015    8       25     5  55    4.1041   358.9    8.618      24.347
2015    8       25     6   2    4.1151   358.9    8.642      24.389
2015    8       25     6   9    4.1262   358.9    8.665      24.433
2015    8       25     6  16    4.1372   358.9    8.689      24.476
2015    8       25     6  23    4.1482   358.9    8.712      24.520
2015    8       25     6  30    4.1592   358.9    8.735      24.565
2015    8       25     6  37    4.1701   358.9    8.758      24.611
2015    8       25     6  44    4.1810   358.9    8.781      24.657
2015    8       25     6  51    4.1919   358.9    8.803      24.704
2015    8       25     6  59    4.2027   358.9    8.825      24.752
2015    8       25     7   6    4.2136   358.9    8.847      24.801
2015    8       25     7  13    4.2243   358.9    8.869      24.849
2015    8       25     7  20    4.2351   358.9    8.890      24.899
2015    8       25     7  27    4.2458   358.9    8.912      24.948
2015    8       25     7  34    4.2565   358.9    8.933      24.998
2015    8       25     7  41    4.2672   358.9    8.953      25.048
2015    8       25     7  48    4.2779   358.9    8.974      25.097
2015    8       25     7  55    4.2885   358.9    8.995      25.147
2015    8       25     8   2    4.2992   358.9    9.015      25.196
2015    8       25     8  10    4.3098   358.9    9.036      25.245
2015    8       25     8  17    4.3205   359.0    9.056      25.294
2015    8       25     8  24    4.3311   359.0    9.076      25.343
2015    8       25     8  31    4.3418   359.0    9.097      25.392
2015    8       25     8  38    4.3524   359.0    9.117      25.441
2015    8       25     8  45    4.3631   359.0    9.137      25.490
2015    8       25     8  52    4.3737   359.0    9.157      25.538
2015    8       25     8  59    4.3844   359.1    9.177      25.587
2015    8       25     9   6    4.3950   359.1    9.197      25.636
2015    8       25     9  13    4.4056   359.1    9.217      25.685
2015    8       25     9  20    4.4162   359.1    9.236      25.734
2015    8       25     9  28    4.4268   359.2    9.256      25.784
2015    8       25     9  35    4.4373   359.2    9.275      25.834
2015    8       25     9  42    4.4479   359.2    9.294      25.884
2015    8       25     9  49    4.4584   359.2    9.314      25.935
2015    8       25     9  56    4.4690   359.3    9.333      25.985
2015    8       25    10   3    4.4795   359.3    9.352      26.036
2015    8       25    10  10    4.4901   359.3    9.371      26.087
2015    8       25    10  17    4.5007   359.4    9.389      26.137
2015    8       25    10  24    4.5112   359.4    9.408      26.187
2015    8       25    10  32    4.5218   359.4    9.427      26.237
2015    8       25    10  39    4.5325   359.4    9.446      26.287
2015    8       25    10  46    4.5431   359.5    9.465      26.337
2015    8       25    10  53    4.5538   359.5    9.484      26.387
2015    8       25    11   0    4.5645   359.5    9.502      26.437
2015    8       25    11   7    4.5753   359.6    9.522      26.487
2015    8       25    11  14    4.5861   359.6    9.541      26.537
2015    8       25    11  21    4.5970   359.7    9.560      26.587
2015    8       25    11  28    4.6079   359.7    9.580      26.637
2015    8       25    11  36    4.6189   359.7    9.600      26.688
2015    8       25    11  43    4.6300   359.8    9.620      26.738
2015    8       25    11  50    4.6412   359.8    9.640      26.789
2015    8       25    11  57    4.6524   359.9    9.661      26.840
2015    8       25    12   4    4.6637   359.9    9.682      26.891
2015    8       25    12  11    4.6750   360.0    9.703      26.942
2015    8       25    12  18    4.6864   360.0    9.725      26.994
2015    8       25    12  25    4.6978   360.1    9.747      27.047
2015    8       25    12  33    4.7092   360.1    9.770      27.099
2015    8       25    12  40    4.7207   360.2    9.793      27.152
2015    8       25    12  47    4.7321   360.3    9.816      27.206
2015    8       25    12  54    4.7435   360.3    9.840      27.260
2015    8       25    13   1    4.7548   360.4    9.863      27.314
2015    8       25    13   8    4.7661   360.5    9.886      27.370
2015    8       25    13  15    4.7773   360.5    9.910      27.429
2015    8       25    13  22    4.7884   360.6    9.932      27.489
2015    8       25    13  29    4.7996   360.7    9.955      27.551
2015    8       25    13  36    4.8106   360.8    9.977      27.615
2015    8       25    13  44    4.8216   360.9    9.998      27.680
2015    8       25    13  51    4.8324   361.0   10.019      27.745
2015    8       25    13  58    4.8433   361.0   10.040      27.811
2015    8       25    14   5    4.8540   361.1   10.060      27.877
2015    8       25    14  12    4.8647   361.2   10.079      27.943
2015    8       25    14  19    4.8752   361.3   10.098      28.008
2015    8       25    14  26    4.8858   361.4   10.116      28.073
2015    8       25    14  33    4.8962   361.5   10.134      28.137
2015    8       25    14  40    4.9067   361.6   10.152      28.202
2015    8       25    14  47    4.9170   361.7   10.169      28.265
2015    8       25    14  54    4.9274   361.7   10.185      28.328
2015    8       25    15   2    4.9377   361.8   10.202      28.391
2015    8       25    15   9    4.9480   361.9   10.218      28.453
2015    8       25    15  16    4.9582   362.0   10.233      28.515
2015    8       25    15  23    4.9684   362.1   10.249      28.576
2015    8       25    15  30    4.9786   362.2   10.264      28.637
2015    8       25    15  37    4.9889   362.3   10.279      28.698
2015    8       25    15  44    4.9990   362.4   10.293      28.758
2015    8       25    15  51    5.0092   362.5   10.308      28.817
2015    8       25    15  58    5.0193   362.6   10.322      28.877
2015    8       25    16   5    5.0295   362.7   10.336      28.936
2015    8       25    16  13    5.0396   362.8   10.350      28.994
2015    8       25    16  20    5.0498   362.9   10.364      29.053
2015    8       25    16  27    5.0599   363.0   10.378      29.111
2015    8       25    16  34    5.0701   363.1   10.391      29.169
2015    8       25    16  41    5.0802   363.2   10.405      29.227
2015    8       25    16  48    5.0904   363.3   10.418      29.285
2015    8       25    16  55    5.1006   363.4   10.432      29.343
2015    8       25    17   2    5.1108   363.5   10.445      29.401
2015    8       25    17   9    5.1210   363.6   10.458      29.458
2015    8       25    17  16    5.1313   363.7   10.472      29.516
2015    8       25    17  24    5.1416   363.8   10.485      29.573
2015    8       25    17  31    5.1520   363.9   10.499      29.631
2015    8       25    17  38    5.1624   364.1   10.513      29.689
2015    8       25    17  45    5.1729   364.2   10.526      29.747
2015    8       25    17  52    5.1834   364.3   10.540      29.806
2015    8       25    17  59    5.1940   364.4   10.555      29.864
2015    8       25    18   6    5.2047   364.5   10.569      29.924
2015    8       25    18  13    5.2156   364.6   10.584      29.983
2015    8       25    18  20    5.2265   364.8   10.599      30.043
2015    8       25    18  28    5.2376   364.9   10.615      30.103
2015    8       25    18  35    5.2487   365.0   10.631      30.164
2015    8       25    18  42    5.2601   365.1   10.647      30.227
2015    8       25    18  49    5.2715   365.3   10.664      30.290
2015    8       25    18  56    5.2830   365.4   10.681      30.355
2015    8       25    19   3    5.2946   365.6   10.698      30.421
2015    8       25    19  10    5.3063   365.7   10.715      30.487
2015    8       25    19  17    5.3180   365.9   10.732      30.555
2015    8       25    19  25    5.3298   366.0   10.750      30.622
2015    8       25    19  32    5.3416   366.2   10.767      30.689
2015    8       25    19  39    5.3535   366.3   10.785      30.757
2015    8       25    19  46    5.3654   366.5   10.803      30.824
2015    8       25    19  53    5.3773   366.6   10.821      30.891
2015    8       25    20   0    5.3892   366.8   10.838      30.957
2015    8       25    20   7    5.4011   367.0   10.856      31.024
2015    8       25    20  14    5.4129   367.1   10.874      31.090
2015    8       25    20  21    5.4247   367.3   10.892      31.157
2015    8       25    20  28    5.4363   367.5   10.910      31.224
2015    8       25    20  36    5.4479   367.6   10.928      31.292
2015    8       25    20  43    5.4594   367.8   10.945      31.361
2015    8       25    20  50    5.4708   368.0   10.962      31.432
2015    8       25    20  57    5.4821   368.2   10.978      31.504
2015    8       25    21   4    5.4933   368.4   10.993      31.577
2015    8       25    21  11    5.5043   368.6   11.008      31.650
2015    8       25    21  18    5.5152   368.8   11.023      31.724
2015    8       25    21  25    5.5260   368.9   11.036      31.797
2015    8       25    21  32    5.5367   369.1   11.049      31.869
2015    8       25    21  39    5.5472   369.3   11.061      31.941
2015    8       25    21  47    5.5576   369.5   11.073      32.013
2015    8       25    21  54    5.5679   369.7   11.084      32.084
2015    8       25    22   1    5.5781   369.9   11.094      32.155
2015    8       25    22   8    5.5882   370.1   11.104      32.225
2015    8       25    22  15    5.5983   370.2   11.113      32.294
2015    8       25    22  22    5.6083   370.4   11.122      32.363
2015    8       25    22  29    5.6182   370.6   11.131      32.431
2015    8       25    22  36    5.6281   370.8   11.139      32.499
2015    8       25    22  43    5.6379   370.9   11.147      32.566
2015    8       25    22  50    5.6477   371.1   11.154      32.633
2015    8       25    22  58    5.6575   371.3   11.162      32.699
2015    8       25    23   5    5.6673   371.5   11.169      32.765
2015    8       25    23  12    5.6771   371.6   11.176      32.831
2015    8       25    23  19    5.6868   371.8   11.182      32.896
2015    8       25    23  26    5.6966   372.0   11.189      32.961
2015    8       25    23  33    5.7063   372.2   11.195      33.025
2015    8       25    23  40    5.7161   372.3   11.201      33.090
2015    8       25    23  47    5.7258   372.5   11.207      33.154
2015    8       25    23  54    5.7356   372.7   11.213      33.218
2015    8       26     0   1    5.7453   372.9   11.219      33.281
2015    8       26     0   8    5.7551   373.0   11.224      33.345
2015    8       26     0  16    5.7649   373.2   11.230      33.409
2015    8       26     0  23    5.7748   373.4   11.236      33.473
2015    8       26     0  30    5.7847   373.6   11.241      33.537
2015    8       26     0  37    5.7946   373.8   11.247      33.601
2015    8       26     0  44    5.8046   374.0   11.253      33.666
2015    8       26     0  51    5.8147   374.2   11.258      33.731
2015    8       26     0  58    5.8248   374.4   11.264      33.796
2015    8       26     1   5    5.8349   374.6   11.270      33.861
2015    8       26     1  12    5.8451   374.8   11.276      33.927
2015    8       26     1  20    5.8554   375.0   11.282      33.993
2015    8       26     1  27    5.8656   375.2   11.289      34.059
2015    8       26     1  34    5.8760   375.4   11.295      34.126
2015    8       26     1  41    5.8864   375.6   11.302      34.192
2015    8       26     1  48    5.8969   375.8   11.310      34.260
2015    8       26     1  55    5.9075   376.0   11.317      34.328
2015    8       26     2   2    5.9181   376.2   11.325      34.398
2015    8       26     2   9    5.9289   376.4   11.333      34.468
2015    8       26     2  17    5.9397   376.7   11.341      34.540
2015    8       26     2  24    5.9505   376.9   11.350      34.613
2015    8       26     2  31    5.9614   377.1   11.359      34.687
2015    8       26     2  38    5.9723   377.4   11.368      34.762
2015    8       26     2  45    5.9833   377.6   11.377      34.837
2015    8       26     2  52    5.9943   377.8   11.387      34.912
2015    8       26     2  59    6.0054   378.1   11.396      34.989
2015    8       26     3   6    6.0164   378.3   11.406      35.065
2015    8       26     3  13    6.0276   378.6   11.417      35.142
2015    8       26     3  20    6.0387   378.8   11.427      35.219
2015    8       26     3  28    6.0498   379.1   11.438      35.299
2015    8       26     3  35    6.0609   379.3   11.449      35.379
2015    8       26     3  42    6.0719   379.6   11.461      35.462
2015    8       26     3  49    6.0829   379.9   11.472      35.546
2015    8       26     3  56    6.0938   380.1   11.483      35.633
2015    8       26     4   3    6.1046   380.4   11.493      35.722
2015    8       26     4  10    6.1153   380.7   11.504      35.812
2015    8       26     4  17    6.1259   381.0   11.514      35.902
2015    8       26     4  24    6.1365   381.3   11.523      35.992
2015    8       26     4  31    6.1469   381.6   11.532      36.081
2015    8       26     4  39    6.1573   381.9   11.541      36.170
2015    8       26     4  46    6.1676   382.1   11.549      36.258
2015    8       26     4  53    6.1779   382.4   11.557      36.346
2015    8       26     5   0    6.1880   382.7   11.565      36.433
2015    8       26     5   7    6.1981   383.0   11.572      36.520
2015    8       26     5  14    6.2081   383.3   11.579      36.608
2015    8       26     5  21    6.2181   383.6   11.585      36.697
2015    8       26     5  28    6.2280   383.9   11.591      36.786
2015    8       26     5  35    6.2378   384.2   11.597      36.878
2015    8       26     5  42    6.2476   384.5   11.601      36.970
2015    8       26     5  50    6.2574   384.8   11.606      37.062
2015    8       26     5  57    6.2671   385.1   11.610      37.155
2015    8       26     6   4    6.2768   385.4   11.613      37.247
2015    8       26     6  11    6.2865   385.7   11.616      37.339
2015    8       26     6  18    6.2961   386.0   11.619      37.431
2015    8       26     6  25    6.3057   386.3   11.621      37.523
2015    8       26     6  32    6.3154   386.6   11.623      37.615
2015    8       26     6  39    6.3250   386.9   11.624      37.706
2015    8       26     6  46    6.3347   387.3   11.625      37.797
2015    8       26     6  53    6.3444   387.6   11.626      37.888
2015    8       26     7   1    6.3541   387.9   11.626      37.978
2015    8       26     7   8    6.3637   388.2   11.626      38.068
2015    8       26     7  15    6.3733   388.5   11.625      38.157
2015    8       26     7  22    6.3829   388.8   11.624      38.245
2015    8       26     7  29    6.3924   389.1   11.622      38.332
2015    8       26     7  36    6.4018   389.5   11.620      38.419
2015    8       26     7  43    6.4112   389.8   11.618      38.504
2015    8       26     7  50    6.4205   390.1   11.615      38.589
2015    8       26     7  57    6.4298   390.4   11.612      38.673
2015    8       26     8   4    6.4389   390.7   11.608      38.756
2015    8       26     8  12    6.4480   391.1   11.604      38.839
2015    8       26     8  19    6.4570   391.4   11.600      38.921
2015    8       26     8  26    6.4660   391.7   11.596      39.003
2015    8       26     8  33    6.4748   392.0   11.591      39.083
2015    8       26     8  40    6.4837   392.4   11.586      39.163
2015    8       26     8  47    6.4924   392.7   11.580      39.242
2015    8       26     8  54    6.5010   393.0   11.575      39.322
2015    8       26     9   1    6.5096   393.3   11.569      39.400
2015    8       26     9   8    6.5182   393.7   11.564      39.478
2015    8       26     9  16    6.5266   394.0   11.558      39.556
2015    8       26     9  23    6.5351   394.3   11.552      39.635
2015    8       26     9  30    6.5434   394.6   11.547      39.712
2015    8       26     9  37    6.5518   395.0   11.541      39.791
2015    8       26     9  44    6.5602   395.3   11.536      39.869
2015    8       26     9  51    6.5685   395.6   11.530      39.948
2015    8       26     9  58    6.5768   395.9   11.525      40.027
2015    8       26    10   5    6.5851   396.3   11.520      40.107
2015    8       26    10  12    6.5934   396.6   11.515      40.188
2015    8       26    10  20    6.6017   396.9   11.510      40.270
2015    8       26    10  27    6.6100   397.2   11.506      40.351
2015    8       26    10  34    6.6183   397.6   11.502      40.434
2015    8       26    10  41    6.6267   397.9   11.498      40.517
2015    8       26    10  48    6.6350   398.2   11.495      40.601
2015    8       26    10  55    6.6434   398.6   11.492      40.687
2015    8       26    11   2    6.6517   398.9   11.489      40.775
2015    8       26    11   9    6.6601   399.3   11.486      40.862
2015    8       26    11  16    6.6685   399.6   11.484      40.952
2015    8       26    11  23    6.6768   399.9   11.481      41.042
2015    8       26    11  31    6.6851   400.3   11.479      41.133
2015    8       26    11  38    6.6934   400.6   11.477      41.222
2015    8       26    11  45    6.7017   401.0   11.475      41.312
2015    8       26    11  52    6.7101   401.3   11.473      41.400
2015    8       26    11  59    6.7184   401.7   11.471      41.488
2015    8       26    12   6    6.7268   402.0   11.470      41.575
2015    8       26    12  13    6.7352   402.4   11.469      41.662
2015    8       26    12  20    6.7436   402.7   11.469      41.748
2015    8       26    12  27    6.7520   403.1   11.468      41.835
2015    8       26    12  34    6.7604   403.4   11.469      41.922
2015    8       26    12  42    6.7689   403.8   11.469      42.012
2015    8       26    12  49    6.7775   404.2   11.470      42.103
2015    8       26    12  56    6.7861   404.6   11.472      42.196
2015    8       26    13   3    6.7948   404.9   11.474      42.289
2015    8       26    13  10    6.8037   405.3   11.477      42.386
2015    8       26    13  17    6.8127   405.7   11.480      42.483
2015    8       26    13  24    6.8219   406.0   11.485      42.581
2015    8       26    13  31    6.8314   406.4   11.491      42.679
2015    8       26    13  38    6.8412   406.8   11.498      42.781
2015    8       26    13  45    6.8512   407.3   11.505      42.891
2015    8       26    13  53    6.8613   407.7   11.512      43.007
2015    8       26    14   0    6.8716   408.2   11.520      43.127
2015    8       26    14   7    6.8819   408.6   11.527      43.253
2015    8       26    14  14    6.8921   409.1   11.533      43.385
2015    8       26    14  21    6.9023   409.6   11.538      43.520
2015    8       26    14  28    6.9121   410.1   11.542      43.653
2015    8       26    14  35    6.9218   410.5   11.545      43.786
2015    8       26    14  42    6.9311   411.0   11.547      43.917
2015    8       26    14  49    6.9402   411.5   11.546      44.049
2015    8       26    14  56    6.9487   412.0   11.544      44.181
2015    8       26    15   4    6.9571   412.5   11.541      44.315
2015    8       26    15  11    6.9650   413.0   11.536      44.449
2015    8       26    15  18    6.9728   413.6   11.529      44.587
2015    8       26    15  25    6.9802   414.1   11.522      44.727
2015    8       26    15  32    6.9873   414.7   11.513      44.869
2015    8       26    15  39    6.9940   415.2   11.503      45.012
2015    8       26    15  46    7.0004   415.8   11.491      45.156
2015    8       26    15  53    7.0064   416.3   11.479      45.296
2015    8       26    16   0    7.0122   416.9   11.465      45.433
2015    8       26    16   8    7.0178   417.4   11.451      45.566
2015    8       26    16  15    7.0232   417.9   11.437      45.697
2015    8       26    16  22    7.0284   418.4   11.421      45.826
2015    8       26    16  29    7.0335   418.9   11.406      45.954
2015    8       26    16  36    7.0385   419.4   11.389      46.080
2015    8       26    16  43    7.0435   419.9   11.373      46.204
2015    8       26    16  50    7.0484   420.4   11.356      46.328
2015    8       26    16  57    7.0533   421.0   11.338      46.450
2015    8       26    17   4    7.0581   421.5   11.320      46.572
2015    8       26    17  12    7.0629   422.0   11.302      46.692
2015    8       26    17  19    7.0677   422.5   11.283      46.811
2015    8       26    17  26    7.0725   423.0   11.265      46.929
2015    8       26    17  33    7.0772   423.5   11.245      47.044
2015    8       26    17  40    7.0819   424.0   11.226      47.158
2015    8       26    17  47    7.0866   424.5   11.206      47.270
2015    8       26    17  54    7.0912   425.1   11.186      47.379
2015    8       26    18   1    7.0957   425.6   11.165      47.486
2015    8       26    18   8    7.1001   426.1   11.144      47.592
2015    8       26    18  16    7.1045   426.6   11.123      47.694
2015    8       26    18  23    7.1087   427.2   11.101      47.795
2015    8       26    18  30    7.1128   427.7   11.078      47.895
2015    8       26    18  37    7.1167   428.2   11.055      47.992
2015    8       26    18  44    7.1203   428.8   11.032      48.086
2015    8       26    18  51    7.1237   429.3   11.007      48.178
2015    8       26    18  58    7.1267   429.9   10.982      48.267
2015    8       26    19   5    7.1294   430.4   10.955      48.351
2015    8       26    19  12    7.1315   431.0   10.928      48.425
2015    8       26    19  19    7.1332   431.5   10.899      48.493
2015    8       26    19  27    7.1346   432.0   10.870      48.554
2015    8       26    19  34    7.1357   432.5   10.841      48.609
2015    8       26    19  41    7.1367   433.0   10.812      48.662
2015    8       26    19  48    7.1375   433.6   10.782      48.717
2015    8       26    19  55    7.1382   434.2   10.753      48.774
2015    8       26    20   2    7.1386   434.7   10.724      48.827
2015    8       26    20   9    7.1388   435.3   10.695      48.878
2015    8       26    20  16    7.1388   435.8   10.667      48.928
2015    8       26    20  23    7.1390   436.3   10.641      48.972
2015    8       26    20  30    7.1393   436.8   10.617      49.010
2015    8       26    20  37    7.1400   437.2   10.596      49.047
2015    8       26    20  45    7.1412   437.6   10.578      49.087
2015    8       26    20  52    7.1431   438.0   10.564      49.125
2015    8       26    20  59    7.1455   438.4   10.552      49.163
2015    8       26    21   6    7.1484   438.7   10.544      49.212
2015    8       26    21  13    7.1518   439.1   10.537      49.273
2015    8       26    21  20    7.1556   439.5   10.532      49.348
2015    8       26    21  27    7.1602   439.9   10.529      49.437
2015    8       26    21  34    7.1654   440.4   10.527      49.543
2015    8       26    21  41    7.1708   441.0   10.526      49.672
2015    8       26    21  48    7.1765   441.6   10.525      49.819
2015    8       26    21  56    7.1822   442.2   10.524      49.984
2015    8       26    22   3    7.1876   442.8   10.523      50.161
2015    8       26    22  10    7.1925   443.5   10.520      50.352
2015    8       26    22  17    7.1970   444.2   10.515      50.553
2015    8       26    22  24    7.2006   444.9   10.508      50.757
2015    8       26    22  31    7.2037   445.6   10.499      50.957
2015    8       26    22  38    7.2063   446.3   10.489      51.157
2015    8       26    22  45    7.2084   447.1   10.477      51.354
2015    8       26    22  52    7.2100   447.8   10.463      51.551
2015    8       26    22  59    7.2111   448.5   10.447      51.748
2015    8       26    23   7    7.2119   449.2   10.430      51.942
2015    8       26    23  14    7.2124   449.9   10.412      52.130
2015    8       26    23  21    7.2127   450.6   10.392      52.313
2015    8       26    23  28    7.2129   451.3   10.371      52.492
2015    8       26    23  35    7.2129   451.9   10.350      52.667
2015    8       26    23  42    7.2129   452.6   10.327      52.837
2015    8       26    23  49    7.2127   453.3   10.304      53.004
2015    8       26    23  56    7.2125   453.9   10.280      53.165
2015    8       27     0   4    7.2122   454.6   10.255      53.323
2015    8       27     0  11    7.2117   455.3   10.229      53.474
2015    8       27     0  18    7.2112   456.0   10.203      53.622
2015    8       27     0  25    7.2105   456.6   10.176      53.764
2015    8       27     0  32    7.2097   457.3   10.148      53.900
2015    8       27     0  39    7.2089   458.0   10.120      54.029
2015    8       27     0  46    7.2079   458.7   10.091      54.156
2015    8       27     0  53    7.2067   459.4   10.062      54.278
2015    8       27     1   0    7.2054   460.1   10.032      54.395
2015    8       27     1   8    7.2038   460.9   10.001      54.509
2015    8       27     1  15    7.2019   461.7    9.969      54.626
2015    8       27     1  22    7.1995   462.5    9.935      54.742
2015    8       27     1  29    7.1965   463.3    9.900      54.857
2015    8       27     1  36    7.1928   464.2    9.863      54.968
2015    8       27     1  43    7.1880   465.1    9.822      55.084
2015    8       27     1  50    7.1824   466.0    9.779      55.195
2015    8       27     1  57    7.1750   466.9    9.731      55.289
2015    8       27     2   4    7.1662   467.8    9.682      55.367
2015    8       27     2  11    7.1561   468.6    9.630      55.432
2015    8       27     2  19    7.1452   469.5    9.577      55.488
2015    8       27     2  26    7.1332   470.2    9.523      55.523
2015    8       27     2  33    7.1207   471.0    9.470      55.544
2015    8       27     2  40    7.1081   471.7    9.418      55.562
2015    8       27     2  47    7.0959   472.4    9.367      55.578
2015    8       27     2  54    7.0836   473.1    9.318      55.595
2015    8       27     3   1    7.0719   473.8    9.269      55.617
2015    8       27     3   8    7.0603   474.6    9.222      55.646
2015    8       27     3  15    7.0491   475.3    9.177      55.673
2015    8       27     3  22    7.0380   476.0    9.133      55.703
2015    8       27     3  30    7.0275   476.7    9.091      55.736
2015    8       27     3  37    7.0173   477.4    9.051      55.764
2015    8       27     3  44    7.0076   478.0    9.014      55.784
2015    8       27     3  51    6.9985   478.5    8.981      55.802
2015    8       27     3  58    6.9902   479.0    8.950      55.828
2015    8       27     4   5    6.9824   479.5    8.922      55.860
2015    8       27     4  12    6.9753   479.9    8.896      55.897
2015    8       27     4  19    6.9685   480.3    8.873      55.947
2015    8       27     4  26    6.9624   480.7    8.852      56.020
2015    8       27     4  33    6.9564   481.2    8.832      56.113
2015    8       27     4  40    6.9512   481.8    8.813      56.222
2015    8       27     4  48    6.9463   482.3    8.796      56.346
2015    8       27     4  55    6.9421   482.9    8.781      56.483
2015    8       27     5   2    6.9381   483.6    8.768      56.644
2015    8       27     5   9    6.9345   484.3    8.755      56.816
2015    8       27     5  16    6.9308   485.0    8.743      56.999
2015    8       27     5  23    6.9269   485.7    8.730      57.188
2015    8       27     5  30    6.9226   486.4    8.717      57.386
2015    8       27     5  37    6.9181   487.1    8.702      57.584
2015    8       27     5  44    6.9130   487.8    8.686      57.774
2015    8       27     5  51    6.9076   488.5    8.669      57.954
2015    8       27     5  59    6.9020   489.2    8.651      58.127
2015    8       27     6   6    6.8963   489.9    8.632      58.292
2015    8       27     6  13    6.8904   490.6    8.613      58.452
2015    8       27     6  20    6.8844   491.3    8.592      58.609
2015    8       27     6  27    6.8783   492.0    8.571      58.764
2015    8       27     6  34    6.8722   492.8    8.549      58.913
2015    8       27     6  41    6.8657   493.5    8.526      59.059
2015    8       27     6  48    6.8592   494.3    8.502      59.207
2015    8       27     6  56    6.8524   495.2    8.476      59.358
2015    8       27     7   3    6.8453   496.0    8.449      59.507
2015    8       27     7  10    6.8376   496.9    8.421      59.652
2015    8       27     7  17    6.8294   497.8    8.390      59.791
2015    8       27     7  24    6.8203   498.7    8.357      59.923
2015    8       27     7  31    6.8104   499.6    8.322      60.052
2015    8       27     7  38    6.7994   500.6    8.283      60.167
2015    8       27     7  45    6.7871   501.4    8.242      60.258
2015    8       27     7  52    6.7736   502.3    8.199      60.330
2015    8       27     8   0    6.7594   503.2    8.155      60.388
2015    8       27     8   7    6.7442   504.0    8.110      60.434
2015    8       27     8  14    6.7287   504.8    8.065      60.466
2015    8       27     8  21    6.7124   505.6    8.019      60.484
2015    8       27     8  28    6.6963   506.5    7.973      60.511
2015    8       27     8  35    6.6798   507.4    7.928      60.543
2015    8       27     8  42    6.6631   508.3    7.881      60.579
2015    8       27     8  49    6.6458   509.2    7.834      60.615
2015    8       27     8  56    6.6282   510.2    7.786      60.656
2015    8       27     9   3    6.6098   511.2    7.735      60.704
2015    8       27     9  11    6.5906   512.2    7.682      60.736
2015    8       27     9  18    6.5703   513.2    7.628      60.753
2015    8       27     9  25    6.5494   514.2    7.573      60.756
2015    8       27     9  32    6.5280   515.1    7.518      60.749
2015    8       27     9  39    6.5065   515.9    7.464      60.732
2015    8       27     9  46    6.4848   516.7    7.412      60.699
2015    8       27     9  53    6.4637   517.4    7.363      60.667
2015    8       27    10   0    6.4432   518.1    7.316      60.639
2015    8       27    10   7    6.4235   518.8    7.271      60.619
2015    8       27    10  14    6.4045   519.5    7.229      60.603
2015    8       27    10  22    6.3862   520.1    7.189      60.590
2015    8       27    10  29    6.3685   520.7    7.152      60.575
2015    8       27    10  36    6.3515   521.3    7.117      60.564
2015    8       27    10  43    6.3352   521.9    7.084      60.559
2015    8       27    10  50    6.3197   522.4    7.053      60.554
2015    8       27    10  57    6.3046   522.9    7.024      60.547
2015    8       27    11   4    6.2902   523.4    6.997      60.542
2015    8       27    11  11    6.2762   523.8    6.971      60.543
2015    8       27    11  18    6.2627   524.2    6.946      60.550
2015    8       27    11  25    6.2495   524.6    6.923      60.565
2015    8       27    11  32    6.2366   525.0    6.900      60.589
2015    8       27    11  40    6.2238   525.5    6.878      60.636
2015    8       27    11  47    6.2112   526.0    6.856      60.700
2015    8       27    11  54    6.1987   526.5    6.835      60.776
2015    8       27    12   1    6.1863   527.1    6.815      60.859
2015    8       27    12   8    6.1739   527.7    6.794      60.948
2015    8       27    12  15    6.1618   528.2    6.775      61.039
2015    8       27    12  22    6.1496   528.8    6.755      61.122
2015    8       27    12  29    6.1376   529.3    6.736      61.196
2015    8       27    12  36    6.1255   529.7    6.717      61.264
2015    8       27    12  43    6.1135   530.2    6.698      61.326
2015    8       27    12  51    6.1015   530.7    6.679      61.384
2015    8       27    12  58    6.0897   531.2    6.660      61.439
2015    8       27    13   5    6.0778   531.7    6.641      61.493
2015    8       27    13  12    6.0662   532.2    6.622      61.545
2015    8       27    13  19    6.0545   532.7    6.604      61.597
2015    8       27    13  26    6.0431   533.2    6.585      61.645
2015    8       27    13  33    6.0316   533.7    6.567      61.691
2015    8       27    13  40    6.0201   534.2    6.548      61.737
2015    8       27    13  47    6.0085   534.8    6.530      61.783
2015    8       27    13  55    5.9970   535.4    6.511      61.828
2015    8       27    14   2    5.9851   536.0    6.492      61.871
2015    8       27    14   9    5.9732   536.6    6.472      61.917
2015    8       27    14  16    5.9608   537.3    6.452      61.970
2015    8       27    14  23    5.9483   538.0    6.431      62.026
2015    8       27    14  30    5.9351   538.8    6.408      62.079
2015    8       27    14  37    5.9214   539.5    6.384      62.129
2015    8       27    14  44    5.9069   540.3    6.358      62.174
2015    8       27    14  52    5.8917   541.1    6.330      62.220
2015    8       27    14  59    5.8756   542.0    6.299      62.258
2015    8       27    15   6    5.8583   542.8    6.266      62.269
2015    8       27    15  13    5.8400   543.5    6.231      62.259
2015    8       27    15  20    5.8211   544.3    6.195      62.231
2015    8       27    15  27    5.8017   545.0    6.158      62.190
2015    8       27    15  34    5.7820   545.6    6.122      62.133
2015    8       27    15  41    5.7621   546.2    6.086      62.056
2015    8       27    15  48    5.7426   546.8    6.051      61.985
2015    8       27    15  56    5.7234   547.3    6.017      61.916
2015    8       27    16   3    5.7046   547.9    5.983      61.849
2015    8       27    16  10    5.6860   548.5    5.950      61.783
2015    8       27    16  17    5.6677   549.1    5.918      61.717
2015    8       27    16  24    5.6498   549.6    5.886      61.648
2015    8       27    16  31    5.6322   550.1    5.856      61.579
2015    8       27    16  38    5.6152   550.7    5.826      61.512
2015    8       27    16  45    5.5985   551.2    5.797      61.446
2015    8       27    16  52    5.5822   551.6    5.769      61.382
2015    8       27    16  59    5.5663   552.1    5.742      61.321
2015    8       27    17   6    5.5508   552.5    5.716      61.261
2015    8       27    17  14    5.5357   553.0    5.691      61.204
2015    8       27    17  21    5.5210   553.4    5.666      61.150
2015    8       27    17  28    5.5066   553.8    5.643      61.097
2015    8       27    17  35    5.4926   554.1    5.620      61.047
2015    8       27    17  42    5.4788   554.5    5.598      60.998
2015    8       27    17  49    5.4653   554.9    5.576      60.951
2015    8       27    17  56    5.4521   555.2    5.555      60.905
2015    8       27    18   3    5.4391   555.6    5.534      60.859
2015    8       27    18  10    5.4262   555.9    5.514      60.813
2015    8       27    18  17    5.4135   556.3    5.494      60.767
2015    8       27    18  25    5.4009   556.7    5.474      60.718
2015    8       27    18  32    5.3884   557.0    5.454      60.667
2015    8       27    18  39    5.3760   557.4    5.435      60.614
2015    8       27    18  46    5.3636   557.8    5.416      60.559
2015    8       27    18  53    5.3513   558.1    5.397      60.503
2015    8       27    19   0    5.3391   558.5    5.378      60.445
2015    8       27    19   7    5.3269   558.8    5.360      60.385
2015    8       27    19  14    5.3148   559.2    5.341      60.323
2015    8       27    19  21    5.3027   559.5    5.323      60.261
2015    8       27    19  28    5.2908   559.8    5.305      60.197
2015    8       27    19  35    5.2790   560.2    5.288      60.134
2015    8       27    19  43    5.2674   560.5    5.271      60.070
2015    8       27    19  50    5.2559   560.8    5.254      60.009
2015    8       27    19  57    5.2446   561.1    5.238      59.948
2015    8       27    20   4    5.2334   561.4    5.222      59.890
2015    8       27    20  11    5.2224   561.7    5.207      59.833
2015    8       27    20  18    5.2114   562.0    5.192      59.779
2015    8       27    20  25    5.2006   562.3    5.177      59.726
2015    8       27    20  32    5.1898   562.6    5.164      59.676
2015    8       27    20  39    5.1791   562.9    5.150      59.629
2015    8       27    20  47    5.1685   563.2    5.137      59.584
2015    8       27    20  54    5.1579   563.5    5.123      59.542
2015    8       27    21   1    5.1474   563.7    5.111      59.501
2015    8       27    21   8    5.1368   564.0    5.098      59.461
2015    8       27    21  15    5.1263   564.3    5.085      59.422
2015    8       27    21  22    5.1156   564.5    5.073      59.383
2015    8       27    21  29    5.1051   564.8    5.060      59.345
2015    8       27    21  36    5.0945   565.1    5.048      59.305
2015    8       27    21  43    5.0839   565.3    5.035      59.266
2015    8       27    21  51    5.0733   565.5    5.023      59.224
2015    8       27    21  58    5.0628   565.8    5.010      59.182
2015    8       27    22   5    5.0524   566.0    4.998      59.138
2015    8       27    22  12    5.0420   566.2    4.985      59.094
2015    8       27    22  19    5.0317   566.4    4.973      59.049
2015    8       27    22  26    5.0215   566.6    4.961      59.004
2015    8       27    22  33    5.0115   566.8    4.949      58.958
2015    8       27    22  40    5.0015   567.0    4.937      58.912
2015    8       27    22  47    4.9918   567.2    4.925      58.865
2015    8       27    22  55    4.9820   567.4    4.913      58.819
2015    8       27    23   2    4.9725   567.6    4.901      58.772
2015    8       27    23   9    4.9630   567.8    4.890      58.725
2015    8       27    23  16    4.9537   568.0    4.878      58.677
2015    8       27    23  23    4.9445   568.2    4.867      58.629
2015    8       27    23  30    4.9354   568.5    4.855      58.580
2015    8       27    23  37    4.9264   568.7    4.843      58.531
2015    8       27    23  44    4.9175   568.9    4.832      58.478
2015    8       27    23  51    4.9087   569.1    4.820      58.424
2015    8       27    23  59    4.9000   569.3    4.808      58.366
2015    8       28     0   6    4.8914   569.5    4.796      58.306
2015    8       28     0  13    4.8829   569.7    4.784      58.245
2015    8       28     0  20    4.8745   569.9    4.773      58.184
2015    8       28     0  27    4.8662   570.1    4.761      58.121
2015    8       28     0  34    4.8580   570.3    4.750      58.059
2015    8       28     0  41    4.8499   570.4    4.738      57.997
2015    8       28     0  48    4.8420   570.6    4.728      57.935
2015    8       28     0  55    4.8341   570.7    4.717      57.874
2015    8       28     1   2    4.8263   570.9    4.706      57.813
2015    8       28     1   9    4.8186   571.0    4.696      57.752
2015    8       28     1  17    4.8110   571.1    4.686      57.691
2015    8       28     1  24    4.8035   571.2    4.676      57.630
2015    8       28     1  31    4.7960   571.4    4.667      57.569
2015    8       28     1  38    4.7885   571.5    4.657      57.509
2015    8       28     1  45    4.7811   571.6    4.647      57.448
2015    8       28     1  52    4.7738   571.8    4.638      57.387
2015    8       28     1  59    4.7665   572.0    4.628      57.327
2015    8       28     2   6    4.7592   572.1    4.619      57.266
2015    8       28     2  13    4.7520   572.3    4.610      57.205
2015    8       28     2  20    4.7449   572.4    4.601      57.143
2015    8       28     2  28    4.7378   572.6    4.592      57.081
2015    8       28     2  35    4.7307   572.7    4.583      57.018
2015    8       28     2  42    4.7236   572.9    4.574      56.956
2015    8       28     2  49    4.7166   573.1    4.565      56.893
2015    8       28     2  56    4.7096   573.2    4.556      56.831
2015    8       28     3   3    4.7028   573.4    4.547      56.769
2015    8       28     3  10    4.6960   573.5    4.539      56.709
2015    8       28     3  17    4.6892   573.7    4.530      56.649
2015    8       28     3  24    4.6825   573.8    4.522      56.591
2015    8       28     3  31    4.6759   574.0    4.514      56.534
2015    8       28     3  39    4.6693   574.1    4.506      56.479
2015    8       28     3  46    4.6627   574.3    4.498      56.425
2015    8       28     3  53    4.6562   574.4    4.490      56.373
2015    8       28     4   0    4.6496   574.6    4.482      56.323
2015    8       28     4   7    4.6432   574.8    4.475      56.275
2015    8       28     4  14    4.6367   574.9    4.467      56.227
2015    8       28     4  21    4.6302   575.1    4.459      56.181
2015    8       28     4  28    4.6238   575.2    4.452      56.136
2015    8       28     4  35    4.6174   575.4    4.444      56.091
2015    8       28     4  43    4.6110   575.5    4.437      56.046
2015    8       28     4  50    4.6047   575.7    4.429      56.002
2015    8       28     4  57    4.5985   575.8    4.421      55.957
2015    8       28     5   4    4.5923   576.0    4.414      55.913
2015    8       28     5  11    4.5861   576.1    4.406      55.868
2015    8       28     5  18    4.5800   576.2    4.398      55.823
2015    8       28     5  25    4.5740   576.3    4.391      55.777
2015    8       28     5  32    4.5681   576.4    4.383      55.732
2015    8       28     5  39    4.5622   576.6    4.375      55.686
2015    8       28     5  47    4.5564   576.7    4.368      55.640
2015    8       28     5  54    4.5506   576.8    4.361      55.594
2015    8       28     6   1    4.5449   576.9    4.353      55.549
2015    8       28     6   8    4.5392   577.0    4.346      55.503
2015    8       28     6  15    4.5336   577.1    4.339      55.458
2015    8       28     6  22    4.5281   577.1    4.332      55.413
2015    8       28     6  29    4.5226   577.2    4.325      55.368
2015    8       28     6  36    4.5172   577.3    4.319      55.324
2015    8       28     6  43    4.5118   577.4    4.312      55.280
2015    8       28     6  51    4.5064   577.5    4.306      55.236
2015    8       28     6  58    4.5011   577.6    4.300      55.191
2015    8       28     7   5    4.4958   577.6    4.294      55.147
2015    8       28     7  12    4.4906   577.7    4.288      55.102
2015    8       28     7  19    4.4854   577.8    4.281      55.056
2015    8       28     7  26    4.4802   577.9    4.275      55.011
2015    8       28     7  33    4.4751   578.0    4.269      54.964
2015    8       28     7  40    4.4700   578.0    4.263      54.917
2015    8       28     7  47    4.4649   578.1    4.257      54.870
2015    8       28     7  54    4.4599   578.2    4.251      54.824
2015    8       28     8   1    4.4549   578.3    4.245      54.776
2015    8       28     8   9    4.4499   578.3    4.239      54.729
2015    8       28     8  16    4.4449   578.4    4.233      54.681
2015    8       28     8  23    4.4400   578.5    4.227      54.634
2015    8       28     8  30    4.4351   578.6    4.221      54.587
2015    8       28     8  37    4.4302   578.6    4.215      54.540
2015    8       28     8  44    4.4253   578.7    4.209      54.492
2015    8       28     8  51    4.4205   578.8    4.203      54.446
2015    8       28     8  58    4.4157   578.9    4.197      54.399
2015    8       28     9   5    4.4109   578.9    4.192      54.352
2015    8       28     9  12    4.4061   579.0    4.186      54.305
2015    8       28     9  20    4.4014   579.1    4.180      54.259
2015    8       28     9  27    4.3967   579.1    4.174      54.213
2015    8       28     9  34    4.3921   579.2    4.169      54.168
2015    8       28     9  41    4.3875   579.3    4.163      54.122
2015    8       28     9  48    4.3829   579.3    4.158      54.078
2015    8       28     9  55    4.3784   579.4    4.153      54.033
2015    8       28    10   2    4.3739   579.5    4.147      53.989
2015    8       28    10   9    4.3694   579.5    4.142      53.946
2015    8       28    10  16    4.3650   579.6    4.137      53.903
2015    8       28    10  23    4.3606   579.6    4.132      53.860
2015    8       28    10  31    4.3563   579.7    4.127      53.818
2015    8       28    10  38    4.3520   579.8    4.122      53.777
2015    8       28    10  45    4.3477   579.8    4.117      53.736
2015    8       28    10  52    4.3434   579.9    4.113      53.696
2015    8       28    10  59    4.3392   579.9    4.108      53.656
2015    8       28    11   6    4.3350   580.0    4.104      53.617
2015    8       28    11  13    4.3309   580.0    4.099      53.578
2015    8       28    11  20    4.3268   580.1    4.095      53.539
2015    8       28    11  27    4.3227   580.1    4.090      53.502
2015    8       28    11  35    4.3186   580.2    4.086      53.464
2015    8       28    11  42    4.3145   580.2    4.082      53.426
2015    8       28    11  49    4.3105   580.2    4.077      53.389
2015    8       28    11  56    4.3065   580.3    4.073      53.352
2015    8       28    12   3    4.3025   580.3    4.069      53.315
2015    8       28    12  10    4.2985   580.4    4.064      53.279
2015    8       28    12  17    4.2946   580.4    4.060      53.242
2015    8       28    12  24    4.2907   580.4    4.056      53.205
2015    8       28    12  31    4.2868   580.5    4.052      53.168
2015    8       28    12  39    4.2830   580.5    4.047      53.132
2015    8       28    12  46    4.2791   580.5    4.043      53.094
2015    8       28    12  53    4.2753   580.6    4.039      53.057
2015    8       28    13   0    4.2715   580.6    4.035      53.020
2015    8       28    13   7    4.2678   580.6    4.030      52.983
2015    8       28    13  14    4.2640   580.7    4.026      52.945
2015    8       28    13  21    4.2603   580.7    4.022      52.907
2015    8       28    13  28    4.2566   580.7    4.018      52.870
2015    8       28    13  35    4.2530   580.8    4.014      52.832
2015    8       28    13  43    4.2493   580.8    4.010      52.794
2015    8       28    13  50    4.2457   580.8    4.006      52.756
2015    8       28    13  57    4.2421   580.8    4.002      52.718
2015    8       28    14   4    4.2386   580.8    3.998      52.680
2015    8       28    14  11    4.2350   580.9    3.994      52.642
2015    8       28    14  18    4.2315   580.9    3.990      52.605
2015    8       28    14  25    4.2281   580.9    3.986      52.568
2015    8       28    14  32    4.2246   580.9    3.982      52.530
2015    8       28    14  39    4.2212   581.0    3.978      52.493
2015    8       28    14  46    4.2179   581.0    3.975      52.457
2015    8       28    14  54    4.2145   581.0    3.971      52.420
2015    8       28    15   1    4.2112   581.0    3.967      52.384
2015    8       28    15   8    4.2079   581.0    3.964      52.348
2015    8       28    15  15    4.2046   581.1    3.960      52.313
2015    8       28    15  22    4.2014   581.1    3.957      52.277
2015    8       28    15  29    4.1982   581.1    3.954      52.243
2015    8       28    15  36    4.1950   581.1    3.950      52.208
2015    8       28    15  43    4.1918   581.1    3.947      52.174
2015    8       28    15  50    4.1887   581.2    3.944      52.140
2015    8       28    15  57    4.1855   581.2    3.940      52.107
2015    8       28    16   4    4.1824   581.2    3.937      52.074
2015    8       28    16  12    4.1794   581.2    3.934      52.041
2015    8       28    16  19    4.1763   581.2    3.931      52.009
2015    8       28    16  26    4.1732   581.2    3.928      51.977
2015    8       28    16  33    4.1702   581.3    3.925      51.946
2015    8       28    16  40    4.1672   581.3    3.922      51.915
2015    8       28    16  47    4.1642   581.3    3.918      51.884
2015    8       28    16  54    4.1613   581.3    3.915      51.854
2015    8       28    17   1    4.1583   581.3    3.912      51.824
2015    8       28    17   8    4.1554   581.3    3.910      51.794
2015    8       28    17  15    4.1525   581.3    3.907      51.765
2015    8       28    17  23    4.1497   581.3    3.904      51.736
2015    8       28    17  30    4.1468   581.4    3.901      51.707
2015    8       28    17  37    4.1440   581.4    3.898      51.679
2015    8       28    17  44    4.1412   581.4    3.895      51.651
2015    8       28    17  51    4.1384   581.4    3.893      51.623
2015    8       28    17  58    4.1357   581.4    3.890      51.595
2015    8       28    18   5    4.1330   581.4    3.887      51.568
2015    8       28    18  12    4.1302   581.4    3.885      51.540
2015    8       28    18  19    4.1275   581.4    3.882      51.513
2015    8       28    18  26    4.1249   581.4    3.879      51.486
2015    8       28    18  34    4.1222   581.4    3.877      51.460
2015    8       28    18  41    4.1196   581.4    3.874      51.433
2015    8       28    18  48    4.1169   581.4    3.872      51.406
2015    8       28    18  55    4.1143   581.4    3.869      51.379
2015    8       28    19   2    4.1117   581.4    3.867      51.353
2015    8       28    19   9    4.1091   581.4    3.864      51.326
2015    8       28    19  16    4.1065   581.4    3.862      51.299
2015    8       28    19  23    4.1040   581.4    3.859      51.273
2015    8       28    19  31    4.1014   581.4    3.857      51.246
2015    8       28    19  38    4.0989   581.4    3.854      51.219
2015    8       28    19  45    4.0964   581.4    3.852      51.192
2015    8       28    19  52    4.0938   581.4    3.849      51.165
2015    8       28    19  59    4.0913   581.4    3.847      51.138
2015    8       28    20   6    4.0888   581.4    3.844      51.111
2015    8       28    20  13    4.0864   581.4    3.842      51.084
2015    8       28    20  20    4.0839   581.4    3.839      51.057
2015    8       28    20  27    4.0814   581.4    3.837      51.030
2015    8       28    20  35    4.0790   581.4    3.835      51.003
2015    8       28    20  42    4.0766   581.4    3.832      50.976
2015    8       28    20  49    4.0742   581.4    3.830      50.949
2015    8       28    20  56    4.0718   581.4    3.828      50.922
2015    8       28    21   3    4.0694   581.3    3.825      50.895
2015    8       28    21  10    4.0671   581.3    3.823      50.869
2015    8       28    21  17    4.0647   581.3    3.821      50.842
2015    8       28    21  24    4.0624   581.3    3.818      50.816
2015    8       28    21  31    4.0601   581.3    3.816      50.789
2015    8       28    21  38    4.0579   581.3    3.814      50.763
2015    8       28    21  46    4.0556   581.3    3.812      50.737
2015    8       28    21  53    4.0534   581.3    3.810      50.712
2015    8       28    22   0    4.0511   581.3    3.808      50.686
2015    8       28    22   7    4.0489   581.3    3.806      50.661
2015    8       28    22  14    4.0468   581.3    3.804      50.636
2015    8       28    22  21    4.0446   581.3    3.802      50.612
2015    8       28    22  28    4.0424   581.3    3.800      50.587
2015    8       28    22  35    4.0403   581.3    3.798      50.563
2015    8       28    22  42    4.0382   581.2    3.796      50.539
2015    8       28    22  49    4.0361   581.2    3.794      50.516
2015    8       28    22  57    4.0339   581.2    3.792      50.492
2015    8       28    23   4    4.0319   581.2    3.790      50.469
2015    8       28    23  11    4.0298   581.2    3.788      50.447
2015    8       28    23  18    4.0277   581.2    3.786      50.424
2015    8       28    23  25    4.0257   581.2    3.785      50.402
2015    8       28    23  32    4.0236   581.2    3.783      50.380
2015    8       28    23  39    4.0216   581.2    3.781      50.359
2015    8       28    23  46    4.0196   581.2    3.779      50.337
2015    8       28    23  53    4.0176   581.2    3.778      50.316
2015    8       29     0   0    4.0156   581.1    3.776      50.296
