year    month   day   hour  minute  B_enl V_enl   n_enl       T_enl
[year] [month] [day] [hour][minute] [nT]  [km/s]  [cm-3]      [kK]
2015    8        2     0   2    4.0703   572.1    4.124      53.361
2015    8        2     0   9    4.0677   572.3    4.120      53.357
2015    8        2     0  16    4.0651   572.4    4.116      53.352
2015    8        2     0  22    4.0625   572.5    4.113      53.347
2015    8        2     0  29    4.0598   572.6    4.109      53.342
2015    8        2     0  36    4.0572   572.7    4.105      53.337
2015    8        2     0  43    4.0546   572.8    4.101      53.331
2015    8        2     0  50    4.0519   572.9    4.097      53.326
2015    8        2     0  56    4.0493   573.0    4.093      53.320
2015    8        2     1   3    4.0466   573.1    4.089      53.314
2015    8        2     1  10    4.0439   573.3    4.085      53.309
2015    8        2     1  17    4.0412   573.4    4.081      53.303
2015    8        2     1  24    4.0385   573.5    4.078      53.297
2015    8        2     1  30    4.0358   573.6    4.074      53.291
2015    8        2     1  37    4.0331   573.7    4.070      53.285
2015    8        2     1  44    4.0303   573.8    4.066      53.279
2015    8        2     1  51    4.0276   573.9    4.063      53.273
2015    8        2     1  58    4.0248   574.0    4.059      53.267
2015    8        2     2   4    4.0221   574.1    4.055      53.261
2015    8        2     2  11    4.0193   574.2    4.052      53.255
2015    8        2     2  18    4.0166   574.3    4.048      53.248
2015    8        2     2  25    4.0138   574.4    4.044      53.242
2015    8        2     2  31    4.0110   574.5    4.041      53.235
2015    8        2     2  38    4.0082   574.6    4.037      53.229
2015    8        2     2  45    4.0054   574.7    4.034      53.222
2015    8        2     2  52    4.0026   574.8    4.030      53.215
2015    8        2     2  59    3.9998   574.8    4.027      53.208
2015    8        2     3   5    3.9970   574.9    4.023      53.200
2015    8        2     3  12    3.9941   575.0    4.020      53.192
2015    8        2     3  19    3.9913   575.1    4.016      53.184
2015    8        2     3  26    3.9885   575.2    4.013      53.176
2015    8        2     3  33    3.9856   575.3    4.009      53.167
2015    8        2     3  39    3.9828   575.4    4.006      53.158
2015    8        2     3  46    3.9800   575.5    4.003      53.149
2015    8        2     3  53    3.9771   575.6    3.999      53.139
2015    8        2     4   0    3.9743   575.7    3.996      53.129
2015    8        2     4   7    3.9714   575.7    3.992      53.119
2015    8        2     4  13    3.9686   575.8    3.989      53.108
2015    8        2     4  20    3.9657   575.9    3.986      53.097
2015    8        2     4  27    3.9629   576.0    3.982      53.086
2015    8        2     4  34    3.9601   576.1    3.979      53.074
2015    8        2     4  41    3.9572   576.2    3.975      53.062
2015    8        2     4  47    3.9544   576.2    3.972      53.050
2015    8        2     4  54    3.9516   576.3    3.969      53.038
2015    8        2     5   1    3.9487   576.4    3.965      53.025
2015    8        2     5   8    3.9459   576.5    3.962      53.012
2015    8        2     5  15    3.9431   576.6    3.959      52.999
2015    8        2     5  21    3.9403   576.6    3.955      52.986
2015    8        2     5  28    3.9375   576.7    3.952      52.973
2015    8        2     5  35    3.9348   576.8    3.949      52.959
2015    8        2     5  42    3.9320   576.9    3.945      52.946
2015    8        2     5  48    3.9292   576.9    3.942      52.932
2015    8        2     5  55    3.9264   577.0    3.939      52.919
2015    8        2     6   2    3.9237   577.1    3.935      52.906
2015    8        2     6   9    3.9209   577.2    3.932      52.892
2015    8        2     6  16    3.9182   577.2    3.929      52.879
2015    8        2     6  22    3.9155   577.3    3.926      52.865
2015    8        2     6  29    3.9127   577.4    3.922      52.852
2015    8        2     6  36    3.9100   577.4    3.919      52.839
2015    8        2     6  43    3.9073   577.5    3.916      52.825
2015    8        2     6  50    3.9046   577.6    3.913      52.812
2015    8        2     6  56    3.9019   577.6    3.910      52.799
2015    8        2     7   3    3.8992   577.7    3.906      52.786
2015    8        2     7  10    3.8965   577.8    3.903      52.773
2015    8        2     7  17    3.8938   577.8    3.900      52.760
2015    8        2     7  24    3.8911   577.9    3.897      52.746
2015    8        2     7  30    3.8884   577.9    3.894      52.733
2015    8        2     7  37    3.8857   578.0    3.891      52.720
2015    8        2     7  44    3.8830   578.1    3.888      52.707
2015    8        2     7  51    3.8803   578.1    3.884      52.694
2015    8        2     7  58    3.8776   578.2    3.881      52.681
2015    8        2     8   4    3.8749   578.2    3.878      52.668
2015    8        2     8  11    3.8722   578.3    3.875      52.654
2015    8        2     8  18    3.8695   578.3    3.872      52.641
2015    8        2     8  25    3.8668   578.4    3.869      52.628
2015    8        2     8  31    3.8641   578.5    3.866      52.614
2015    8        2     8  38    3.8614   578.5    3.863      52.600
2015    8        2     8  45    3.8587   578.6    3.860      52.587
2015    8        2     8  52    3.8559   578.6    3.857      52.573
2015    8        2     8  59    3.8532   578.7    3.854      52.559
2015    8        2     9   5    3.8505   578.7    3.851      52.545
2015    8        2     9  12    3.8478   578.7    3.848      52.530
2015    8        2     9  19    3.8451   578.8    3.845      52.516
2015    8        2     9  26    3.8423   578.8    3.842      52.501
2015    8        2     9  33    3.8396   578.9    3.839      52.486
2015    8        2     9  39    3.8369   578.9    3.836      52.471
2015    8        2     9  46    3.8342   579.0    3.833      52.456
2015    8        2     9  53    3.8314   579.0    3.830      52.441
2015    8        2    10   0    3.8287   579.1    3.827      52.425
2015    8        2    10   7    3.8260   579.1    3.824      52.410
2015    8        2    10  13    3.8233   579.1    3.821      52.394
2015    8        2    10  20    3.8205   579.2    3.819      52.377
2015    8        2    10  27    3.8178   579.2    3.816      52.361
2015    8        2    10  34    3.8151   579.3    3.813      52.344
2015    8        2    10  41    3.8124   579.3    3.810      52.328
2015    8        2    10  47    3.8096   579.3    3.808      52.311
2015    8        2    10  54    3.8069   579.4    3.805      52.294
2015    8        2    11   1    3.8042   579.4    3.802      52.276
2015    8        2    11   8    3.8015   579.5    3.800      52.258
2015    8        2    11  14    3.7988   579.5    3.797      52.241
2015    8        2    11  21    3.7961   579.5    3.794      52.223
2015    8        2    11  28    3.7933   579.6    3.792      52.204
2015    8        2    11  35    3.7906   579.6    3.789      52.186
2015    8        2    11  42    3.7879   579.6    3.786      52.167
2015    8        2    11  48    3.7853   579.7    3.784      52.149
2015    8        2    11  55    3.7826   579.7    3.781      52.130
2015    8        2    12   2    3.7799   579.8    3.779      52.111
2015    8        2    12   9    3.7772   579.8    3.776      52.092
2015    8        2    12  16    3.7746   579.8    3.774      52.072
2015    8        2    12  22    3.7719   579.9    3.771      52.053
2015    8        2    12  29    3.7693   579.9    3.768      52.033
2015    8        2    12  36    3.7666   579.9    3.766      52.013
2015    8        2    12  43    3.7640   579.9    3.763      51.994
2015    8        2    12  50    3.7614   580.0    3.761      51.974
2015    8        2    12  56    3.7588   580.0    3.758      51.954
2015    8        2    13   3    3.7562   580.0    3.756      51.934
2015    8        2    13  10    3.7536   580.1    3.753      51.913
2015    8        2    13  17    3.7510   580.1    3.750      51.893
2015    8        2    13  24    3.7484   580.1    3.748      51.873
2015    8        2    13  30    3.7459   580.1    3.745      51.853
2015    8        2    13  37    3.7433   580.2    3.743      51.833
2015    8        2    13  44    3.7408   580.2    3.740      51.813
2015    8        2    13  51    3.7382   580.2    3.737      51.793
2015    8        2    13  57    3.7357   580.2    3.735      51.773
2015    8        2    14   4    3.7332   580.3    3.732      51.753
2015    8        2    14  11    3.7307   580.3    3.730      51.734
2015    8        2    14  18    3.7282   580.3    3.727      51.714
2015    8        2    14  25    3.7257   580.3    3.725      51.695
2015    8        2    14  31    3.7232   580.3    3.722      51.676
2015    8        2    14  38    3.7207   580.4    3.719      51.657
2015    8        2    14  45    3.7182   580.4    3.717      51.638
2015    8        2    14  52    3.7158   580.4    3.714      51.619
2015    8        2    14  59    3.7133   580.4    3.712      51.601
2015    8        2    15   5    3.7109   580.4    3.709      51.583
2015    8        2    15  12    3.7084   580.4    3.707      51.564
2015    8        2    15  19    3.7060   580.5    3.704      51.546
2015    8        2    15  26    3.7035   580.5    3.702      51.528
2015    8        2    15  33    3.7010   580.5    3.700      51.510
2015    8        2    15  39    3.6986   580.5    3.697      51.493
2015    8        2    15  46    3.6961   580.5    3.695      51.475
2015    8        2    15  53    3.6936   580.5    3.692      51.457
2015    8        2    16   0    3.6911   580.5    3.690      51.440
2015    8        2    16   7    3.6887   580.6    3.688      51.422
2015    8        2    16  13    3.6862   580.6    3.685      51.404
2015    8        2    16  20    3.6837   580.6    3.683      51.387
2015    8        2    16  27    3.6811   580.6    3.681      51.369
2015    8        2    16  34    3.6786   580.6    3.679      51.351
2015    8        2    16  40    3.6761   580.6    3.676      51.333
2015    8        2    16  47    3.6735   580.6    3.674      51.315
2015    8        2    16  54    3.6710   580.6    3.672      51.296
2015    8        2    17   1    3.6684   580.6    3.670      51.278
2015    8        2    17   8    3.6659   580.6    3.667      51.259
2015    8        2    17  14    3.6633   580.6    3.665      51.241
2015    8        2    17  21    3.6608   580.6    3.663      51.221
2015    8        2    17  28    3.6582   580.7    3.661      51.202
2015    8        2    17  35    3.6556   580.7    3.659      51.183
2015    8        2    17  42    3.6531   580.7    3.656      51.163
2015    8        2    17  48    3.6505   580.7    3.654      51.143
2015    8        2    17  55    3.6479   580.7    3.652      51.123
2015    8        2    18   2    3.6453   580.7    3.650      51.102
2015    8        2    18   9    3.6428   580.7    3.648      51.082
2015    8        2    18  16    3.6402   580.7    3.646      51.061
2015    8        2    18  22    3.6376   580.7    3.644      51.040
2015    8        2    18  29    3.6350   580.7    3.641      51.019
2015    8        2    18  36    3.6325   580.7    3.639      50.998
2015    8        2    18  43    3.6299   580.7    3.637      50.976
2015    8        2    18  50    3.6274   580.6    3.635      50.954
2015    8        2    18  56    3.6248   580.6    3.633      50.932
2015    8        2    19   3    3.6223   580.6    3.631      50.910
2015    8        2    19  10    3.6197   580.6    3.629      50.888
2015    8        2    19  17    3.6172   580.6    3.627      50.866
2015    8        2    19  23    3.6147   580.6    3.625      50.843
2015    8        2    19  30    3.6122   580.6    3.623      50.820
2015    8        2    19  37    3.6097   580.6    3.620      50.797
2015    8        2    19  44    3.6072   580.6    3.618      50.774
2015    8        2    19  51    3.6047   580.6    3.616      50.751
2015    8        2    19  57    3.6023   580.6    3.614      50.727
2015    8        2    20   4    3.5998   580.6    3.612      50.704
2015    8        2    20  11    3.5974   580.6    3.610      50.680
2015    8        2    20  18    3.5949   580.6    3.607      50.656
2015    8        2    20  25    3.5925   580.5    3.605      50.632
2015    8        2    20  31    3.5901   580.5    3.603      50.607
2015    8        2    20  38    3.5876   580.5    3.601      50.583
2015    8        2    20  45    3.5852   580.5    3.598      50.558
2015    8        2    20  52    3.5828   580.5    3.596      50.534
2015    8        2    20  59    3.5804   580.5    3.594      50.509
2015    8        2    21   5    3.5781   580.5    3.592      50.484
2015    8        2    21  12    3.5757   580.5    3.589      50.459
2015    8        2    21  19    3.5733   580.4    3.587      50.433
2015    8        2    21  26    3.5709   580.4    3.585      50.408
2015    8        2    21  33    3.5686   580.4    3.582      50.383
2015    8        2    21  39    3.5662   580.4    3.580      50.358
2015    8        2    21  46    3.5639   580.4    3.578      50.333
2015    8        2    21  53    3.5615   580.4    3.575      50.308
2015    8        2    22   0    3.5592   580.3    3.573      50.283
2015    8        2    22   7    3.5568   580.3    3.571      50.258
2015    8        2    22  13    3.5545   580.3    3.568      50.234
2015    8        2    22  20    3.5521   580.3    3.566      50.209
2015    8        2    22  27    3.5498   580.3    3.564      50.185
2015    8        2    22  34    3.5474   580.2    3.561      50.161
2015    8        2    22  40    3.5451   580.2    3.559      50.138
2015    8        2    22  47    3.5427   580.2    3.557      50.114
2015    8        2    22  54    3.5404   580.2    3.555      50.091
2015    8        2    23   1    3.5380   580.2    3.553      50.068
2015    8        2    23   8    3.5356   580.1    3.550      50.045
2015    8        2    23  14    3.5332   580.1    3.548      50.022
2015    8        2    23  21    3.5309   580.1    3.546      50.000
2015    8        2    23  28    3.5285   580.1    3.544      49.978
2015    8        2    23  35    3.5261   580.0    3.542      49.956
2015    8        2    23  42    3.5237   580.0    3.540      49.934
2015    8        2    23  48    3.5213   580.0    3.538      49.913
2015    8        2    23  55    3.5188   580.0    3.537      49.891
2015    8        3     0   2    3.5164   579.9    3.535      49.870
2015    8        3     0   9    3.5140   579.9    3.533      49.848
2015    8        3     0  16    3.5116   579.9    3.531      49.827
2015    8        3     0  22    3.5091   579.9    3.529      49.806
2015    8        3     0  29    3.5067   579.8    3.527      49.785
2015    8        3     0  36    3.5042   579.8    3.526      49.763
2015    8        3     0  43    3.5017   579.8    3.524      49.742
2015    8        3     0  49    3.4993   579.7    3.522      49.720
2015    8        3     0  56    3.4968   579.7    3.520      49.699
2015    8        3     1   3    3.4943   579.7    3.519      49.677
2015    8        3     1  10    3.4919   579.6    3.517      49.654
2015    8        3     1  17    3.4894   579.6    3.515      49.632
2015    8        3     1  23    3.4869   579.6    3.514      49.609
2015    8        3     1  30    3.4844   579.5    3.512      49.586
2015    8        3     1  37    3.4819   579.5    3.510      49.563
2015    8        3     1  44    3.4795   579.5    3.508      49.539
2015    8        3     1  51    3.4770   579.4    3.507      49.515
2015    8        3     1  57    3.4745   579.4    3.505      49.490
2015    8        3     2   4    3.4720   579.4    3.503      49.465
2015    8        3     2  11    3.4696   579.3    3.501      49.440
2015    8        3     2  18    3.4671   579.3    3.499      49.414
2015    8        3     2  25    3.4647   579.2    3.498      49.388
2015    8        3     2  31    3.4622   579.2    3.496      49.361
2015    8        3     2  38    3.4598   579.1    3.494      49.334
2015    8        3     2  45    3.4574   579.1    3.492      49.307
2015    8        3     2  52    3.4550   579.0    3.490      49.280
2015    8        3     2  59    3.4526   579.0    3.488      49.252
2015    8        3     3   5    3.4502   579.0    3.486      49.224
2015    8        3     3  12    3.4478   578.9    3.485      49.197
2015    8        3     3  19    3.4455   578.9    3.483      49.168
2015    8        3     3  26    3.4432   578.8    3.481      49.140
2015    8        3     3  33    3.4409   578.8    3.479      49.112
2015    8        3     3  39    3.4386   578.7    3.477      49.084
2015    8        3     3  46    3.4363   578.7    3.476      49.056
2015    8        3     3  53    3.4340   578.6    3.474      49.028
2015    8        3     4   0    3.4318   578.5    3.472      49.000
2015    8        3     4   6    3.4296   578.5    3.470      48.972
2015    8        3     4  13    3.4274   578.4    3.469      48.944
2015    8        3     4  20    3.4252   578.4    3.467      48.917
2015    8        3     4  27    3.4230   578.3    3.465      48.889
2015    8        3     4  34    3.4209   578.3    3.463      48.861
2015    8        3     4  40    3.4187   578.2    3.462      48.834
2015    8        3     4  47    3.4165   578.2    3.460      48.806
2015    8        3     4  54    3.4143   578.1    3.458      48.779
2015    8        3     5   1    3.4122   578.1    3.456      48.751
2015    8        3     5   8    3.4100   578.0    3.455      48.723
2015    8        3     5  14    3.4078   578.0    3.453      48.696
2015    8        3     5  21    3.4056   577.9    3.451      48.668
2015    8        3     5  28    3.4034   577.8    3.449      48.640
2015    8        3     5  35    3.4012   577.8    3.447      48.612
2015    8        3     5  42    3.3990   577.7    3.446      48.584
2015    8        3     5  48    3.3967   577.7    3.444      48.556
2015    8        3     5  55    3.3945   577.6    3.442      48.528
2015    8        3     6   2    3.3923   577.6    3.440      48.499
2015    8        3     6   9    3.3901   577.5    3.438      48.471
2015    8        3     6  16    3.3878   577.4    3.436      48.443
2015    8        3     6  22    3.3856   577.4    3.434      48.414
2015    8        3     6  29    3.3834   577.3    3.432      48.385
2015    8        3     6  36    3.3811   577.3    3.430      48.357
2015    8        3     6  43    3.3788   577.2    3.428      48.328
2015    8        3     6  49    3.3766   577.1    3.426      48.299
2015    8        3     6  56    3.3743   577.1    3.424      48.270
2015    8        3     7   3    3.3720   577.0    3.422      48.241
2015    8        3     7  10    3.3697   576.9    3.420      48.212
2015    8        3     7  17    3.3674   576.9    3.419      48.183
2015    8        3     7  23    3.3651   576.8    3.417      48.154
2015    8        3     7  30    3.3628   576.7    3.415      48.125
2015    8        3     7  37    3.3605   576.7    3.413      48.096
2015    8        3     7  44    3.3582   576.6    3.411      48.067
2015    8        3     7  51    3.3559   576.5    3.409      48.037
2015    8        3     7  57    3.3536   576.5    3.407      48.008
2015    8        3     8   4    3.3512   576.4    3.405      47.978
2015    8        3     8  11    3.3489   576.3    3.403      47.949
2015    8        3     8  18    3.3466   576.3    3.401      47.919
2015    8        3     8  25    3.3443   576.2    3.400      47.889
2015    8        3     8  31    3.3419   576.1    3.398      47.859
2015    8        3     8  38    3.3396   576.1    3.396      47.830
2015    8        3     8  45    3.3373   576.0    3.394      47.800
2015    8        3     8  52    3.3350   575.9    3.393      47.770
2015    8        3     8  58    3.3326   575.8    3.391      47.740
2015    8        3     9   5    3.3303   575.8    3.389      47.710
2015    8        3     9  12    3.3280   575.7    3.388      47.680
2015    8        3     9  19    3.3258   575.6    3.386      47.650
2015    8        3     9  26    3.3235   575.5    3.385      47.621
2015    8        3     9  32    3.3212   575.4    3.383      47.591
2015    8        3     9  39    3.3190   575.4    3.382      47.562
2015    8        3     9  46    3.3168   575.3    3.381      47.533
2015    8        3     9  53    3.3146   575.2    3.379      47.505
2015    8        3    10   0    3.3124   575.1    3.378      47.476
2015    8        3    10   6    3.3103   575.0    3.377      47.448
2015    8        3    10  13    3.3082   574.9    3.376      47.421
2015    8        3    10  20    3.3061   574.9    3.375      47.393
2015    8        3    10  27    3.3040   574.8    3.374      47.367
2015    8        3    10  34    3.3019   574.7    3.373      47.340
2015    8        3    10  40    3.2999   574.6    3.373      47.314
2015    8        3    10  47    3.2979   574.5    3.372      47.288
2015    8        3    10  54    3.2959   574.4    3.371      47.262
2015    8        3    11   1    3.2939   574.3    3.371      47.236
2015    8        3    11   8    3.2920   574.3    3.370      47.211
2015    8        3    11  14    3.2900   574.2    3.369      47.186
2015    8        3    11  21    3.2881   574.1    3.369      47.160
2015    8        3    11  28    3.2861   574.0    3.368      47.135
2015    8        3    11  35    3.2842   573.9    3.367      47.110
2015    8        3    11  42    3.2822   573.8    3.367      47.084
2015    8        3    11  48    3.2803   573.8    3.366      47.058
2015    8        3    11  55    3.2783   573.7    3.366      47.032
2015    8        3    12   2    3.2764   573.6    3.365      47.006
2015    8        3    12   9    3.2744   573.5    3.364      46.979
2015    8        3    12  15    3.2724   573.4    3.363      46.953
2015    8        3    12  22    3.2704   573.3    3.363      46.925
2015    8        3    12  29    3.2684   573.2    3.362      46.898
2015    8        3    12  36    3.2664   573.1    3.361      46.870
2015    8        3    12  43    3.2644   573.1    3.360      46.843
2015    8        3    12  49    3.2624   573.0    3.359      46.814
2015    8        3    12  56    3.2604   572.9    3.358      46.785
2015    8        3    13   3    3.2584   572.8    3.357      46.756
2015    8        3    13  10    3.2564   572.7    3.356      46.727
2015    8        3    13  17    3.2544   572.6    3.355      46.697
2015    8        3    13  23    3.2524   572.5    3.354      46.666
2015    8        3    13  30    3.2504   572.4    3.352      46.636
2015    8        3    13  37    3.2484   572.3    3.351      46.605
2015    8        3    13  44    3.2464   572.2    3.350      46.573
2015    8        3    13  51    3.2444   572.1    3.349      46.541
2015    8        3    13  57    3.2424   572.1    3.347      46.509
2015    8        3    14   4    3.2404   572.0    3.346      46.477
2015    8        3    14  11    3.2384   571.9    3.344      46.444
2015    8        3    14  18    3.2364   571.8    3.343      46.411
2015    8        3    14  25    3.2344   571.7    3.342      46.378
2015    8        3    14  31    3.2324   571.6    3.340      46.344
2015    8        3    14  38    3.2304   571.5    3.339      46.310
2015    8        3    14  45    3.2285   571.4    3.337      46.276
2015    8        3    14  52    3.2265   571.3    3.336      46.242
2015    8        3    14  58    3.2245   571.2    3.334      46.207
2015    8        3    15   5    3.2225   571.1    3.333      46.172
2015    8        3    15  12    3.2205   571.0    3.331      46.138
2015    8        3    15  19    3.2186   570.9    3.329      46.103
2015    8        3    15  26    3.2166   570.8    3.328      46.068
2015    8        3    15  32    3.2146   570.7    3.326      46.032
2015    8        3    15  39    3.2127   570.6    3.325      45.997
2015    8        3    15  46    3.2107   570.5    3.323      45.961
2015    8        3    15  53    3.2088   570.3    3.322      45.926
2015    8        3    16   0    3.2068   570.2    3.320      45.891
2015    8        3    16   6    3.2049   570.1    3.319      45.855
2015    8        3    16  13    3.2029   570.0    3.318      45.820
2015    8        3    16  20    3.2010   569.9    3.316      45.786
2015    8        3    16  27    3.1991   569.8    3.315      45.751
2015    8        3    16  34    3.1972   569.7    3.314      45.717
2015    8        3    16  40    3.1953   569.6    3.312      45.683
2015    8        3    16  47    3.1934   569.4    3.311      45.650
2015    8        3    16  54    3.1916   569.3    3.310      45.617
2015    8        3    17   1    3.1898   569.2    3.309      45.584
2015    8        3    17   8    3.1880   569.1    3.309      45.553
2015    8        3    17  14    3.1862   569.0    3.308      45.522
2015    8        3    17  21    3.1844   568.9    3.307      45.492
2015    8        3    17  28    3.1827   568.8    3.307      45.462
2015    8        3    17  35    3.1810   568.6    3.306      45.433
2015    8        3    17  41    3.1793   568.5    3.306      45.405
2015    8        3    17  48    3.1777   568.4    3.305      45.377
2015    8        3    17  55    3.1760   568.3    3.305      45.351
2015    8        3    18   2    3.1744   568.2    3.305      45.324
2015    8        3    18   9    3.1728   568.1    3.305      45.298
2015    8        3    18  15    3.1711   568.0    3.305      45.272
2015    8        3    18  22    3.1695   567.9    3.305      45.246
2015    8        3    18  29    3.1678   567.8    3.305      45.220
2015    8        3    18  36    3.1662   567.7    3.304      45.193
2015    8        3    18  43    3.1645   567.6    3.304      45.166
2015    8        3    18  49    3.1628   567.5    3.304      45.138
2015    8        3    18  56    3.1611   567.3    3.304      45.109
2015    8        3    19   3    3.1594   567.2    3.304      45.080
2015    8        3    19  10    3.1576   567.1    3.303      45.050
2015    8        3    19  17    3.1559   567.0    3.303      45.020
2015    8        3    19  23    3.1541   566.9    3.302      44.989
2015    8        3    19  30    3.1524   566.8    3.302      44.958
2015    8        3    19  37    3.1506   566.6    3.301      44.926
2015    8        3    19  44    3.1488   566.5    3.301      44.894
2015    8        3    19  51    3.1470   566.4    3.300      44.861
2015    8        3    19  57    3.1452   566.3    3.300      44.828
2015    8        3    20   4    3.1434   566.2    3.299      44.794
2015    8        3    20  11    3.1416   566.1    3.299      44.761
2015    8        3    20  18    3.1399   565.9    3.298      44.726
2015    8        3    20  24    3.1381   565.8    3.297      44.692
2015    8        3    20  31    3.1363   565.7    3.297      44.657
2015    8        3    20  38    3.1345   565.6    3.296      44.623
2015    8        3    20  45    3.1328   565.4    3.295      44.588
2015    8        3    20  52    3.1310   565.3    3.295      44.553
2015    8        3    20  58    3.1293   565.2    3.294      44.519
2015    8        3    21   5    3.1276   565.1    3.293      44.485
2015    8        3    21  12    3.1259   565.0    3.293      44.451
2015    8        3    21  19    3.1242   564.8    3.293      44.418
2015    8        3    21  26    3.1225   564.7    3.292      44.385
2015    8        3    21  32    3.1209   564.6    3.292      44.352
2015    8        3    21  39    3.1193   564.5    3.292      44.321
2015    8        3    21  46    3.1177   564.3    3.292      44.289
2015    8        3    21  53    3.1162   564.2    3.292      44.259
2015    8        3    22   0    3.1147   564.1    3.292      44.230
2015    8        3    22   6    3.1132   564.0    3.292      44.201
2015    8        3    22  13    3.1117   563.9    3.292      44.173
2015    8        3    22  20    3.1103   563.7    3.293      44.145
2015    8        3    22  27    3.1089   563.6    3.293      44.119
2015    8        3    22  33    3.1074   563.5    3.294      44.094
2015    8        3    22  40    3.1060   563.4    3.294      44.070
2015    8        3    22  47    3.1045   563.3    3.295      44.047
2015    8        3    22  54    3.1030   563.2    3.295      44.025
2015    8        3    23   1    3.1016   563.0    3.296      44.002
2015    8        3    23   7    3.1000   562.9    3.296      43.979
2015    8        3    23  14    3.0985   562.8    3.296      43.954
2015    8        3    23  21    3.0970   562.7    3.296      43.929
2015    8        3    23  28    3.0954   562.6    3.296      43.904
2015    8        3    23  35    3.0939   562.5    3.296      43.878
2015    8        3    23  41    3.0923   562.3    3.296      43.850
2015    8        3    23  48    3.0908   562.2    3.296      43.822
2015    8        3    23  55    3.0892   562.1    3.296      43.794
2015    8        4     0   2    3.0876   562.0    3.295      43.764
2015    8        4     0   9    3.0861   561.9    3.295      43.734
2015    8        4     0  15    3.0845   561.7    3.294      43.704
2015    8        4     0  22    3.0829   561.6    3.294      43.673
2015    8        4     0  29    3.0814   561.5    3.293      43.642
2015    8        4     0  36    3.0798   561.4    3.293      43.611
2015    8        4     0  42    3.0783   561.2    3.292      43.579
2015    8        4     0  49    3.0768   561.1    3.292      43.547
2015    8        4     0  56    3.0753   561.0    3.291      43.515
2015    8        4     1   3    3.0737   560.8    3.291      43.483
2015    8        4     1  10    3.0722   560.7    3.290      43.450
2015    8        4     1  16    3.0707   560.6    3.290      43.418
2015    8        4     1  23    3.0692   560.5    3.289      43.385
2015    8        4     1  30    3.0677   560.3    3.289      43.352
2015    8        4     1  37    3.0662   560.2    3.288      43.319
2015    8        4     1  44    3.0647   560.1    3.288      43.285
2015    8        4     1  50    3.0631   559.9    3.287      43.252
2015    8        4     1  57    3.0616   559.8    3.286      43.217
2015    8        4     2   4    3.0600   559.7    3.286      43.181
2015    8        4     2  11    3.0584   559.5    3.285      43.145
2015    8        4     2  17    3.0569   559.4    3.284      43.108
2015    8        4     2  24    3.0553   559.3    3.283      43.071
2015    8        4     2  31    3.0537   559.1    3.283      43.033
2015    8        4     2  38    3.0521   559.0    3.282      42.994
2015    8        4     2  45    3.0505   558.9    3.281      42.955
2015    8        4     2  51    3.0489   558.7    3.280      42.915
2015    8        4     2  58    3.0473   558.6    3.279      42.876
2015    8        4     3   5    3.0457   558.4    3.278      42.835
2015    8        4     3  12    3.0441   558.3    3.277      42.794
2015    8        4     3  19    3.0425   558.1    3.276      42.753
2015    8        4     3  25    3.0409   558.0    3.275      42.712
2015    8        4     3  32    3.0393   557.8    3.274      42.670
2015    8        4     3  39    3.0377   557.7    3.273      42.628
2015    8        4     3  46    3.0362   557.5    3.272      42.586
2015    8        4     3  52    3.0346   557.4    3.271      42.545
2015    8        4     3  59    3.0330   557.2    3.270      42.503
2015    8        4     4   6    3.0315   557.1    3.269      42.462
2015    8        4     4  13    3.0300   556.9    3.268      42.422
2015    8        4     4  20    3.0285   556.8    3.267      42.382
2015    8        4     4  26    3.0270   556.6    3.267      42.343
2015    8        4     4  33    3.0256   556.5    3.266      42.305
2015    8        4     4  40    3.0241   556.3    3.266      42.267
2015    8        4     4  47    3.0227   556.2    3.265      42.231
2015    8        4     4  54    3.0214   556.0    3.265      42.196
2015    8        4     5   0    3.0200   555.9    3.265      42.162
2015    8        4     5   7    3.0187   555.8    3.265      42.130
2015    8        4     5  14    3.0174   555.6    3.266      42.098
2015    8        4     5  21    3.0162   555.5    3.266      42.068
2015    8        4     5  28    3.0150   555.3    3.267      42.040
2015    8        4     5  34    3.0137   555.2    3.267      42.013
2015    8        4     5  41    3.0126   555.1    3.268      41.986
2015    8        4     5  48    3.0113   554.9    3.269      41.962
2015    8        4     5  55    3.0101   554.8    3.271      41.939
2015    8        4     6   1    3.0088   554.7    3.272      41.917
2015    8        4     6   8    3.0075   554.6    3.273      41.897
2015    8        4     6  15    3.0062   554.4    3.274      41.877
2015    8        4     6  22    3.0049   554.3    3.275      41.857
2015    8        4     6  29    3.0035   554.2    3.276      41.836
2015    8        4     6  35    3.0021   554.1    3.277      41.815
2015    8        4     6  42    3.0006   553.9    3.278      41.793
2015    8        4     6  49    2.9992   553.8    3.279      41.770
2015    8        4     6  56    2.9977   553.7    3.279      41.747
2015    8        4     7   3    2.9962   553.5    3.280      41.722
2015    8        4     7   9    2.9946   553.4    3.281      41.697
2015    8        4     7  16    2.9931   553.3    3.281      41.672
2015    8        4     7  23    2.9915   553.1    3.282      41.645
2015    8        4     7  30    2.9900   553.0    3.282      41.618
2015    8        4     7  37    2.9884   552.8    3.283      41.591
2015    8        4     7  43    2.9868   552.7    3.283      41.563
2015    8        4     7  50    2.9853   552.6    3.283      41.535
2015    8        4     7  57    2.9837   552.4    3.284      41.506
2015    8        4     8   4    2.9821   552.3    3.284      41.477
2015    8        4     8  10    2.9806   552.1    3.284      41.448
2015    8        4     8  17    2.9790   552.0    3.285      41.419
2015    8        4     8  24    2.9775   551.8    3.285      41.390
2015    8        4     8  31    2.9759   551.6    3.285      41.360
2015    8        4     8  38    2.9744   551.5    3.285      41.331
2015    8        4     8  44    2.9729   551.3    3.286      41.301
2015    8        4     8  51    2.9714   551.2    3.286      41.271
2015    8        4     8  58    2.9699   551.0    3.286      41.242
2015    8        4     9   5    2.9684   550.9    3.286      41.212
2015    8        4     9  12    2.9670   550.7    3.287      41.182
2015    8        4     9  18    2.9656   550.6    3.287      41.152
2015    8        4     9  25    2.9642   550.4    3.287      41.122
2015    8        4     9  32    2.9628   550.2    3.287      41.092
2015    8        4     9  39    2.9614   550.1    3.288      41.061
2015    8        4     9  46    2.9601   549.9    3.288      41.031
2015    8        4     9  52    2.9587   549.8    3.288      41.001
2015    8        4     9  59    2.9573   549.6    3.288      40.972
2015    8        4    10   6    2.9560   549.5    3.288      40.943
2015    8        4    10  13    2.9546   549.3    3.289      40.914
2015    8        4    10  20    2.9533   549.2    3.289      40.884
2015    8        4    10  26    2.9519   549.0    3.288      40.855
2015    8        4    10  33    2.9505   548.9    3.288      40.824
2015    8        4    10  40    2.9491   548.7    3.288      40.794
2015    8        4    10  47    2.9477   548.6    3.288      40.763
2015    8        4    10  53    2.9463   548.4    3.288      40.731
2015    8        4    11   0    2.9450   548.3    3.287      40.699
2015    8        4    11   7    2.9436   548.1    3.287      40.666
2015    8        4    11  14    2.9422   548.0    3.286      40.633
2015    8        4    11  21    2.9408   547.8    3.286      40.600
2015    8        4    11  27    2.9394   547.7    3.285      40.566
2015    8        4    11  34    2.9380   547.5    3.285      40.532
2015    8        4    11  41    2.9366   547.4    3.284      40.498
2015    8        4    11  48    2.9352   547.2    3.284      40.465
2015    8        4    11  55    2.9338   547.1    3.283      40.431
2015    8        4    12   1    2.9324   546.9    3.283      40.397
2015    8        4    12   8    2.9310   546.8    3.282      40.362
2015    8        4    12  15    2.9296   546.6    3.282      40.328
2015    8        4    12  22    2.9282   546.5    3.281      40.294
2015    8        4    12  29    2.9269   546.3    3.281      40.261
2015    8        4    12  35    2.9255   546.2    3.280      40.227
2015    8        4    12  42    2.9241   546.0    3.280      40.193
2015    8        4    12  49    2.9227   545.8    3.280      40.160
2015    8        4    12  56    2.9213   545.7    3.279      40.126
2015    8        4    13   3    2.9199   545.5    3.279      40.093
2015    8        4    13   9    2.9185   545.4    3.278      40.060
2015    8        4    13  16    2.9170   545.2    3.278      40.026
2015    8        4    13  23    2.9156   545.1    3.278      39.993
2015    8        4    13  30    2.9141   544.9    3.278      39.960
2015    8        4    13  36    2.9127   544.8    3.277      39.927
2015    8        4    13  43    2.9112   544.6    3.277      39.894
2015    8        4    13  50    2.9097   544.5    3.277      39.861
2015    8        4    13  57    2.9082   544.3    3.276      39.827
2015    8        4    14   4    2.9067   544.1    3.276      39.794
2015    8        4    14  10    2.9052   544.0    3.276      39.761
2015    8        4    14  17    2.9036   543.8    3.276      39.727
2015    8        4    14  24    2.9021   543.7    3.275      39.693
2015    8        4    14  31    2.9005   543.5    3.275      39.659
2015    8        4    14  38    2.8990   543.3    3.275      39.625
2015    8        4    14  44    2.8974   543.2    3.275      39.591
2015    8        4    14  51    2.8958   543.0    3.275      39.557
2015    8        4    14  58    2.8943   542.8    3.274      39.523
2015    8        4    15   5    2.8927   542.6    3.274      39.489
2015    8        4    15  12    2.8912   542.5    3.274      39.455
2015    8        4    15  18    2.8897   542.3    3.274      39.421
2015    8        4    15  25    2.8881   542.1    3.274      39.388
2015    8        4    15  32    2.8866   541.9    3.274      39.354
2015    8        4    15  39    2.8851   541.7    3.274      39.322
2015    8        4    15  45    2.8837   541.5    3.274      39.290
2015    8        4    15  52    2.8822   541.4    3.274      39.258
2015    8        4    15  59    2.8808   541.2    3.275      39.227
2015    8        4    16   6    2.8794   541.0    3.275      39.197
2015    8        4    16  13    2.8781   540.8    3.276      39.168
2015    8        4    16  19    2.8768   540.6    3.276      39.139
2015    8        4    16  26    2.8755   540.5    3.277      39.112
2015    8        4    16  33    2.8743   540.3    3.278      39.085
2015    8        4    16  40    2.8731   540.1    3.279      39.059
2015    8        4    16  47    2.8719   539.9    3.280      39.035
2015    8        4    16  53    2.8708   539.7    3.282      39.011
2015    8        4    17   0    2.8697   539.6    3.283      38.988
2015    8        4    17   7    2.8686   539.4    3.284      38.967
2015    8        4    17  14    2.8675   539.2    3.286      38.947
2015    8        4    17  21    2.8664   539.0    3.287      38.928
2015    8        4    17  27    2.8653   538.9    3.289      38.909
2015    8        4    17  34    2.8643   538.7    3.291      38.891
2015    8        4    17  41    2.8631   538.6    3.292      38.873
2015    8        4    17  48    2.8620   538.4    3.294      38.855
2015    8        4    17  55    2.8609   538.2    3.295      38.837
2015    8        4    18   1    2.8597   538.1    3.297      38.819
2015    8        4    18   8    2.8585   537.9    3.298      38.801
2015    8        4    18  15    2.8573   537.7    3.299      38.782
2015    8        4    18  22    2.8561   537.6    3.301      38.762
2015    8        4    18  28    2.8548   537.4    3.302      38.742
2015    8        4    18  35    2.8535   537.3    3.303      38.722
2015    8        4    18  42    2.8523   537.1    3.304      38.701
2015    8        4    18  49    2.8510   536.9    3.305      38.679
2015    8        4    18  56    2.8496   536.8    3.306      38.657
2015    8        4    19   2    2.8483   536.6    3.307      38.634
2015    8        4    19   9    2.8470   536.4    3.308      38.611
2015    8        4    19  16    2.8456   536.2    3.309      38.587
2015    8        4    19  23    2.8443   536.1    3.309      38.563
2015    8        4    19  30    2.8429   535.9    3.310      38.538
2015    8        4    19  36    2.8415   535.7    3.311      38.513
2015    8        4    19  43    2.8402   535.5    3.311      38.487
2015    8        4    19  50    2.8388   535.4    3.312      38.461
2015    8        4    19  57    2.8375   535.2    3.312      38.434
2015    8        4    20   4    2.8361   535.0    3.313      38.407
2015    8        4    20  10    2.8347   534.8    3.313      38.380
2015    8        4    20  17    2.8334   534.6    3.314      38.353
2015    8        4    20  24    2.8321   534.5    3.314      38.326
2015    8        4    20  31    2.8308   534.3    3.314      38.298
2015    8        4    20  37    2.8295   534.1    3.315      38.270
2015    8        4    20  44    2.8281   533.9    3.315      38.242
2015    8        4    20  51    2.8269   533.7    3.316      38.214
2015    8        4    20  58    2.8256   533.5    3.316      38.186
2015    8        4    21   5    2.8243   533.4    3.316      38.158
2015    8        4    21  11    2.8230   533.2    3.317      38.130
2015    8        4    21  18    2.8218   533.0    3.317      38.102
2015    8        4    21  25    2.8205   532.8    3.317      38.074
2015    8        4    21  32    2.8192   532.6    3.317      38.046
2015    8        4    21  39    2.8180   532.5    3.317      38.018
2015    8        4    21  45    2.8167   532.3    3.318      37.990
2015    8        4    21  52    2.8154   532.1    3.318      37.961
2015    8        4    21  59    2.8141   531.9    3.318      37.932
2015    8        4    22   6    2.8129   531.7    3.318      37.903
2015    8        4    22  13    2.8116   531.5    3.317      37.873
2015    8        4    22  19    2.8103   531.3    3.317      37.843
2015    8        4    22  26    2.8090   531.1    3.317      37.812
2015    8        4    22  33    2.8078   531.0    3.317      37.781
2015    8        4    22  40    2.8065   530.8    3.317      37.749
2015    8        4    22  47    2.8053   530.6    3.317      37.717
2015    8        4    22  53    2.8041   530.4    3.317      37.686
2015    8        4    23   0    2.8028   530.2    3.317      37.654
2015    8        4    23   7    2.8016   530.0    3.316      37.622
2015    8        4    23  14    2.8004   529.8    3.316      37.590
2015    8        4    23  20    2.7992   529.6    3.316      37.558
2015    8        4    23  27    2.7981   529.4    3.316      37.527
2015    8        4    23  34    2.7969   529.2    3.317      37.496
2015    8        4    23  41    2.7958   529.0    3.317      37.465
2015    8        4    23  48    2.7947   528.8    3.317      37.435
2015    8        4    23  54    2.7936   528.6    3.317      37.405
2015    8        5     0   1    2.7925   528.4    3.318      37.375
2015    8        5     0   8    2.7914   528.2    3.318      37.346
2015    8        5     0  15    2.7904   528.0    3.319      37.318
2015    8        5     0  22    2.7893   527.9    3.320      37.290
2015    8        5     0  28    2.7883   527.7    3.320      37.262
2015    8        5     0  35    2.7872   527.5    3.321      37.234
2015    8        5     0  42    2.7862   527.3    3.322      37.207
2015    8        5     0  49    2.7852   527.1    3.323      37.180
2015    8        5     0  56    2.7841   526.9    3.324      37.154
2015    8        5     1   2    2.7831   526.7    3.325      37.127
2015    8        5     1   9    2.7820   526.5    3.326      37.100
2015    8        5     1  16    2.7809   526.3    3.327      37.074
2015    8        5     1  23    2.7799   526.1    3.328      37.047
2015    8        5     1  30    2.7788   525.9    3.329      37.021
2015    8        5     1  36    2.7777   525.7    3.330      36.994
2015    8        5     1  43    2.7765   525.5    3.332      36.968
2015    8        5     1  50    2.7754   525.3    3.333      36.941
2015    8        5     1  57    2.7743   525.1    3.334      36.915
2015    8        5     2   3    2.7732   524.9    3.335      36.888
2015    8        5     2  10    2.7720   524.7    3.337      36.862
2015    8        5     2  17    2.7709   524.5    3.338      36.836
2015    8        5     2  24    2.7698   524.3    3.339      36.809
2015    8        5     2  31    2.7687   524.1    3.341      36.783
2015    8        5     2  37    2.7676   523.9    3.342      36.757
2015    8        5     2  44    2.7665   523.6    3.344      36.731
2015    8        5     2  51    2.7654   523.4    3.345      36.705
2015    8        5     2  58    2.7644   523.2    3.347      36.680
2015    8        5     3   5    2.7634   523.0    3.349      36.655
2015    8        5     3  11    2.7624   522.8    3.350      36.631
2015    8        5     3  18    2.7614   522.6    3.352      36.607
2015    8        5     3  25    2.7604   522.3    3.354      36.583
2015    8        5     3  32    2.7595   522.1    3.356      36.560
2015    8        5     3  38    2.7586   521.9    3.358      36.537
2015    8        5     3  45    2.7577   521.7    3.360      36.515
2015    8        5     3  52    2.7569   521.5    3.362      36.494
2015    8        5     3  59    2.7560   521.3    3.365      36.472
2015    8        5     4   6    2.7552   521.0    3.367      36.452
2015    8        5     4  12    2.7544   520.8    3.369      36.432
2015    8        5     4  19    2.7537   520.6    3.372      36.412
2015    8        5     4  26    2.7529   520.4    3.374      36.392
2015    8        5     4  33    2.7521   520.2    3.376      36.374
2015    8        5     4  40    2.7514   520.0    3.379      36.355
2015    8        5     4  46    2.7506   519.8    3.381      36.338
2015    8        5     4  53    2.7499   519.6    3.383      36.320
2015    8        5     5   0    2.7491   519.3    3.386      36.303
2015    8        5     5   7    2.7484   519.1    3.388      36.286
2015    8        5     5  14    2.7476   518.9    3.390      36.269
2015    8        5     5  20    2.7469   518.7    3.393      36.251
2015    8        5     5  27    2.7461   518.5    3.395      36.233
2015    8        5     5  34    2.7454   518.3    3.397      36.215
2015    8        5     5  41    2.7446   518.1    3.399      36.196
2015    8        5     5  48    2.7439   517.9    3.401      36.178
2015    8        5     5  54    2.7431   517.7    3.403      36.158
2015    8        5     6   1    2.7423   517.5    3.405      36.139
2015    8        5     6   8    2.7415   517.2    3.407      36.119
2015    8        5     6  15    2.7407   517.0    3.409      36.098
2015    8        5     6  21    2.7399   516.8    3.411      36.078
2015    8        5     6  28    2.7391   516.6    3.412      36.056
2015    8        5     6  35    2.7383   516.4    3.414      36.035
2015    8        5     6  42    2.7375   516.2    3.416      36.012
2015    8        5     6  49    2.7366   516.0    3.417      35.990
2015    8        5     6  55    2.7358   515.8    3.419      35.967
2015    8        5     7   2    2.7350   515.6    3.420      35.943
2015    8        5     7   9    2.7341   515.4    3.422      35.919
2015    8        5     7  16    2.7333   515.2    3.423      35.894
2015    8        5     7  23    2.7324   515.0    3.425      35.869
2015    8        5     7  29    2.7315   514.8    3.426      35.844
2015    8        5     7  36    2.7307   514.5    3.427      35.818
2015    8        5     7  43    2.7298   514.3    3.428      35.791
2015    8        5     7  50    2.7290   514.1    3.429      35.764
2015    8        5     7  57    2.7281   513.9    3.431      35.737
2015    8        5     8   3    2.7272   513.7    3.432      35.709
2015    8        5     8  10    2.7263   513.5    3.433      35.681
2015    8        5     8  17    2.7254   513.3    3.434      35.653
2015    8        5     8  24    2.7245   513.1    3.435      35.623
2015    8        5     8  31    2.7237   512.9    3.436      35.594
2015    8        5     8  37    2.7228   512.6    3.437      35.565
2015    8        5     8  44    2.7219   512.4    3.438      35.535
2015    8        5     8  51    2.7210   512.2    3.439      35.504
2015    8        5     8  58    2.7201   512.0    3.440      35.474
2015    8        5     9   4    2.7193   511.8    3.441      35.444
2015    8        5     9  11    2.7184   511.5    3.442      35.413
2015    8        5     9  18    2.7175   511.3    3.443      35.383
2015    8        5     9  25    2.7167   511.1    3.444      35.352
2015    8        5     9  32    2.7158   510.9    3.445      35.322
2015    8        5     9  38    2.7150   510.7    3.447      35.291
2015    8        5     9  45    2.7142   510.4    3.448      35.261
2015    8        5     9  52    2.7134   510.2    3.449      35.231
2015    8        5     9  59    2.7126   510.0    3.451      35.202
2015    8        5    10   6    2.7118   509.8    3.452      35.172
2015    8        5    10  12    2.7110   509.5    3.454      35.144
2015    8        5    10  19    2.7103   509.3    3.455      35.115
2015    8        5    10  26    2.7096   509.1    3.457      35.087
2015    8        5    10  33    2.7088   508.9    3.459      35.059
2015    8        5    10  40    2.7082   508.6    3.461      35.032
2015    8        5    10  46    2.7075   508.4    3.463      35.005
2015    8        5    10  53    2.7068   508.2    3.465      34.979
2015    8        5    11   0    2.7062   507.9    3.467      34.953
2015    8        5    11   7    2.7056   507.7    3.469      34.928
2015    8        5    11  13    2.7049   507.5    3.472      34.903
2015    8        5    11  20    2.7043   507.2    3.474      34.879
2015    8        5    11  27    2.7037   507.0    3.476      34.855
2015    8        5    11  34    2.7032   506.8    3.479      34.831
2015    8        5    11  41    2.7026   506.6    3.481      34.808
2015    8        5    11  47    2.7021   506.3    3.484      34.785
2015    8        5    11  54    2.7015   506.1    3.487      34.763
2015    8        5    12   1    2.7010   505.9    3.489      34.741
2015    8        5    12   8    2.7005   505.6    3.492      34.720
2015    8        5    12  15    2.7000   505.4    3.495      34.699
2015    8        5    12  21    2.6995   505.2    3.498      34.678
2015    8        5    12  28    2.6990   504.9    3.501      34.657
2015    8        5    12  35    2.6985   504.7    3.504      34.636
2015    8        5    12  42    2.6980   504.5    3.507      34.616
2015    8        5    12  49    2.6975   504.3    3.510      34.596
2015    8        5    12  55    2.6970   504.0    3.513      34.577
2015    8        5    13   2    2.6966   503.8    3.516      34.557
2015    8        5    13   9    2.6961   503.6    3.519      34.537
2015    8        5    13  16    2.6956   503.3    3.522      34.517
2015    8        5    13  22    2.6951   503.1    3.525      34.498
2015    8        5    13  29    2.6945   502.9    3.528      34.478
2015    8        5    13  36    2.6940   502.7    3.531      34.459
2015    8        5    13  43    2.6934   502.5    3.534      34.439
2015    8        5    13  50    2.6929   502.2    3.537      34.419
2015    8        5    13  56    2.6923   502.0    3.540      34.398
2015    8        5    14   3    2.6917   501.8    3.543      34.378
2015    8        5    14  10    2.6911   501.6    3.546      34.357
2015    8        5    14  17    2.6905   501.3    3.549      34.336
2015    8        5    14  24    2.6899   501.1    3.551      34.315
2015    8        5    14  30    2.6892   500.9    3.554      34.293
2015    8        5    14  37    2.6886   500.7    3.557      34.271
2015    8        5    14  44    2.6879   500.4    3.559      34.249
2015    8        5    14  51    2.6872   500.2    3.562      34.226
2015    8        5    14  58    2.6866   500.0    3.564      34.203
2015    8        5    15   4    2.6859   499.8    3.567      34.180
2015    8        5    15  11    2.6852   499.6    3.569      34.156
2015    8        5    15  18    2.6845   499.3    3.572      34.133
2015    8        5    15  25    2.6838   499.1    3.574      34.109
2015    8        5    15  31    2.6831   498.9    3.576      34.084
2015    8        5    15  38    2.6824   498.7    3.578      34.060
2015    8        5    15  45    2.6817   498.4    3.580      34.035
2015    8        5    15  52    2.6810   498.2    3.582      34.011
2015    8        5    15  59    2.6803   498.0    3.584      33.986
2015    8        5    16   5    2.6796   497.8    3.586      33.960
2015    8        5    16  12    2.6788   497.5    3.588      33.935
2015    8        5    16  19    2.6781   497.3    3.590      33.909
2015    8        5    16  26    2.6774   497.1    3.592      33.883
2015    8        5    16  33    2.6766   496.9    3.594      33.857
2015    8        5    16  39    2.6759   496.7    3.596      33.831
2015    8        5    16  46    2.6752   496.4    3.598      33.804
2015    8        5    16  53    2.6744   496.2    3.599      33.778
2015    8        5    17   0    2.6737   496.0    3.601      33.751
2015    8        5    17   7    2.6729   495.8    3.603      33.724
2015    8        5    17  13    2.6722   495.5    3.605      33.697
2015    8        5    17  20    2.6714   495.3    3.606      33.670
2015    8        5    17  27    2.6707   495.1    3.608      33.644
2015    8        5    17  34    2.6699   494.9    3.610      33.616
2015    8        5    17  40    2.6692   494.6    3.612      33.590
2015    8        5    17  47    2.6684   494.4    3.613      33.562
2015    8        5    17  54    2.6677   494.2    3.615      33.535
2015    8        5    18   1    2.6670   493.9    3.617      33.509
2015    8        5    18   8    2.6662   493.7    3.619      33.482
2015    8        5    18  14    2.6655   493.5    3.621      33.455
2015    8        5    18  21    2.6648   493.3    3.622      33.429
2015    8        5    18  28    2.6641   493.0    3.624      33.402
2015    8        5    18  35    2.6633   492.8    3.626      33.376
2015    8        5    18  42    2.6626   492.6    3.628      33.350
2015    8        5    18  48    2.6619   492.3    3.630      33.324
2015    8        5    18  55    2.6612   492.1    3.632      33.298
2015    8        5    19   2    2.6605   491.9    3.634      33.273
2015    8        5    19   9    2.6598   491.6    3.637      33.247
2015    8        5    19  16    2.6591   491.4    3.639      33.222
2015    8        5    19  22    2.6584   491.2    3.641      33.197
2015    8        5    19  29    2.6578   490.9    3.643      33.172
2015    8        5    19  36    2.6571   490.7    3.646      33.148
2015    8        5    19  43    2.6564   490.5    3.648      33.123
2015    8        5    19  49    2.6557   490.2    3.650      33.099
2015    8        5    19  56    2.6550   490.0    3.653      33.074
2015    8        5    20   3    2.6543   489.8    3.655      33.050
2015    8        5    20  10    2.6537   489.5    3.658      33.026
2015    8        5    20  17    2.6530   489.3    3.660      33.002
2015    8        5    20  23    2.6523   489.1    3.663      32.978
2015    8        5    20  30    2.6516   488.8    3.665      32.954
2015    8        5    20  37    2.6510   488.6    3.668      32.930
2015    8        5    20  44    2.6503   488.4    3.671      32.907
2015    8        5    20  51    2.6496   488.1    3.673      32.883
2015    8        5    20  57    2.6489   487.9    3.676      32.859
2015    8        5    21   4    2.6482   487.7    3.679      32.835
2015    8        5    21  11    2.6475   487.4    3.681      32.812
2015    8        5    21  18    2.6467   487.2    3.684      32.788
2015    8        5    21  25    2.6460   487.0    3.687      32.764
2015    8        5    21  31    2.6453   486.7    3.689      32.740
2015    8        5    21  38    2.6445   486.5    3.692      32.716
2015    8        5    21  45    2.6438   486.3    3.695      32.692
2015    8        5    21  52    2.6430   486.0    3.697      32.668
2015    8        5    21  58    2.6422   485.8    3.700      32.644
2015    8        5    22   5    2.6415   485.6    3.702      32.619
2015    8        5    22  12    2.6407   485.3    3.705      32.595
2015    8        5    22  19    2.6399   485.1    3.708      32.570
2015    8        5    22  26    2.6391   484.9    3.710      32.546
2015    8        5    22  32    2.6384   484.6    3.713      32.521
2015    8        5    22  39    2.6376   484.4    3.715      32.496
2015    8        5    22  46    2.6368   484.1    3.718      32.471
2015    8        5    22  53    2.6360   483.9    3.720      32.447
2015    8        5    23   0    2.6352   483.7    3.723      32.422
2015    8        5    23   6    2.6344   483.4    3.725      32.397
2015    8        5    23  13    2.6336   483.2    3.727      32.372
2015    8        5    23  20    2.6328   482.9    3.730      32.347
2015    8        5    23  27    2.6320   482.7    3.732      32.322
2015    8        5    23  34    2.6312   482.5    3.734      32.297
2015    8        5    23  40    2.6304   482.2    3.737      32.272
2015    8        5    23  47    2.6296   482.0    3.739      32.247
2015    8        5    23  54    2.6288   481.8    3.741      32.221
2015    8        6     0   1    2.6280   481.5    3.744      32.196
2015    8        6     0   8    2.6272   481.3    3.746      32.171
2015    8        6     0  14    2.6264   481.0    3.748      32.146
2015    8        6     0  21    2.6256   480.8    3.750      32.120
2015    8        6     0  28    2.6248   480.5    3.752      32.095
2015    8        6     0  35    2.6240   480.3    3.755      32.070
2015    8        6     0  41    2.6231   480.1    3.757      32.045
2015    8        6     0  48    2.6223   479.8    3.759      32.019
2015    8        6     0  55    2.6215   479.6    3.761      31.994
2015    8        6     1   2    2.6207   479.3    3.763      31.969
2015    8        6     1   9    2.6199   479.1    3.766      31.944
2015    8        6     1  15    2.6191   478.9    3.768      31.919
2015    8        6     1  22    2.6183   478.6    3.770      31.894
2015    8        6     1  29    2.6175   478.4    3.773      31.869
2015    8        6     1  36    2.6168   478.1    3.775      31.845
2015    8        6     1  43    2.6160   477.9    3.777      31.820
2015    8        6     1  49    2.6152   477.6    3.780      31.795
2015    8        6     1  56    2.6144   477.4    3.782      31.770
2015    8        6     2   3    2.6136   477.2    3.784      31.745
2015    8        6     2  10    2.6128   476.9    3.787      31.721
2015    8        6     2  16    2.6120   476.7    3.789      31.696
2015    8        6     2  23    2.6112   476.4    3.791      31.671
2015    8        6     2  30    2.6105   476.2    3.794      31.647
2015    8        6     2  37    2.6097   475.9    3.796      31.622
2015    8        6     2  44    2.6089   475.7    3.799      31.597
2015    8        6     2  50    2.6081   475.4    3.801      31.572
2015    8        6     2  57    2.6073   475.2    3.804      31.547
2015    8        6     3   4    2.6065   475.0    3.806      31.522
2015    8        6     3  11    2.6056   474.7    3.809      31.497
2015    8        6     3  18    2.6048   474.5    3.811      31.471
2015    8        6     3  24    2.6040   474.2    3.814      31.446
2015    8        6     3  31    2.6032   474.0    3.816      31.421
2015    8        6     3  38    2.6024   473.7    3.818      31.395
2015    8        6     3  45    2.6015   473.5    3.821      31.370
2015    8        6     3  52    2.6007   473.2    3.823      31.344
2015    8        6     3  58    2.5998   473.0    3.826      31.318
2015    8        6     4   5    2.5990   472.7    3.828      31.293
2015    8        6     4  12    2.5981   472.5    3.831      31.267
2015    8        6     4  19    2.5973   472.2    3.833      31.241
2015    8        6     4  25    2.5964   472.0    3.836      31.215
2015    8        6     4  32    2.5956   471.7    3.838      31.189
2015    8        6     4  39    2.5947   471.5    3.841      31.164
2015    8        6     4  46    2.5939   471.2    3.843      31.138
2015    8        6     4  53    2.5930   471.0    3.846      31.112
2015    8        6     4  59    2.5922   470.7    3.848      31.087
2015    8        6     5   6    2.5914   470.5    3.851      31.061
2015    8        6     5  13    2.5905   470.2    3.853      31.035
2015    8        6     5  20    2.5897   470.0    3.856      31.010
2015    8        6     5  27    2.5889   469.7    3.859      30.985
2015    8        6     5  33    2.5881   469.5    3.861      30.959
2015    8        6     5  40    2.5873   469.2    3.864      30.934
2015    8        6     5  47    2.5865   469.0    3.867      30.909
2015    8        6     5  54    2.5857   468.7    3.869      30.884
2015    8        6     6   1    2.5849   468.5    3.872      30.860
2015    8        6     6   7    2.5841   468.2    3.875      30.835
2015    8        6     6  14    2.5833   468.0    3.878      30.810
2015    8        6     6  21    2.5825   467.7    3.881      30.786
2015    8        6     6  28    2.5818   467.4    3.883      30.761
2015    8        6     6  34    2.5810   467.2    3.886      30.737
2015    8        6     6  41    2.5803   466.9    3.889      30.712
2015    8        6     6  48    2.5795   466.7    3.892      30.688
2015    8        6     6  55    2.5788   466.4    3.895      30.664
2015    8        6     7   2    2.5781   466.2    3.898      30.640
2015    8        6     7   8    2.5773   465.9    3.901      30.616
2015    8        6     7  15    2.5766   465.7    3.904      30.592
2015    8        6     7  22    2.5759   465.4    3.907      30.567
2015    8        6     7  29    2.5752   465.1    3.910      30.544
2015    8        6     7  36    2.5745   464.9    3.913      30.519
2015    8        6     7  42    2.5737   464.6    3.916      30.495
2015    8        6     7  49    2.5730   464.4    3.919      30.471
2015    8        6     7  56    2.5724   464.1    3.922      30.447
2015    8        6     8   3    2.5716   463.9    3.925      30.423
2015    8        6     8  10    2.5710   463.6    3.928      30.399
2015    8        6     8  16    2.5703   463.3    3.931      30.375
2015    8        6     8  23    2.5696   463.1    3.934      30.351
2015    8        6     8  30    2.5689   462.8    3.937      30.327
2015    8        6     8  37    2.5682   462.6    3.940      30.303
2015    8        6     8  44    2.5675   462.3    3.943      30.279
2015    8        6     8  50    2.5669   462.1    3.946      30.254
2015    8        6     8  57    2.5662   461.8    3.949      30.230
2015    8        6     9   4    2.5655   461.5    3.952      30.206
2015    8        6     9  11    2.5648   461.3    3.955      30.181
2015    8        6     9  17    2.5642   461.0    3.958      30.157
2015    8        6     9  24    2.5635   460.8    3.962      30.133
2015    8        6     9  31    2.5629   460.5    3.965      30.108
2015    8        6     9  38    2.5622   460.2    3.968      30.084
2015    8        6     9  45    2.5615   460.0    3.971      30.059
2015    8        6     9  51    2.5609   459.7    3.974      30.034
2015    8        6     9  58    2.5602   459.5    3.977      30.010
2015    8        6    10   5    2.5596   459.2    3.981      29.985
2015    8        6    10  12    2.5589   458.9    3.984      29.960
2015    8        6    10  19    2.5583   458.7    3.987      29.935
2015    8        6    10  25    2.5577   458.4    3.990      29.910
2015    8        6    10  32    2.5570   458.1    3.994      29.885
2015    8        6    10  39    2.5564   457.9    3.997      29.860
2015    8        6    10  46    2.5557   457.6    4.000      29.834
2015    8        6    10  52    2.5551   457.4    4.003      29.809
2015    8        6    10  59    2.5545   457.1    4.007      29.784
2015    8        6    11   6    2.5539   456.8    4.010      29.759
2015    8        6    11  13    2.5532   456.6    4.013      29.733
2015    8        6    11  20    2.5526   456.3    4.017      29.708
2015    8        6    11  26    2.5520   456.0    4.020      29.682
2015    8        6    11  33    2.5514   455.8    4.023      29.657
2015    8        6    11  40    2.5508   455.5    4.026      29.631
2015    8        6    11  47    2.5502   455.3    4.030      29.605
2015    8        6    11  54    2.5496   455.0    4.033      29.580
2015    8        6    12   0    2.5490   454.7    4.037      29.554
2015    8        6    12   7    2.5485   454.5    4.040      29.529
2015    8        6    12  14    2.5479   454.2    4.043      29.503
2015    8        6    12  21    2.5474   453.9    4.047      29.478
2015    8        6    12  28    2.5469   453.6    4.050      29.453
2015    8        6    12  34    2.5463   453.4    4.054      29.427
2015    8        6    12  41    2.5458   453.1    4.057      29.402
2015    8        6    12  48    2.5454   452.8    4.061      29.377
2015    8        6    12  55    2.5449   452.6    4.065      29.352
2015    8        6    13   1    2.5444   452.3    4.068      29.327
2015    8        6    13   8    2.5440   452.0    4.072      29.303
2015    8        6    13  15    2.5435   451.8    4.076      29.278
2015    8        6    13  22    2.5431   451.5    4.079      29.253
2015    8        6    13  29    2.5427   451.2    4.083      29.229
2015    8        6    13  35    2.5423   451.0    4.087      29.205
2015    8        6    13  42    2.5420   450.7    4.091      29.181
2015    8        6    13  49    2.5416   450.4    4.095      29.157
2015    8        6    13  56    2.5413   450.2    4.099      29.133
2015    8        6    14   3    2.5410   449.9    4.103      29.110
2015    8        6    14   9    2.5407   449.6    4.107      29.086
2015    8        6    14  16    2.5404   449.3    4.111      29.063
2015    8        6    14  23    2.5401   449.1    4.116      29.039
2015    8        6    14  30    2.5399   448.8    4.120      29.016
2015    8        6    14  37    2.5396   448.5    4.124      28.993
2015    8        6    14  43    2.5394   448.3    4.128      28.970
2015    8        6    14  50    2.5392   448.0    4.133      28.947
2015    8        6    14  57    2.5390   447.7    4.137      28.924
2015    8        6    15   4    2.5388   447.5    4.142      28.901
2015    8        6    15  10    2.5386   447.2    4.146      28.879
2015    8        6    15  17    2.5385   446.9    4.151      28.856
2015    8        6    15  24    2.5383   446.6    4.155      28.834
2015    8        6    15  31    2.5382   446.4    4.160      28.811
2015    8        6    15  38    2.5381   446.1    4.164      28.789
2015    8        6    15  44    2.5380   445.8    4.169      28.766
2015    8        6    15  51    2.5379   445.6    4.173      28.744
2015    8        6    15  58    2.5378   445.3    4.178      28.721
2015    8        6    16   5    2.5377   445.0    4.183      28.699
2015    8        6    16  12    2.5377   444.7    4.188      28.676
2015    8        6    16  18    2.5377   444.5    4.192      28.654
2015    8        6    16  25    2.5376   444.2    4.197      28.632
2015    8        6    16  32    2.5376   443.9    4.202      28.609
2015    8        6    16  39    2.5376   443.7    4.207      28.587
2015    8        6    16  45    2.5377   443.4    4.212      28.565
2015    8        6    16  52    2.5377   443.1    4.217      28.542
2015    8        6    16  59    2.5377   442.8    4.222      28.520
2015    8        6    17   6    2.5378   442.6    4.227      28.498
2015    8        6    17  13    2.5379   442.3    4.232      28.476
2015    8        6    17  19    2.5380   442.0    4.237      28.453
2015    8        6    17  26    2.5381   441.8    4.242      28.431
2015    8        6    17  33    2.5383   441.5    4.247      28.409
2015    8        6    17  40    2.5384   441.2    4.252      28.387
2015    8        6    17  47    2.5386   440.9    4.257      28.364
2015    8        6    17  53    2.5388   440.7    4.263      28.343
2015    8        6    18   0    2.5390   440.4    4.268      28.320
2015    8        6    18   7    2.5392   440.1    4.273      28.299
2015    8        6    18  14    2.5395   439.8    4.278      28.277
2015    8        6    18  21    2.5397   439.6    4.284      28.255
2015    8        6    18  27    2.5400   439.3    4.289      28.233
2015    8        6    18  34    2.5403   439.0    4.295      28.211
2015    8        6    18  41    2.5407   438.7    4.300      28.190
2015    8        6    18  48    2.5410   438.5    4.306      28.168
2015    8        6    18  54    2.5414   438.2    4.312      28.147
2015    8        6    19   1    2.5418   437.9    4.317      28.125
2015    8        6    19   8    2.5423   437.6    4.323      28.104
2015    8        6    19  15    2.5427   437.4    4.329      28.083
2015    8        6    19  22    2.5432   437.1    4.335      28.062
2015    8        6    19  28    2.5437   436.8    4.340      28.041
2015    8        6    19  35    2.5443   436.6    4.346      28.020
2015    8        6    19  42    2.5448   436.3    4.352      28.000
2015    8        6    19  49    2.5454   436.0    4.358      27.979
2015    8        6    19  56    2.5460   435.7    4.364      27.959
2015    8        6    20   2    2.5467   435.5    4.371      27.938
2015    8        6    20   9    2.5473   435.2    4.377      27.918
2015    8        6    20  16    2.5480   434.9    4.383      27.898
2015    8        6    20  23    2.5488   434.6    4.389      27.878
2015    8        6    20  30    2.5495   434.4    4.396      27.858
2015    8        6    20  36    2.5503   434.1    4.402      27.839
2015    8        6    20  43    2.5511   433.8    4.409      27.819
2015    8        6    20  50    2.5520   433.6    4.415      27.800
2015    8        6    20  57    2.5529   433.3    4.422      27.780
2015    8        6    21   3    2.5538   433.0    4.428      27.762
2015    8        6    21  10    2.5547   432.7    4.435      27.742
2015    8        6    21  17    2.5557   432.5    4.442      27.724
2015    8        6    21  24    2.5567   432.2    4.449      27.705
2015    8        6    21  31    2.5577   431.9    4.456      27.687
2015    8        6    21  37    2.5588   431.7    4.463      27.668
2015    8        6    21  44    2.5599   431.4    4.470      27.650
2015    8        6    21  51    2.5610   431.1    4.477      27.632
2015    8        6    21  58    2.5622   430.9    4.484      27.614
2015    8        6    22   5    2.5634   430.6    4.491      27.596
2015    8        6    22  11    2.5646   430.3    4.498      27.579
2015    8        6    22  18    2.5659   430.0    4.506      27.562
2015    8        6    22  25    2.5672   429.8    4.513      27.544
2015    8        6    22  32    2.5686   429.5    4.520      27.527
2015    8        6    22  38    2.5699   429.2    4.528      27.510
2015    8        6    22  45    2.5713   429.0    4.535      27.494
2015    8        6    22  52    2.5728   428.7    4.543      27.477
2015    8        6    22  59    2.5743   428.4    4.551      27.460
2015    8        6    23   6    2.5758   428.2    4.558      27.444
2015    8        6    23  12    2.5774   427.9    4.566      27.428
2015    8        6    23  19    2.5789   427.6    4.574      27.412
2015    8        6    23  26    2.5806   427.4    4.582      27.396
2015    8        6    23  33    2.5822   427.1    4.590      27.380
2015    8        6    23  40    2.5840   426.8    4.598      27.364
2015    8        6    23  46    2.5857   426.6    4.606      27.349
2015    8        6    23  53    2.5875   426.3    4.614      27.333
2015    8        7     0   0    2.5893   426.1    4.622      27.318
2015    8        7     0   7    2.5911   425.8    4.630      27.303
2015    8        7     0  14    2.5930   425.5    4.638      27.288
2015    8        7     0  20    2.5949   425.3    4.646      27.272
2015    8        7     0  27    2.5969   425.0    4.654      27.257
2015    8        7     0  34    2.5989   424.8    4.663      27.242
2015    8        7     0  41    2.6009   424.5    4.671      27.228
2015    8        7     0  47    2.6029   424.2    4.679      27.213
2015    8        7     0  54    2.6050   424.0    4.688      27.198
2015    8        7     1   1    2.6072   423.7    4.696      27.184
2015    8        7     1   8    2.6093   423.5    4.705      27.169
2015    8        7     1  15    2.6115   423.2    4.713      27.154
2015    8        7     1  21    2.6138   422.9    4.722      27.140
2015    8        7     1  28    2.6161   422.7    4.730      27.125
2015    8        7     1  35    2.6184   422.4    4.739      27.111
2015    8        7     1  42    2.6207   422.2    4.747      27.097
2015    8        7     1  49    2.6231   421.9    4.756      27.083
2015    8        7     1  55    2.6256   421.7    4.765      27.069
2015    8        7     2   2    2.6280   421.4    4.774      27.055
2015    8        7     2   9    2.6306   421.1    4.783      27.041
2015    8        7     2  16    2.6331   420.9    4.792      27.027
2015    8        7     2  23    2.6357   420.6    4.801      27.013
2015    8        7     2  29    2.6384   420.4    4.810      26.999
2015    8        7     2  36    2.6411   420.1    4.819      26.986
2015    8        7     2  43    2.6438   419.9    4.829      26.973
2015    8        7     2  50    2.6466   419.6    4.838      26.959
2015    8        7     2  56    2.6494   419.4    4.848      26.947
2015    8        7     3   3    2.6523   419.1    4.858      26.934
2015    8        7     3  10    2.6553   418.9    4.868      26.921
2015    8        7     3  17    2.6583   418.6    4.878      26.909
2015    8        7     3  24    2.6613   418.4    4.888      26.897
2015    8        7     3  30    2.6644   418.1    4.898      26.886
2015    8        7     3  37    2.6675   417.9    4.909      26.874
2015    8        7     3  44    2.6708   417.6    4.920      26.863
2015    8        7     3  51    2.6740   417.4    4.931      26.852
2015    8        7     3  58    2.6774   417.1    4.942      26.842
2015    8        7     4   4    2.6808   416.9    4.953      26.832
2015    8        7     4  11    2.6842   416.6    4.965      26.823
2015    8        7     4  18    2.6877   416.4    4.977      26.814
2015    8        7     4  25    2.6914   416.1    4.989      26.805
2015    8        7     4  31    2.6950   415.9    5.001      26.798
2015    8        7     4  38    2.6988   415.6    5.014      26.790
2015    8        7     4  45    2.7026   415.4    5.026      26.784
2015    8        7     4  52    2.7065   415.1    5.040      26.778
2015    8        7     4  59    2.7105   414.9    5.053      26.773
2015    8        7     5   5    2.7146   414.6    5.067      26.768
2015    8        7     5  12    2.7187   414.4    5.081      26.765
2015    8        7     5  19    2.7230   414.1    5.095      26.762
2015    8        7     5  26    2.7273   413.9    5.110      26.760
2015    8        7     5  33    2.7317   413.7    5.125      26.759
2015    8        7     5  39    2.7362   413.4    5.140      26.758
2015    8        7     5  46    2.7409   413.2    5.155      26.759
2015    8        7     5  53    2.7456   412.9    5.171      26.760
2015    8        7     6   0    2.7504   412.7    5.187      26.762
2015    8        7     6   7    2.7552   412.5    5.203      26.765
2015    8        7     6  13    2.7602   412.3    5.219      26.768
2015    8        7     6  20    2.7653   412.0    5.235      26.773
2015    8        7     6  27    2.7704   411.8    5.252      26.778
2015    8        7     6  34    2.7756   411.6    5.268      26.785
2015    8        7     6  40    2.7809   411.4    5.285      26.793
2015    8        7     6  47    2.7861   411.2    5.301      26.802
2015    8        7     6  54    2.7915   411.0    5.317      26.812
2015    8        7     7   1    2.7969   410.7    5.333      26.824
2015    8        7     7   8    2.8023   410.5    5.349      26.835
2015    8        7     7  14    2.8077   410.3    5.364      26.848
2015    8        7     7  21    2.8132   410.1    5.380      26.860
2015    8        7     7  28    2.8187   409.9    5.395      26.872
2015    8        7     7  35    2.8243   409.7    5.411      26.885
2015    8        7     7  42    2.8298   409.5    5.426      26.897
2015    8        7     7  48    2.8355   409.3    5.441      26.908
2015    8        7     7  55    2.8411   409.1    5.456      26.920
2015    8        7     8   2    2.8468   408.9    5.471      26.931
2015    8        7     8   9    2.8525   408.7    5.486      26.941
2015    8        7     8  15    2.8582   408.6    5.501      26.952
2015    8        7     8  22    2.8640   408.4    5.516      26.962
2015    8        7     8  29    2.8698   408.2    5.531      26.971
2015    8        7     8  36    2.8756   408.0    5.546      26.981
2015    8        7     8  43    2.8816   407.8    5.561      26.990
2015    8        7     8  49    2.8875   407.6    5.575      26.999
2015    8        7     8  56    2.8934   407.4    5.590      27.007
2015    8        7     9   3    2.8994   407.3    5.605      27.015
2015    8        7     9  10    2.9055   407.1    5.619      27.024
2015    8        7     9  17    2.9115   406.9    5.634      27.032
2015    8        7     9  23    2.9176   406.7    5.649      27.040
2015    8        7     9  30    2.9237   406.5    5.664      27.047
2015    8        7     9  37    2.9299   406.4    5.678      27.055
2015    8        7     9  44    2.9361   406.2    5.693      27.063
2015    8        7     9  50    2.9424   406.0    5.708      27.071
2015    8        7     9  57    2.9487   405.9    5.723      27.079
2015    8        7    10   4    2.9550   405.7    5.738      27.088
2015    8        7    10  11    2.9614   405.5    5.753      27.096
2015    8        7    10  18    2.9678   405.4    5.768      27.105
2015    8        7    10  24    2.9743   405.2    5.784      27.114
2015    8        7    10  31    2.9808   405.0    5.799      27.124
2015    8        7    10  38    2.9873   404.9    5.815      27.134
2015    8        7    10  45    2.9939   404.7    5.831      27.144
2015    8        7    10  52    3.0006   404.5    5.847      27.155
2015    8        7    10  58    3.0073   404.4    5.863      27.166
2015    8        7    11   5    3.0140   404.2    5.880      27.178
2015    8        7    11  12    3.0208   404.1    5.897      27.191
2015    8        7    11  19    3.0277   403.9    5.914      27.204
2015    8        7    11  26    3.0346   403.8    5.931      27.218
2015    8        7    11  32    3.0416   403.6    5.949      27.232
2015    8        7    11  39    3.0486   403.5    5.967      27.248
2015    8        7    11  46    3.0558   403.3    5.985      27.264
2015    8        7    11  53    3.0630   403.2    6.004      27.281
2015    8        7    11  59    3.0702   403.0    6.023      27.299
2015    8        7    12   6    3.0776   402.9    6.042      27.318
2015    8        7    12  13    3.0851   402.8    6.062      27.338
2015    8        7    12  20    3.0926   402.6    6.082      27.359
2015    8        7    12  27    3.1003   402.5    6.103      27.381
2015    8        7    12  33    3.1080   402.4    6.124      27.404
2015    8        7    12  40    3.1159   402.2    6.146      27.429
2015    8        7    12  47    3.1238   402.1    6.168      27.455
2015    8        7    12  54    3.1319   402.0    6.190      27.482
2015    8        7    13   1    3.1401   401.9    6.213      27.512
2015    8        7    13   7    3.1483   401.8    6.235      27.543
2015    8        7    13  14    3.1567   401.7    6.258      27.575
2015    8        7    13  21    3.1652   401.6    6.282      27.610
2015    8        7    13  28    3.1738   401.5    6.305      27.647
2015    8        7    13  34    3.1824   401.4    6.328      27.686
2015    8        7    13  41    3.1913   401.3    6.351      27.728
2015    8        7    13  48    3.2001   401.2    6.373      27.771
2015    8        7    13  55    3.2090   401.1    6.396      27.817
2015    8        7    14   2    3.2180   401.0    6.418      27.864
2015    8        7    14   8    3.2272   401.0    6.440      27.913
2015    8        7    14  15    3.2363   400.9    6.462      27.963
2015    8        7    14  22    3.2456   400.8    6.483      28.013
2015    8        7    14  29    3.2549   400.8    6.504      28.063
2015    8        7    14  36    3.2643   400.7    6.525      28.113
2015    8        7    14  42    3.2737   400.6    6.545      28.163
2015    8        7    14  49    3.2832   400.6    6.566      28.211
2015    8        7    14  56    3.2927   400.5    6.585      28.259
2015    8        7    15   3    3.3023   400.4    6.605      28.307
2015    8        7    15  10    3.3118   400.4    6.624      28.353
2015    8        7    15  16    3.3215   400.3    6.643      28.399
2015    8        7    15  23    3.3310   400.3    6.662      28.444
2015    8        7    15  30    3.3407   400.2    6.681      28.489
2015    8        7    15  37    3.3502   400.2    6.699      28.532
2015    8        7    15  43    3.3599   400.2    6.718      28.575
2015    8        7    15  50    3.3695   400.1    6.736      28.618
2015    8        7    15  57    3.3792   400.1    6.754      28.659
2015    8        7    16   4    3.3888   400.0    6.771      28.701
2015    8        7    16  11    3.3985   400.0    6.789      28.741
2015    8        7    16  17    3.4081   400.0    6.807      28.781
2015    8        7    16  24    3.4178   399.9    6.824      28.821
2015    8        7    16  31    3.4274   399.9    6.841      28.860
2015    8        7    16  38    3.4371   399.9    6.858      28.899
2015    8        7    16  45    3.4468   399.8    6.875      28.937
2015    8        7    16  51    3.4565   399.8    6.892      28.976
2015    8        7    16  58    3.4661   399.8    6.909      29.014
2015    8        7    17   5    3.4759   399.8    6.926      29.051
2015    8        7    17  12    3.4855   399.8    6.943      29.089
2015    8        7    17  18    3.4953   399.7    6.960      29.126
2015    8        7    17  25    3.5050   399.7    6.977      29.164
2015    8        7    17  32    3.5148   399.7    6.994      29.201
2015    8        7    17  39    3.5245   399.7    7.011      29.238
2015    8        7    17  46    3.5343   399.7    7.028      29.276
2015    8        7    17  52    3.5441   399.7    7.045      29.313
2015    8        7    17  59    3.5540   399.7    7.062      29.351
2015    8        7    18   6    3.5638   399.7    7.079      29.389
2015    8        7    18  13    3.5737   399.7    7.097      29.428
2015    8        7    18  20    3.5836   399.7    7.114      29.467
2015    8        7    18  26    3.5936   399.7    7.132      29.507
2015    8        7    18  33    3.6035   399.7    7.150      29.547
2015    8        7    18  40    3.6134   399.7    7.168      29.588
2015    8        7    18  47    3.6234   399.7    7.187      29.630
2015    8        7    18  53    3.6334   399.7    7.205      29.672
2015    8        7    19   0    3.6434   399.7    7.224      29.716
2015    8        7    19   7    3.6535   399.7    7.244      29.760
2015    8        7    19  14    3.6636   399.7    7.263      29.806
2015    8        7    19  21    3.6737   399.8    7.283      29.852
2015    8        7    19  27    3.6838   399.8    7.304      29.900
2015    8        7    19  34    3.6940   399.8    7.325      29.948
2015    8        7    19  41    3.7042   399.8    7.346      29.998
2015    8        7    19  48    3.7145   399.9    7.367      30.049
2015    8        7    19  55    3.7248   399.9    7.390      30.101
2015    8        7    20   1    3.7351   399.9    7.413      30.154
2015    8        7    20   8    3.7455   400.0    7.436      30.208
2015    8        7    20  15    3.7559   400.0    7.460      30.264
2015    8        7    20  22    3.7664   400.1    7.485      30.322
2015    8        7    20  29    3.7767   400.1    7.510      30.381
2015    8        7    20  35    3.7871   400.1    7.536      30.441
2015    8        7    20  42    3.7974   400.2    7.564      30.502
2015    8        7    20  49    3.8075   400.2    7.592      30.565
2015    8        7    20  56    3.8176   400.3    7.620      30.632
2015    8        7    21   2    3.8276   400.4    7.648      30.704
2015    8        7    21   9    3.8374   400.4    7.676      30.781
2015    8        7    21  16    3.8470   400.5    7.704      30.862
2015    8        7    21  23    3.8566   400.6    7.732      30.948
2015    8        7    21  30    3.8659   400.7    7.758      31.037
2015    8        7    21  36    3.8751   400.8    7.784      31.128
2015    8        7    21  43    3.8842   400.9    7.810      31.217
2015    8        7    21  50    3.8930   401.0    7.834      31.306
2015    8        7    21  57    3.9017   401.1    7.858      31.392
2015    8        7    22   4    3.9102   401.2    7.880      31.477
2015    8        7    22  10    3.9186   401.3    7.902      31.560
2015    8        7    22  17    3.9268   401.4    7.923      31.641
2015    8        7    22  24    3.9348   401.5    7.944      31.721
2015    8        7    22  31    3.9427   401.6    7.963      31.799
2015    8        7    22  37    3.9505   401.7    7.982      31.874
2015    8        7    22  44    3.9581   401.8    8.000      31.948
2015    8        7    22  51    3.9657   401.9    8.017      32.020
2015    8        7    22  58    3.9731   402.0    8.034      32.090
2015    8        7    23   5    3.9804   402.1    8.050      32.158
2015    8        7    23  11    3.9877   402.2    8.066      32.226
2015    8        7    23  18    3.9949   402.3    8.081      32.291
2015    8        7    23  25    4.0020   402.4    8.096      32.356
2015    8        7    23  32    4.0090   402.5    8.110      32.419
2015    8        7    23  39    4.0160   402.6    8.124      32.481
2015    8        7    23  45    4.0229   402.7    8.138      32.541
2015    8        7    23  52    4.0297   402.8    8.151      32.601
2015    8        7    23  59    4.0365   402.9    8.163      32.659
2015    8        8     0   6    4.0433   403.0    8.176      32.716
2015    8        8     0  12    4.0500   403.1    8.188      32.773
2015    8        8     0  19    4.0566   403.2    8.200      32.828
2015    8        8     0  26    4.0632   403.3    8.211      32.882
2015    8        8     0  33    4.0698   403.4    8.223      32.935
2015    8        8     0  40    4.0763   403.5    8.234      32.987
2015    8        8     0  46    4.0829   403.6    8.245      33.039
2015    8        8     0  53    4.0894   403.7    8.257      33.090
2015    8        8     1   0    4.0959   403.7    8.268      33.140
2015    8        8     1   7    4.1023   403.8    8.279      33.189
2015    8        8     1  14    4.1088   403.9    8.291      33.238
2015    8        8     1  20    4.1153   404.0    8.302      33.287
2015    8        8     1  27    4.1218   404.1    8.313      33.336
2015    8        8     1  34    4.1283   404.2    8.324      33.386
2015    8        8     1  41    4.1348   404.3    8.335      33.438
2015    8        8     1  47    4.1412   404.5    8.346      33.490
2015    8        8     1  54    4.1476   404.6    8.356      33.545
2015    8        8     2   1    4.1540   404.7    8.367      33.602
2015    8        8     2   8    4.1602   404.8    8.377      33.660
2015    8        8     2  15    4.1665   404.9    8.386      33.720
2015    8        8     2  21    4.1726   405.1    8.395      33.781
2015    8        8     2  28    4.1787   405.2    8.404      33.842
2015    8        8     2  35    4.1848   405.3    8.413      33.904
2015    8        8     2  42    4.1907   405.4    8.421      33.966
2015    8        8     2  49    4.1966   405.6    8.429      34.027
2015    8        8     2  55    4.2025   405.7    8.436      34.088
2015    8        8     3   2    4.2083   405.8    8.444      34.150
2015    8        8     3   9    4.2141   405.9    8.451      34.210
2015    8        8     3  16    4.2199   406.1    8.458      34.271
2015    8        8     3  22    4.2256   406.2    8.464      34.331
2015    8        8     3  29    4.2312   406.3    8.471      34.391
2015    8        8     3  36    4.2369   406.4    8.477      34.450
2015    8        8     3  43    4.2425   406.6    8.483      34.510
2015    8        8     3  50    4.2481   406.7    8.489      34.569
2015    8        8     3  56    4.2537   406.8    8.495      34.627
2015    8        8     4   3    4.2593   406.9    8.501      34.686
2015    8        8     4  10    4.2649   407.1    8.507      34.745
2015    8        8     4  17    4.2705   407.2    8.512      34.803
2015    8        8     4  24    4.2760   407.3    8.518      34.862
2015    8        8     4  30    4.2816   407.5    8.524      34.920
2015    8        8     4  37    4.2872   407.6    8.529      34.979
2015    8        8     4  44    4.2929   407.7    8.535      35.038
2015    8        8     4  51    4.2985   407.9    8.540      35.097
2015    8        8     4  58    4.3041   408.0    8.546      35.157
2015    8        8     5   4    4.3098   408.2    8.552      35.216
2015    8        8     5  11    4.3154   408.3    8.557      35.276
2015    8        8     5  18    4.3210   408.4    8.563      35.337
2015    8        8     5  25    4.3266   408.6    8.569      35.398
2015    8        8     5  31    4.3322   408.7    8.575      35.459
2015    8        8     5  38    4.3378   408.9    8.581      35.521
2015    8        8     5  45    4.3434   409.0    8.588      35.584
2015    8        8     5  52    4.3490   409.2    8.595      35.649
2015    8        8     5  59    4.3545   409.3    8.602      35.714
2015    8        8     6   5    4.3601   409.4    8.610      35.780
2015    8        8     6  12    4.3657   409.6    8.618      35.846
2015    8        8     6  19    4.3714   409.7    8.626      35.914
2015    8        8     6  26    4.3770   409.9    8.635      35.986
2015    8        8     6  33    4.3826   410.0    8.643      36.060
2015    8        8     6  39    4.3883   410.2    8.652      36.137
2015    8        8     6  46    4.3938   410.4    8.660      36.215
2015    8        8     6  53    4.3993   410.5    8.668      36.296
2015    8        8     7   0    4.4047   410.7    8.675      36.379
2015    8        8     7   6    4.4100   410.9    8.682      36.460
2015    8        8     7  13    4.4151   411.1    8.688      36.539
2015    8        8     7  20    4.4202   411.3    8.693      36.617
2015    8        8     7  27    4.4251   411.5    8.697      36.692
2015    8        8     7  34    4.4298   411.7    8.701      36.766
2015    8        8     7  40    4.4345   411.9    8.703      36.838
2015    8        8     7  47    4.4390   412.1    8.706      36.909
2015    8        8     7  54    4.4434   412.3    8.707      36.977
2015    8        8     8   1    4.4477   412.4    8.708      37.044
2015    8        8     8   8    4.4519   412.6    8.708      37.108
2015    8        8     8  14    4.4560   412.8    8.708      37.171
2015    8        8     8  21    4.4600   413.0    8.707      37.233
2015    8        8     8  28    4.4641   413.2    8.706      37.293
2015    8        8     8  35    4.4680   413.4    8.704      37.352
2015    8        8     8  41    4.4719   413.6    8.702      37.409
2015    8        8     8  48    4.4757   413.8    8.700      37.465
2015    8        8     8  55    4.4795   414.0    8.697      37.521
2015    8        8     9   2    4.4833   414.2    8.694      37.575
2015    8        8     9   9    4.4870   414.4    8.691      37.629
2015    8        8     9  15    4.4907   414.6    8.688      37.681
2015    8        8     9  22    4.4944   414.9    8.685      37.733
2015    8        8     9  29    4.4980   415.1    8.681      37.784
2015    8        8     9  36    4.5016   415.3    8.677      37.835
2015    8        8     9  43    4.5051   415.5    8.673      37.885
2015    8        8     9  49    4.5087   415.7    8.670      37.934
2015    8        8     9  56    4.5121   415.9    8.666      37.983
2015    8        8    10   3    4.5155   416.1    8.662      38.032
2015    8        8    10  10    4.5189   416.3    8.658      38.080
2015    8        8    10  16    4.5222   416.5    8.654      38.127
2015    8        8    10  23    4.5255   416.7    8.650      38.175
2015    8        8    10  30    4.5287   416.9    8.645      38.221
2015    8        8    10  37    4.5319   417.1    8.641      38.267
2015    8        8    10  44    4.5349   417.3    8.637      38.313
2015    8        8    10  50    4.5380   417.5    8.634      38.359
2015    8        8    10  57    4.5409   417.7    8.630      38.405
2015    8        8    11   4    4.5438   417.9    8.626      38.451
2015    8        8    11  11    4.5467   418.1    8.623      38.496
2015    8        8    11  18    4.5494   418.3    8.620      38.542
2015    8        8    11  24    4.5521   418.5    8.617      38.590
2015    8        8    11  31    4.5547   418.7    8.614      38.639
2015    8        8    11  38    4.5573   418.9    8.612      38.690
2015    8        8    11  45    4.5597   419.1    8.609      38.742
2015    8        8    11  52    4.5621   419.4    8.607      38.796
2015    8        8    11  58    4.5644   419.6    8.604      38.850
2015    8        8    12   5    4.5666   419.8    8.602      38.904
2015    8        8    12  12    4.5687   420.0    8.599      38.957
2015    8        8    12  19    4.5707   420.2    8.597      39.010
2015    8        8    12  25    4.5727   420.5    8.594      39.062
2015    8        8    12  32    4.5745   420.7    8.591      39.113
2015    8        8    12  39    4.5762   420.9    8.589      39.163
2015    8        8    12  46    4.5778   421.1    8.586      39.212
2015    8        8    12  53    4.5794   421.3    8.583      39.261
2015    8        8    12  59    4.5810   421.5    8.581      39.309
2015    8        8    13   6    4.5825   421.7    8.579      39.355
2015    8        8    13  13    4.5840   421.9    8.577      39.401
2015    8        8    13  20    4.5854   422.1    8.575      39.445
2015    8        8    13  27    4.5868   422.3    8.573      39.492
2015    8        8    13  33    4.5881   422.6    8.571      39.540
2015    8        8    13  40    4.5893   422.8    8.569      39.589
2015    8        8    13  47    4.5904   423.0    8.566      39.639
2015    8        8    13  54    4.5913   423.2    8.563      39.691
2015    8        8    14   0    4.5921   423.4    8.560      39.744
2015    8        8    14   7    4.5926   423.7    8.556      39.797
2015    8        8    14  14    4.5930   423.9    8.551      39.848
2015    8        8    14  21    4.5932   424.1    8.546      39.898
2015    8        8    14  28    4.5932   424.3    8.540      39.946
2015    8        8    14  34    4.5930   424.5    8.534      39.993
2015    8        8    14  41    4.5926   424.8    8.527      40.039
2015    8        8    14  48    4.5920   425.0    8.520      40.085
2015    8        8    14  55    4.5913   425.2    8.512      40.129
2015    8        8    15   2    4.5903   425.4    8.504      40.172
2015    8        8    15   8    4.5893   425.6    8.495      40.213
2015    8        8    15  15    4.5881   425.9    8.485      40.254
2015    8        8    15  22    4.5868   426.1    8.476      40.294
2015    8        8    15  29    4.5852   426.3    8.466      40.333
2015    8        8    15  35    4.5837   426.5    8.455      40.371
2015    8        8    15  42    4.5819   426.8    8.444      40.409
2015    8        8    15  49    4.5802   427.0    8.433      40.445
2015    8        8    15  56    4.5783   427.2    8.422      40.481
2015    8        8    16   3    4.5764   427.5    8.410      40.517
2015    8        8    16   9    4.5743   427.7    8.398      40.551
2015    8        8    16  16    4.5723   427.9    8.386      40.586
2015    8        8    16  23    4.5702   428.1    8.374      40.619
2015    8        8    16  30    4.5681   428.4    8.362      40.652
2015    8        8    16  37    4.5658   428.6    8.349      40.685
2015    8        8    16  43    4.5636   428.8    8.337      40.716
2015    8        8    16  50    4.5613   429.1    8.324      40.748
2015    8        8    16  57    4.5590   429.3    8.311      40.779
2015    8        8    17   4    4.5565   429.5    8.299      40.809
2015    8        8    17  10    4.5541   429.8    8.286      40.838
2015    8        8    17  17    4.5516   430.0    8.273      40.867
2015    8        8    17  24    4.5491   430.2    8.260      40.896
2015    8        8    17  31    4.5464   430.4    8.247      40.924
2015    8        8    17  38    4.5438   430.7    8.234      40.951
2015    8        8    17  44    4.5410   430.9    8.221      40.978
2015    8        8    17  51    4.5382   431.1    8.208      41.003
2015    8        8    17  58    4.5353   431.3    8.195      41.029
2015    8        8    18   5    4.5324   431.6    8.182      41.053
2015    8        8    18  12    4.5294   431.8    8.169      41.078
2015    8        8    18  18    4.5264   432.0    8.155      41.101
2015    8        8    18  25    4.5232   432.2    8.142      41.125
2015    8        8    18  32    4.5200   432.5    8.129      41.148
2015    8        8    18  39    4.5167   432.7    8.117      41.170
2015    8        8    18  45    4.5134   432.9    8.104      41.192
2015    8        8    18  52    4.5099   433.1    8.091      41.214
2015    8        8    18  59    4.5064   433.4    8.078      41.236
2015    8        8    19   6    4.5028   433.6    8.066      41.258
2015    8        8    19  13    4.4991   433.8    8.053      41.281
2015    8        8    19  19    4.4953   434.0    8.040      41.305
2015    8        8    19  26    4.4914   434.3    8.028      41.330
2015    8        8    19  33    4.4874   434.5    8.015      41.356
2015    8        8    19  40    4.4834   434.8    8.001      41.383
2015    8        8    19  47    4.4792   435.0    7.988      41.411
2015    8        8    19  53    4.4749   435.3    7.974      41.439
2015    8        8    20   0    4.4704   435.5    7.960      41.466
2015    8        8    20   7    4.4659   435.8    7.945      41.493
2015    8        8    20  14    4.4611   436.0    7.930      41.519
2015    8        8    20  21    4.4563   436.3    7.914      41.544
2015    8        8    20  27    4.4513   436.5    7.898      41.567
2015    8        8    20  34    4.4461   436.8    7.880      41.587
2015    8        8    20  41    4.4407   437.0    7.862      41.606
2015    8        8    20  48    4.4352   437.3    7.843      41.622
2015    8        8    20  54    4.4294   437.6    7.823      41.636
2015    8        8    21   1    4.4234   437.8    7.802      41.647
2015    8        8    21   8    4.4170   438.1    7.780      41.651
2015    8        8    21  15    4.4106   438.3    7.758      41.652
2015    8        8    21  22    4.4039   438.5    7.735      41.648
2015    8        8    21  28    4.3970   438.8    7.711      41.641
2015    8        8    21  35    4.3900   439.0    7.688      41.629
2015    8        8    21  42    4.3829   439.2    7.664      41.614
2015    8        8    21  49    4.3756   439.3    7.641      41.596
2015    8        8    21  56    4.3684   439.5    7.618      41.579
2015    8        8    22   2    4.3611   439.7    7.596      41.560
2015    8        8    22   9    4.3537   439.9    7.573      41.541
2015    8        8    22  16    4.3463   440.0    7.551      41.521
2015    8        8    22  23    4.3388   440.2    7.529      41.500
2015    8        8    22  29    4.3312   440.4    7.507      41.479
2015    8        8    22  36    4.3237   440.5    7.486      41.458
2015    8        8    22  43    4.3161   440.7    7.464      41.436
2015    8        8    22  50    4.3085   440.8    7.443      41.414
2015    8        8    22  57    4.3009   441.0    7.422      41.392
2015    8        8    23   3    4.2933   441.1    7.402      41.369
2015    8        8    23  10    4.2857   441.3    7.381      41.346
2015    8        8    23  17    4.2781   441.4    7.361      41.322
2015    8        8    23  24    4.2705   441.6    7.340      41.298
2015    8        8    23  30    4.2630   441.7    7.320      41.274
2015    8        8    23  37    4.2554   441.8    7.300      41.248
2015    8        8    23  44    4.2478   442.0    7.280      41.223
2015    8        8    23  51    4.2402   442.1    7.261      41.196
2015    8        8    23  58    4.2327   442.2    7.241      41.169
2015    8        9     0   4    4.2252   442.4    7.221      41.142
2015    8        9     0  11    4.2177   442.5    7.202      41.114
2015    8        9     0  18    4.2102   442.6    7.183      41.085
2015    8        9     0  25    4.2027   442.7    7.164      41.055
2015    8        9     0  32    4.1952   442.9    7.145      41.025
2015    8        9     0  38    4.1877   443.0    7.126      40.994
2015    8        9     0  45    4.1802   443.1    7.107      40.963
2015    8        9     0  52    4.1728   443.2    7.089      40.930
2015    8        9     0  59    4.1653   443.3    7.070      40.897
2015    8        9     1   6    4.1579   443.4    7.052      40.864
2015    8        9     1  12    4.1504   443.5    7.033      40.829
2015    8        9     1  19    4.1429   443.6    7.015      40.794
2015    8        9     1  26    4.1355   443.7    6.997      40.758
2015    8        9     1  33    4.1280   443.8    6.980      40.721
2015    8        9     1  39    4.1205   443.9    6.962      40.684
2015    8        9     1  46    4.1131   444.0    6.945      40.646
2015    8        9     1  53    4.1056   444.1    6.927      40.607
2015    8        9     2   0    4.0982   444.2    6.910      40.568
2015    8        9     2   7    4.0907   444.3    6.893      40.528
2015    8        9     2  13    4.0832   444.4    6.876      40.488
2015    8        9     2  20    4.0757   444.5    6.859      40.447
2015    8        9     2  27    4.0682   444.5    6.842      40.405
2015    8        9     2  34    4.0606   444.6    6.825      40.363
2015    8        9     2  41    4.0531   444.7    6.808      40.320
2015    8        9     2  47    4.0455   444.8    6.791      40.277
2015    8        9     2  54    4.0380   444.9    6.775      40.233
2015    8        9     3   1    4.0304   445.0    6.758      40.188
2015    8        9     3   8    4.0228   445.0    6.742      40.143
2015    8        9     3  15    4.0151   445.1    6.725      40.097
2015    8        9     3  21    4.0074   445.2    6.708      40.052
2015    8        9     3  28    3.9997   445.3    6.692      40.006
2015    8        9     3  35    3.9920   445.4    6.675      39.961
2015    8        9     3  42    3.9841   445.5    6.658      39.916
2015    8        9     3  48    3.9763   445.6    6.641      39.871
2015    8        9     3  55    3.9684   445.7    6.623      39.826
2015    8        9     4   2    3.9604   445.8    6.605      39.782
2015    8        9     4   9    3.9524   445.9    6.587      39.737
2015    8        9     4  16    3.9442   446.0    6.569      39.692
2015    8        9     4  22    3.9360   446.1    6.550      39.644
2015    8        9     4  29    3.9276   446.2    6.531      39.597
2015    8        9     4  36    3.9191   446.3    6.510      39.548
2015    8        9     4  43    3.9104   446.4    6.490      39.495
2015    8        9     4  50    3.9015   446.5    6.468      39.437
2015    8        9     4  56    3.8926   446.6    6.447      39.375
2015    8        9     5   3    3.8836   446.6    6.426      39.310
2015    8        9     5  10    3.8746   446.6    6.405      39.241
2015    8        9     5  17    3.8655   446.7    6.385      39.168
2015    8        9     5  23    3.8566   446.6    6.365      39.093
2015    8        9     5  30    3.8478   446.6    6.346      39.016
2015    8        9     5  37    3.8392   446.6    6.327      38.940
2015    8        9     5  44    3.8306   446.6    6.310      38.862
2015    8        9     5  51    3.8222   446.6    6.293      38.784
2015    8        9     5  57    3.8140   446.6    6.276      38.705
2015    8        9     6   4    3.8058   446.5    6.261      38.626
2015    8        9     6  11    3.7978   446.5    6.246      38.546
2015    8        9     6  18    3.7900   446.4    6.233      38.468
2015    8        9     6  24    3.7822   446.4    6.220      38.391
2015    8        9     6  31    3.7745   446.4    6.207      38.314
2015    8        9     6  38    3.7670   446.3    6.196      38.237
2015    8        9     6  45    3.7595   446.3    6.186      38.162
2015    8        9     6  52    3.7521   446.2    6.176      38.088
2015    8        9     6  58    3.7449   446.2    6.166      38.019
2015    8        9     7   5    3.7377   446.1    6.157      37.951
2015    8        9     7  12    3.7307   446.1    6.148      37.887
2015    8        9     7  19    3.7237   446.0    6.139      37.824
2015    8        9     7  26    3.7168   446.0    6.130      37.765
2015    8        9     7  32    3.7100   446.0    6.120      37.707
2015    8        9     7  39    3.7032   445.9    6.111      37.650
2015    8        9     7  46    3.6966   445.9    6.102      37.592
2015    8        9     7  53    3.6900   445.8    6.093      37.533
2015    8        9     8   0    3.6834   445.7    6.083      37.474
2015    8        9     8   6    3.6770   445.7    6.074      37.415
2015    8        9     8  13    3.6705   445.6    6.064      37.355
2015    8        9     8  20    3.6641   445.6    6.055      37.295
2015    8        9     8  27    3.6578   445.5    6.045      37.234
2015    8        9     8  33    3.6515   445.4    6.036      37.173
2015    8        9     8  40    3.6453   445.4    6.026      37.111
2015    8        9     8  47    3.6391   445.3    6.017      37.049
2015    8        9     8  54    3.6330   445.2    6.008      36.986
2015    8        9     9   1    3.6269   445.2    5.998      36.923
2015    8        9     9   7    3.6208   445.1    5.989      36.860
2015    8        9     9  14    3.6147   445.0    5.980      36.797
2015    8        9     9  21    3.6087   444.9    5.971      36.733
2015    8        9     9  28    3.6027   444.8    5.962      36.669
2015    8        9     9  35    3.5968   444.8    5.953      36.605
2015    8        9     9  41    3.5909   444.7    5.944      36.541
2015    8        9     9  48    3.5850   444.6    5.935      36.477
2015    8        9     9  55    3.5791   444.5    5.926      36.413
2015    8        9    10   2    3.5732   444.4    5.917      36.349
2015    8        9    10   8    3.5674   444.4    5.909      36.285
2015    8        9    10  15    3.5617   444.3    5.900      36.221
2015    8        9    10  22    3.5559   444.2    5.892      36.157
2015    8        9    10  29    3.5502   444.1    5.883      36.094
2015    8        9    10  36    3.5445   444.0    5.875      36.030
2015    8        9    10  42    3.5389   443.9    5.866      35.967
2015    8        9    10  49    3.5333   443.8    5.858      35.904
2015    8        9    10  56    3.5278   443.8    5.850      35.842
2015    8        9    11   3    3.5222   443.7    5.842      35.780
2015    8        9    11  10    3.5168   443.6    5.833      35.718
2015    8        9    11  16    3.5113   443.5    5.825      35.657
2015    8        9    11  23    3.5060   443.4    5.817      35.596
2015    8        9    11  30    3.5006   443.3    5.809      35.535
2015    8        9    11  37    3.4954   443.2    5.801      35.475
2015    8        9    11  44    3.4902   443.1    5.793      35.416
2015    8        9    11  50    3.4850   443.0    5.786      35.356
2015    8        9    11  57    3.4800   442.9    5.778      35.297
2015    8        9    12   4    3.4750   442.8    5.770      35.238
2015    8        9    12  11    3.4701   442.7    5.763      35.180
2015    8        9    12  17    3.4653   442.6    5.756      35.121
2015    8        9    12  24    3.4606   442.5    5.749      35.063
2015    8        9    12  31    3.4560   442.4    5.742      35.005
2015    8        9    12  38    3.4514   442.2    5.736      34.947
2015    8        9    12  45    3.4470   442.1    5.730      34.888
2015    8        9    12  51    3.4427   442.0    5.724      34.829
2015    8        9    12  58    3.4385   441.8    5.719      34.769
2015    8        9    13   5    3.4343   441.7    5.714      34.708
2015    8        9    13  12    3.4303   441.5    5.709      34.647
2015    8        9    13  18    3.4264   441.4    5.705      34.587
2015    8        9    13  25    3.4226   441.2    5.702      34.526
2015    8        9    13  32    3.4188   441.1    5.699      34.466
2015    8        9    13  39    3.4152   440.9    5.697      34.407
2015    8        9    13  46    3.4116   440.8    5.695      34.350
2015    8        9    13  52    3.4080   440.6    5.694      34.293
2015    8        9    13  59    3.4046   440.5    5.694      34.238
2015    8        9    14   6    3.4012   440.4    5.693      34.185
2015    8        9    14  13    3.3979   440.2    5.694      34.135
2015    8        9    14  20    3.3947   440.1    5.694      34.090
2015    8        9    14  26    3.3916   439.9    5.695      34.047
2015    8        9    14  33    3.3885   439.8    5.695      34.007
2015    8        9    14  40    3.3854   439.7    5.696      33.970
2015    8        9    14  47    3.3824   439.5    5.696      33.936
2015    8        9    14  53    3.3795   439.4    5.696      33.903
2015    8        9    15   0    3.3766   439.3    5.695      33.870
2015    8        9    15   7    3.3738   439.1    5.695      33.836
2015    8        9    15  14    3.3710   439.0    5.694      33.802
2015    8        9    15  21    3.3683   438.9    5.693      33.767
2015    8        9    15  27    3.3656   438.7    5.692      33.731
2015    8        9    15  34    3.3629   438.6    5.691      33.696
2015    8        9    15  41    3.3603   438.4    5.690      33.660
2015    8        9    15  48    3.3577   438.3    5.688      33.623
2015    8        9    15  55    3.3551   438.1    5.687      33.586
2015    8        9    16   1    3.3526   438.0    5.685      33.548
2015    8        9    16   8    3.3501   437.9    5.684      33.510
2015    8        9    16  15    3.3476   437.7    5.682      33.471
2015    8        9    16  22    3.3452   437.6    5.680      33.432
2015    8        9    16  29    3.3428   437.4    5.678      33.393
2015    8        9    16  35    3.3404   437.3    5.677      33.354
2015    8        9    16  42    3.3380   437.1    5.675      33.314
2015    8        9    16  49    3.3357   437.0    5.673      33.274
2015    8        9    16  56    3.3333   436.8    5.671      33.235
2015    8        9    17   2    3.3310   436.7    5.669      33.195
2015    8        9    17   9    3.3288   436.5    5.668      33.155
2015    8        9    17  16    3.3265   436.4    5.666      33.115
2015    8        9    17  23    3.3243   436.2    5.664      33.075
2015    8        9    17  30    3.3221   436.1    5.663      33.035
2015    8        9    17  36    3.3199   435.9    5.661      32.996
2015    8        9    17  43    3.3178   435.8    5.660      32.956
2015    8        9    17  50    3.3157   435.6    5.658      32.917
2015    8        9    17  57    3.3136   435.5    5.657      32.877
2015    8        9    18   4    3.3115   435.3    5.656      32.838
2015    8        9    18  10    3.3095   435.2    5.654      32.799
2015    8        9    18  17    3.3075   435.0    5.653      32.760
2015    8        9    18  24    3.3055   434.9    5.652      32.722
2015    8        9    18  31    3.3035   434.7    5.651      32.684
2015    8        9    18  38    3.3016   434.6    5.650      32.645
2015    8        9    18  44    3.2997   434.4    5.649      32.608
2015    8        9    18  51    3.2979   434.3    5.649      32.570
2015    8        9    18  58    3.2960   434.1    5.648      32.533
2015    8        9    19   5    3.2942   434.0    5.648      32.496
2015    8        9    19  11    3.2925   433.8    5.647      32.459
2015    8        9    19  18    3.2907   433.7    5.647      32.423
2015    8        9    19  25    3.2890   433.5    5.646      32.387
2015    8        9    19  32    3.2873   433.4    5.646      32.351
2015    8        9    19  39    3.2857   433.2    5.646      32.316
2015    8        9    19  45    3.2840   433.1    5.646      32.281
2015    8        9    19  52    3.2824   432.9    5.646      32.246
2015    8        9    19  59    3.2808   432.8    5.646      32.211
2015    8        9    20   6    3.2792   432.6    5.646      32.176
2015    8        9    20  12    3.2777   432.5    5.646      32.142
2015    8        9    20  19    3.2761   432.3    5.646      32.108
2015    8        9    20  26    3.2746   432.2    5.646      32.074
2015    8        9    20  33    3.2732   432.0    5.646      32.041
2015    8        9    20  40    3.2717   431.9    5.646      32.007
2015    8        9    20  46    3.2703   431.7    5.646      31.974
2015    8        9    20  53    3.2689   431.5    5.646      31.941
2015    8        9    21   0    3.2675   431.4    5.646      31.909
2015    8        9    21   7    3.2661   431.2    5.646      31.876
2015    8        9    21  14    3.2648   431.1    5.646      31.844
2015    8        9    21  20    3.2635   430.9    5.646      31.812
2015    8        9    21  27    3.2622   430.8    5.646      31.781
2015    8        9    21  34    3.2610   430.6    5.646      31.750
2015    8        9    21  41    3.2597   430.5    5.646      31.719
2015    8        9    21  47    3.2586   430.3    5.646      31.688
2015    8        9    21  54    3.2574   430.2    5.646      31.657
2015    8        9    22   1    3.2563   430.0    5.645      31.627
2015    8        9    22   8    3.2552   429.8    5.645      31.598
2015    8        9    22  15    3.2542   429.7    5.645      31.568
2015    8        9    22  21    3.2531   429.5    5.645      31.538
2015    8        9    22  28    3.2521   429.4    5.645      31.509
2015    8        9    22  35    3.2512   429.2    5.645      31.480
2015    8        9    22  42    3.2503   429.0    5.644      31.450
2015    8        9    22  49    3.2494   428.9    5.644      31.421
2015    8        9    22  55    3.2485   428.7    5.644      31.392
2015    8        9    23   2    3.2477   428.6    5.644      31.362
2015    8        9    23   9    3.2469   428.4    5.644      31.332
2015    8        9    23  16    3.2462   428.2    5.643      31.303
2015    8        9    23  23    3.2454   428.1    5.643      31.273
2015    8        9    23  29    3.2447   427.9    5.643      31.243
2015    8        9    23  36    3.2441   427.7    5.643      31.213
2015    8        9    23  43    3.2434   427.6    5.643      31.183
2015    8        9    23  50    3.2427   427.4    5.643      31.153
2015    8        9    23  56    3.2421   427.2    5.643      31.123
2015    8       10     0   3    3.2415   427.1    5.643      31.093
2015    8       10     0  10    3.2409   426.9    5.642      31.063
2015    8       10     0  17    3.2404   426.7    5.643      31.033
2015    8       10     0  24    3.2398   426.6    5.643      31.003
2015    8       10     0  30    3.2393   426.4    5.643      30.973
2015    8       10     0  37    3.2388   426.2    5.643      30.943
2015    8       10     0  44    3.2383   426.1    5.643      30.913
2015    8       10     0  51    3.2379   425.9    5.643      30.883
2015    8       10     0  58    3.2374   425.7    5.644      30.853
2015    8       10     1   4    3.2370   425.6    5.644      30.823
2015    8       10     1  11    3.2366   425.4    5.645      30.794
2015    8       10     1  18    3.2362   425.2    5.645      30.764
2015    8       10     1  25    3.2359   425.0    5.646      30.735
2015    8       10     1  31    3.2355   424.9    5.646      30.706
2015    8       10     1  38    3.2352   424.7    5.647      30.677
2015    8       10     1  45    3.2349   424.5    5.648      30.648
2015    8       10     1  52    3.2346   424.4    5.649      30.620
2015    8       10     1  59    3.2344   424.2    5.650      30.592
2015    8       10     2   5    3.2342   424.0    5.651      30.564
2015    8       10     2  12    3.2340   423.9    5.653      30.536
2015    8       10     2  19    3.2338   423.7    5.654      30.508
2015    8       10     2  26    3.2337   423.5    5.655      30.481
2015    8       10     2  33    3.2336   423.3    5.657      30.454
2015    8       10     2  39    3.2334   423.2    5.659      30.428
2015    8       10     2  46    3.2334   423.0    5.660      30.401
2015    8       10     2  53    3.2333   422.8    5.662      30.375
2015    8       10     3   0    3.2332   422.7    5.664      30.349
2015    8       10     3   6    3.2332   422.5    5.666      30.324
2015    8       10     3  13    3.2332   422.3    5.669      30.298
2015    8       10     3  20    3.2332   422.1    5.671      30.273
2015    8       10     3  27    3.2332   422.0    5.673      30.248
2015    8       10     3  34    3.2333   421.8    5.676      30.224
2015    8       10     3  40    3.2334   421.6    5.679      30.200
2015    8       10     3  47    3.2335   421.4    5.681      30.177
2015    8       10     3  54    3.2337   421.3    5.684      30.153
2015    8       10     4   1    3.2339   421.1    5.687      30.131
2015    8       10     4   8    3.2341   420.9    5.690      30.109
2015    8       10     4  14    3.2344   420.7    5.693      30.087
2015    8       10     4  21    3.2348   420.6    5.697      30.067
2015    8       10     4  28    3.2352   420.4    5.700      30.046
2015    8       10     4  35    3.2356   420.2    5.704      30.027
2015    8       10     4  41    3.2361   420.0    5.708      30.008
2015    8       10     4  48    3.2367   419.9    5.712      29.990
2015    8       10     4  55    3.2374   419.7    5.716      29.973
2015    8       10     5   2    3.2381   419.5    5.720      29.956
2015    8       10     5   9    3.2389   419.3    5.725      29.941
2015    8       10     5  15    3.2398   419.2    5.729      29.926
2015    8       10     5  22    3.2407   419.0    5.734      29.912
2015    8       10     5  29    3.2418   418.8    5.739      29.899
2015    8       10     5  36    3.2429   418.7    5.745      29.887
2015    8       10     5  43    3.2441   418.5    5.750      29.876
2015    8       10     5  49    3.2454   418.3    5.756      29.865
2015    8       10     5  56    3.2467   418.2    5.762      29.855
2015    8       10     6   3    3.2481   418.0    5.768      29.846
2015    8       10     6  10    3.2497   417.8    5.774      29.837
2015    8       10     6  16    3.2512   417.7    5.780      29.829
2015    8       10     6  23    3.2529   417.5    5.787      29.822
2015    8       10     6  30    3.2546   417.3    5.793      29.815
2015    8       10     6  37    3.2564   417.2    5.800      29.808
2015    8       10     6  44    3.2582   417.0    5.807      29.802
2015    8       10     6  50    3.2601   416.9    5.814      29.797
2015    8       10     6  57    3.2620   416.7    5.821      29.792
2015    8       10     7   4    3.2640   416.6    5.828      29.787
2015    8       10     7  11    3.2659   416.4    5.835      29.783
2015    8       10     7  18    3.2679   416.3    5.842      29.779
2015    8       10     7  24    3.2699   416.1    5.849      29.775
2015    8       10     7  31    3.2719   416.0    5.857      29.771
2015    8       10     7  38    3.2739   415.8    5.864      29.767
2015    8       10     7  45    3.2759   415.7    5.871      29.764
2015    8       10     7  52    3.2780   415.5    5.878      29.761
2015    8       10     7  58    3.2800   415.4    5.885      29.758
2015    8       10     8   5    3.2821   415.2    5.893      29.756
2015    8       10     8  12    3.2842   415.1    5.900      29.754
2015    8       10     8  19    3.2863   414.9    5.907      29.752
2015    8       10     8  25    3.2884   414.8    5.914      29.750
2015    8       10     8  32    3.2905   414.7    5.921      29.748
2015    8       10     8  39    3.2927   414.5    5.928      29.747
2015    8       10     8  46    3.2948   414.4    5.934      29.745
2015    8       10     8  53    3.2971   414.2    5.941      29.744
2015    8       10     8  59    3.2992   414.1    5.948      29.743
2015    8       10     9   6    3.3014   414.0    5.955      29.742
2015    8       10     9  13    3.3037   413.8    5.961      29.741
2015    8       10     9  20    3.3059   413.7    5.968      29.739
2015    8       10     9  27    3.3081   413.6    5.974      29.738
2015    8       10     9  33    3.3104   413.4    5.980      29.736
2015    8       10     9  40    3.3127   413.3    5.987      29.735
2015    8       10     9  47    3.3151   413.2    5.993      29.733
2015    8       10     9  54    3.3174   413.0    6.000      29.732
2015    8       10    10   0    3.3198   412.9    6.006      29.730
2015    8       10    10   7    3.3222   412.7    6.013      29.728
2015    8       10    10  14    3.3247   412.6    6.019      29.727
2015    8       10    10  21    3.3271   412.5    6.026      29.725
2015    8       10    10  28    3.3296   412.4    6.032      29.724
2015    8       10    10  34    3.3321   412.2    6.039      29.723
2015    8       10    10  41    3.3347   412.1    6.046      29.722
2015    8       10    10  48    3.3373   412.0    6.052      29.721
2015    8       10    10  55    3.3400   411.8    6.059      29.721
2015    8       10    11   1    3.3427   411.7    6.067      29.721
2015    8       10    11   8    3.3454   411.6    6.074      29.722
2015    8       10    11  15    3.3481   411.4    6.081      29.723
2015    8       10    11  22    3.3510   411.3    6.089      29.724
2015    8       10    11  29    3.3538   411.2    6.097      29.726
2015    8       10    11  35    3.3567   411.1    6.105      29.728
2015    8       10    11  42    3.3597   411.0    6.113      29.731
2015    8       10    11  49    3.3627   410.8    6.121      29.734
2015    8       10    11  56    3.3657   410.7    6.130      29.738
2015    8       10    12   3    3.3689   410.6    6.139      29.743
2015    8       10    12   9    3.3721   410.5    6.148      29.748
2015    8       10    12  16    3.3753   410.4    6.157      29.754
2015    8       10    12  23    3.3786   410.3    6.166      29.761
2015    8       10    12  30    3.3820   410.1    6.176      29.769
2015    8       10    12  37    3.3855   410.0    6.186      29.777
2015    8       10    12  43    3.3890   409.9    6.197      29.786
2015    8       10    12  50    3.3926   409.8    6.207      29.796
2015    8       10    12  57    3.3963   409.7    6.218      29.807
2015    8       10    13   4    3.4000   409.6    6.229      29.819
2015    8       10    13  10    3.4038   409.5    6.241      29.832
2015    8       10    13  17    3.4077   409.4    6.253      29.846
2015    8       10    13  24    3.4116   409.3    6.265      29.860
2015    8       10    13  31    3.4156   409.2    6.277      29.876
2015    8       10    13  38    3.4197   409.1    6.289      29.892
2015    8       10    13  44    3.4239   409.0    6.302      29.909
2015    8       10    13  51    3.4281   409.0    6.315      29.927
2015    8       10    13  58    3.4324   408.9    6.328      29.946
2015    8       10    14   5    3.4367   408.8    6.342      29.966
2015    8       10    14  12    3.4411   408.7    6.356      29.986
2015    8       10    14  18    3.4455   408.6    6.370      30.007
2015    8       10    14  25    3.4500   408.6    6.384      30.029
2015    8       10    14  32    3.4545   408.5    6.399      30.052
2015    8       10    14  39    3.4591   408.4    6.414      30.077
2015    8       10    14  46    3.4636   408.3    6.429      30.104
2015    8       10    14  52    3.4682   408.3    6.443      30.133
2015    8       10    14  59    3.4728   408.2    6.458      30.164
2015    8       10    15   6    3.4773   408.2    6.472      30.196
2015    8       10    15  13    3.4817   408.1    6.486      30.229
2015    8       10    15  19    3.4862   408.1    6.499      30.262
2015    8       10    15  26    3.4906   408.0    6.513      30.296
2015    8       10    15  33    3.4949   408.0    6.526      30.329
2015    8       10    15  40    3.4993   407.9    6.539      30.362
2015    8       10    15  47    3.5036   407.9    6.551      30.394
2015    8       10    15  53    3.5078   407.9    6.564      30.427
2015    8       10    16   0    3.5120   407.8    6.575      30.459
2015    8       10    16   7    3.5162   407.8    6.587      30.490
2015    8       10    16  14    3.5203   407.7    6.599      30.521
2015    8       10    16  21    3.5244   407.7    6.610      30.552
2015    8       10    16  27    3.5285   407.7    6.620      30.581
2015    8       10    16  34    3.5325   407.6    6.631      30.610
2015    8       10    16  41    3.5365   407.6    6.641      30.638
2015    8       10    16  48    3.5405   407.6    6.651      30.666
2015    8       10    16  54    3.5445   407.5    6.661      30.693
2015    8       10    17   1    3.5484   407.5    6.671      30.720
2015    8       10    17   8    3.5524   407.5    6.680      30.746
2015    8       10    17  15    3.5562   407.4    6.690      30.771
2015    8       10    17  22    3.5601   407.4    6.698      30.796
2015    8       10    17  28    3.5639   407.4    6.707      30.820
2015    8       10    17  35    3.5677   407.4    6.716      30.844
2015    8       10    17  42    3.5715   407.4    6.724      30.868
2015    8       10    17  49    3.5753   407.3    6.732      30.891
2015    8       10    17  55    3.5790   407.3    6.740      30.914
2015    8       10    18   2    3.5827   407.3    6.748      30.936
2015    8       10    18   9    3.5864   407.3    6.756      30.958
2015    8       10    18  16    3.5900   407.3    6.764      30.980
2015    8       10    18  23    3.5936   407.3    6.771      31.001
2015    8       10    18  29    3.5972   407.2    6.778      31.022
2015    8       10    18  36    3.6008   407.2    6.786      31.043
2015    8       10    18  43    3.6043   407.2    6.793      31.064
2015    8       10    18  50    3.6078   407.2    6.800      31.084
2015    8       10    18  57    3.6112   407.2    6.806      31.104
2015    8       10    19   3    3.6147   407.2    6.813      31.124
2015    8       10    19  10    3.6181   407.2    6.820      31.143
2015    8       10    19  17    3.6215   407.2    6.827      31.162
2015    8       10    19  24    3.6248   407.2    6.833      31.181
2015    8       10    19  30    3.6282   407.2    6.840      31.200
2015    8       10    19  37    3.6315   407.2    6.847      31.219
2015    8       10    19  44    3.6348   407.1    6.853      31.237
2015    8       10    19  51    3.6381   407.1    6.860      31.256
2015    8       10    19  58    3.6414   407.1    6.867      31.274
2015    8       10    20   4    3.6447   407.1    6.873      31.292
2015    8       10    20  11    3.6479   407.1    6.880      31.310
2015    8       10    20  18    3.6512   407.1    6.887      31.328
2015    8       10    20  25    3.6544   407.1    6.894      31.347
2015    8       10    20  32    3.6577   407.1    6.901      31.365
2015    8       10    20  38    3.6609   407.1    6.908      31.384
2015    8       10    20  45    3.6642   407.1    6.915      31.402
2015    8       10    20  52    3.6674   407.1    6.922      31.421
2015    8       10    20  59    3.6707   407.1    6.930      31.439
2015    8       10    21   6    3.6739   407.1    6.937      31.458
2015    8       10    21  12    3.6772   407.1    6.945      31.477
2015    8       10    21  19    3.6804   407.1    6.952      31.496
2015    8       10    21  26    3.6837   407.1    6.961      31.515
2015    8       10    21  33    3.6870   407.1    6.969      31.535
2015    8       10    21  39    3.6903   407.1    6.977      31.555
2015    8       10    21  46    3.6936   407.1    6.986      31.576
2015    8       10    21  53    3.6970   407.1    6.994      31.598
2015    8       10    22   0    3.7003   407.1    7.003      31.622
2015    8       10    22   7    3.7036   407.1    7.011      31.647
2015    8       10    22  13    3.7068   407.1    7.019      31.673
2015    8       10    22  20    3.7100   407.2    7.027      31.700
2015    8       10    22  27    3.7131   407.2    7.035      31.727
2015    8       10    22  34    3.7162   407.2    7.042      31.754
2015    8       10    22  41    3.7193   407.2    7.050      31.781
2015    8       10    22  47    3.7222   407.2    7.057      31.807
2015    8       10    22  54    3.7251   407.3    7.064      31.833
2015    8       10    23   1    3.7280   407.3    7.071      31.859
2015    8       10    23   8    3.7308   407.3    7.077      31.885
2015    8       10    23  14    3.7336   407.3    7.084      31.910
2015    8       10    23  21    3.7363   407.3    7.090      31.935
2015    8       10    23  28    3.7389   407.4    7.096      31.960
2015    8       10    23  35    3.7415   407.4    7.102      31.984
2015    8       10    23  42    3.7441   407.4    7.108      32.008
2015    8       10    23  48    3.7466   407.4    7.114      32.031
2015    8       10    23  55    3.7490   407.5    7.120      32.054
2015    8       11     0   2    3.7515   407.5    7.125      32.077
2015    8       11     0   9    3.7538   407.5    7.130      32.100
2015    8       11     0  16    3.7562   407.6    7.136      32.122
2015    8       11     0  22    3.7585   407.6    7.141      32.144
2015    8       11     0  29    3.7607   407.6    7.146      32.166
2015    8       11     0  36    3.7630   407.6    7.151      32.187
2015    8       11     0  43    3.7652   407.7    7.155      32.208
2015    8       11     0  49    3.7673   407.7    7.160      32.229
2015    8       11     0  56    3.7695   407.7    7.165      32.250
2015    8       11     1   3    3.7716   407.8    7.169      32.270
2015    8       11     1  10    3.7736   407.8    7.174      32.290
2015    8       11     1  17    3.7757   407.8    7.178      32.310
2015    8       11     1  23    3.7777   407.9    7.182      32.331
2015    8       11     1  30    3.7797   407.9    7.187      32.352
2015    8       11     1  37    3.7816   408.0    7.191      32.373
2015    8       11     1  44    3.7835   408.0    7.194      32.394
2015    8       11     1  51    3.7854   408.0    7.198      32.416
2015    8       11     1  57    3.7872   408.1    7.201      32.438
2015    8       11     2   4    3.7889   408.1    7.204      32.460
2015    8       11     2  11    3.7907   408.2    7.207      32.481
2015    8       11     2  18    3.7923   408.2    7.209      32.501
2015    8       11     2  24    3.7939   408.3    7.212      32.522
2015    8       11     2  31    3.7955   408.3    7.214      32.541
2015    8       11     2  38    3.7970   408.3    7.216      32.560
2015    8       11     2  45    3.7985   408.4    7.218      32.579
2015    8       11     2  52    3.7999   408.4    7.219      32.597
2015    8       11     2  58    3.8013   408.5    7.221      32.614
2015    8       11     3   5    3.8026   408.5    7.222      32.631
2015    8       11     3  12    3.8040   408.6    7.223      32.648
2015    8       11     3  19    3.8053   408.6    7.224      32.664
2015    8       11     3  26    3.8065   408.6    7.225      32.679
2015    8       11     3  32    3.8077   408.7    7.226      32.694
2015    8       11     3  39    3.8089   408.7    7.226      32.709
2015    8       11     3  46    3.8101   408.8    7.227      32.723
2015    8       11     3  53    3.8112   408.8    7.227      32.737
2015    8       11     3  59    3.8123   408.9    7.228      32.750
2015    8       11     4   6    3.8134   408.9    7.228      32.763
2015    8       11     4  13    3.8144   408.9    7.228      32.776
2015    8       11     4  20    3.8155   409.0    7.228      32.788
2015    8       11     4  27    3.8165   409.0    7.228      32.800
2015    8       11     4  33    3.8175   409.1    7.229      32.811
2015    8       11     4  40    3.8184   409.1    7.229      32.822
2015    8       11     4  47    3.8194   409.1    7.229      32.834
2015    8       11     4  54    3.8203   409.2    7.228      32.844
2015    8       11     5   1    3.8212   409.2    7.228      32.855
2015    8       11     5   7    3.8220   409.3    7.228      32.865
2015    8       11     5  14    3.8229   409.3    7.228      32.874
2015    8       11     5  21    3.8237   409.3    7.228      32.884
2015    8       11     5  28    3.8246   409.4    7.228      32.894
2015    8       11     5  35    3.8254   409.4    7.228      32.903
2015    8       11     5  41    3.8261   409.5    7.228      32.912
2015    8       11     5  48    3.8269   409.5    7.228      32.921
2015    8       11     5  55    3.8276   409.5    7.228      32.930
2015    8       11     6   2    3.8284   409.6    7.228      32.939
2015    8       11     6   8    3.8291   409.6    7.228      32.948
2015    8       11     6  15    3.8298   409.7    7.228      32.957
2015    8       11     6  22    3.8304   409.7    7.228      32.966
2015    8       11     6  29    3.8311   409.7    7.228      32.975
2015    8       11     6  36    3.8317   409.8    7.228      32.984
2015    8       11     6  42    3.8323   409.8    7.228      32.993
2015    8       11     6  49    3.8329   409.9    7.228      33.002
2015    8       11     6  56    3.8335   409.9    7.228      33.011
2015    8       11     7   3    3.8340   409.9    7.229      33.020
2015    8       11     7  10    3.8346   410.0    7.229      33.029
2015    8       11     7  16    3.8351   410.0    7.229      33.038
2015    8       11     7  23    3.8356   410.1    7.230      33.047
2015    8       11     7  30    3.8361   410.1    7.230      33.056
2015    8       11     7  37    3.8366   410.1    7.231      33.065
2015    8       11     7  43    3.8371   410.2    7.231      33.075
2015    8       11     7  50    3.8375   410.2    7.232      33.084
2015    8       11     7  57    3.8380   410.3    7.233      33.093
2015    8       11     8   4    3.8384   410.3    7.234      33.103
2015    8       11     8  11    3.8388   410.4    7.234      33.113
2015    8       11     8  17    3.8392   410.4    7.235      33.123
2015    8       11     8  24    3.8396   410.4    7.236      33.132
2015    8       11     8  31    3.8400   410.5    7.237      33.142
2015    8       11     8  38    3.8403   410.5    7.238      33.151
2015    8       11     8  44    3.8407   410.6    7.240      33.161
2015    8       11     8  51    3.8411   410.6    7.241      33.171
2015    8       11     8  58    3.8414   410.6    7.242      33.181
2015    8       11     9   5    3.8417   410.7    7.243      33.192
2015    8       11     9  12    3.8420   410.7    7.244      33.204
2015    8       11     9  18    3.8423   410.8    7.244      33.216
2015    8       11     9  25    3.8426   410.8    7.245      33.228
2015    8       11     9  32    3.8428   410.9    7.245      33.240
2015    8       11     9  39    3.8429   410.9    7.246      33.252
2015    8       11     9  46    3.8431   411.0    7.246      33.263
2015    8       11     9  52    3.8432   411.0    7.246      33.274
2015    8       11     9  59    3.8432   411.1    7.246      33.285
2015    8       11    10   6    3.8433   411.1    7.246      33.295
2015    8       11    10  13    3.8433   411.2    7.246      33.305
2015    8       11    10  19    3.8433   411.2    7.246      33.315
2015    8       11    10  26    3.8432   411.3    7.245      33.324
2015    8       11    10  33    3.8431   411.3    7.245      33.334
2015    8       11    10  40    3.8430   411.3    7.244      33.342
2015    8       11    10  47    3.8428   411.4    7.243      33.351
2015    8       11    10  53    3.8427   411.4    7.243      33.359
2015    8       11    11   0    3.8425   411.5    7.242      33.368
2015    8       11    11   7    3.8423   411.5    7.242      33.376
2015    8       11    11  14    3.8421   411.6    7.241      33.384
2015    8       11    11  21    3.8418   411.6    7.240      33.392
2015    8       11    11  27    3.8416   411.7    7.240      33.400
2015    8       11    11  34    3.8413   411.7    7.239      33.407
2015    8       11    11  41    3.8410   411.7    7.238      33.415
2015    8       11    11  48    3.8407   411.8    7.238      33.423
2015    8       11    11  55    3.8403   411.8    7.238      33.431
2015    8       11    12   1    3.8399   411.9    7.237      33.440
2015    8       11    12   8    3.8395   411.9    7.237      33.449
2015    8       11    12  15    3.8390   412.0    7.236      33.458
2015    8       11    12  22    3.8386   412.0    7.235      33.468
2015    8       11    12  28    3.8380   412.1    7.235      33.478
2015    8       11    12  35    3.8375   412.1    7.234      33.488
2015    8       11    12  42    3.8369   412.2    7.233      33.498
2015    8       11    12  49    3.8363   412.2    7.231      33.507
2015    8       11    12  56    3.8357   412.3    7.230      33.516
2015    8       11    13   2    3.8350   412.3    7.229      33.524
2015    8       11    13   9    3.8343   412.4    7.227      33.532
2015    8       11    13  16    3.8336   412.4    7.225      33.540
2015    8       11    13  23    3.8328   412.5    7.223      33.547
2015    8       11    13  30    3.8320   412.5    7.221      33.553
2015    8       11    13  36    3.8312   412.5    7.219      33.559
2015    8       11    13  43    3.8304   412.6    7.217      33.565
2015    8       11    13  50    3.8295   412.6    7.215      33.570
2015    8       11    13  57    3.8286   412.7    7.212      33.574
2015    8       11    14   3    3.8277   412.7    7.210      33.579
2015    8       11    14  10    3.8267   412.8    7.207      33.583
2015    8       11    14  17    3.8257   412.8    7.205      33.586
2015    8       11    14  24    3.8247   412.9    7.202      33.590
2015    8       11    14  31    3.8237   412.9    7.199      33.593
2015    8       11    14  37    3.8226   413.0    7.196      33.595
2015    8       11    14  44    3.8215   413.0    7.193      33.598
2015    8       11    14  51    3.8204   413.1    7.190      33.600
2015    8       11    14  58    3.8193   413.1    7.187      33.602
2015    8       11    15   5    3.8181   413.2    7.184      33.603
2015    8       11    15  11    3.8169   413.2    7.181      33.605
2015    8       11    15  18    3.8157   413.3    7.178      33.606
2015    8       11    15  25    3.8144   413.3    7.174      33.607
2015    8       11    15  32    3.8131   413.4    7.171      33.608
2015    8       11    15  38    3.8118   413.4    7.168      33.608
2015    8       11    15  45    3.8104   413.5    7.164      33.608
2015    8       11    15  52    3.8090   413.5    7.161      33.608
2015    8       11    15  59    3.8076   413.6    7.157      33.607
2015    8       11    16   6    3.8061   413.6    7.153      33.606
2015    8       11    16  12    3.8047   413.7    7.149      33.605
2015    8       11    16  19    3.8031   413.7    7.146      33.603
2015    8       11    16  26    3.8016   413.7    7.142      33.602
2015    8       11    16  33    3.8000   413.8    7.138      33.599
2015    8       11    16  40    3.7984   413.8    7.134      33.597
2015    8       11    16  46    3.7967   413.9    7.130      33.594
2015    8       11    16  53    3.7951   413.9    7.126      33.590
2015    8       11    17   0    3.7934   414.0    7.122      33.587
2015    8       11    17   7    3.7917   414.0    7.118      33.583
2015    8       11    17  13    3.7899   414.0    7.114      33.579
2015    8       11    17  20    3.7881   414.1    7.110      33.575
2015    8       11    17  27    3.7863   414.1    7.105      33.571
2015    8       11    17  34    3.7845   414.2    7.101      33.566
2015    8       11    17  41    3.7827   414.2    7.097      33.562
2015    8       11    17  47    3.7809   414.2    7.093      33.557
2015    8       11    17  54    3.7790   414.3    7.089      33.552
2015    8       11    18   1    3.7771   414.3    7.085      33.547
2015    8       11    18   8    3.7752   414.3    7.081      33.542
2015    8       11    18  15    3.7733   414.4    7.078      33.537
2015    8       11    18  21    3.7713   414.4    7.074      33.531
2015    8       11    18  28    3.7694   414.4    7.070      33.526
2015    8       11    18  35    3.7674   414.5    7.066      33.521
2015    8       11    18  42    3.7654   414.5    7.063      33.516
2015    8       11    18  49    3.7634   414.5    7.059      33.511
2015    8       11    18  55    3.7614   414.6    7.056      33.505
2015    8       11    19   2    3.7593   414.6    7.053      33.500
2015    8       11    19   9    3.7572   414.6    7.050      33.496
2015    8       11    19  16    3.7550   414.7    7.046      33.492
2015    8       11    19  22    3.7528   414.7    7.043      33.488
2015    8       11    19  29    3.7506   414.7    7.040      33.485
2015    8       11    19  36    3.7484   414.8    7.037      33.482
2015    8       11    19  43    3.7461   414.8    7.033      33.480
2015    8       11    19  50    3.7438   414.8    7.030      33.477
2015    8       11    19  56    3.7415   414.8    7.026      33.474
2015    8       11    20   3    3.7391   414.9    7.022      33.471
2015    8       11    20  10    3.7367   414.9    7.018      33.466
2015    8       11    20  17    3.7342   414.9    7.014      33.462
2015    8       11    20  24    3.7317   415.0    7.010      33.457
2015    8       11    20  30    3.7292   415.0    7.006      33.451
2015    8       11    20  37    3.7267   415.0    7.001      33.445
2015    8       11    20  44    3.7241   415.0    6.997      33.439
2015    8       11    20  51    3.7215   415.1    6.992      33.432
2015    8       11    20  57    3.7189   415.1    6.987      33.424
2015    8       11    21   4    3.7162   415.1    6.982      33.416
2015    8       11    21  11    3.7135   415.1    6.977      33.408
2015    8       11    21  18    3.7108   415.2    6.972      33.399
2015    8       11    21  25    3.7081   415.2    6.967      33.389
2015    8       11    21  31    3.7053   415.2    6.961      33.380
2015    8       11    21  38    3.7025   415.2    6.956      33.370
2015    8       11    21  45    3.6997   415.2    6.950      33.359
2015    8       11    21  52    3.6968   415.3    6.945      33.348
2015    8       11    21  59    3.6940   415.3    6.939      33.336
2015    8       11    22   5    3.6911   415.3    6.933      33.325
2015    8       11    22  12    3.6881   415.3    6.928      33.312
2015    8       11    22  19    3.6852   415.3    6.922      33.300
2015    8       11    22  26    3.6822   415.4    6.916      33.287
2015    8       11    22  32    3.6793   415.4    6.910      33.274
2015    8       11    22  39    3.6762   415.4    6.904      33.260
2015    8       11    22  46    3.6732   415.4    6.898      33.246
2015    8       11    22  53    3.6701   415.4    6.892      33.232
2015    8       11    23   0    3.6671   415.4    6.885      33.218
2015    8       11    23   6    3.6640   415.4    6.879      33.203
2015    8       11    23  13    3.6608   415.5    6.873      33.188
2015    8       11    23  20    3.6577   415.5    6.866      33.173
2015    8       11    23  27    3.6546   415.5    6.860      33.157
2015    8       11    23  34    3.6514   415.5    6.854      33.141
2015    8       11    23  40    3.6482   415.5    6.847      33.125
2015    8       11    23  47    3.6450   415.5    6.841      33.109
2015    8       11    23  54    3.6418   415.5    6.834      33.092
2015    8       12     0   1    3.6385   415.5    6.828      33.075
