year    month   day   hour  minute  B_enl V_enl   n_enl       T_enl
[year] [month] [day] [hour][minute] [nT]  [km/s]  [cm-3]      [kK]
2015    8       24     0   4    2.1786   462.3    3.329      27.182
2015    8       24     0  11    2.1769   462.0    3.329      27.132
2015    8       24     0  18    2.1752   461.6    3.330      27.081
2015    8       24     0  25    2.1736   461.2    3.330      27.031
2015    8       24     0  31    2.1719   460.9    3.330      26.980
2015    8       24     0  38    2.1702   460.5    3.331      26.930
2015    8       24     0  45    2.1686   460.1    3.331      26.879
2015    8       24     0  52    2.1669   459.8    3.332      26.829
2015    8       24     0  59    2.1653   459.4    3.332      26.779
2015    8       24     1   6    2.1637   459.0    3.333      26.729
2015    8       24     1  13    2.1621   458.7    3.333      26.678
2015    8       24     1  19    2.1605   458.3    3.334      26.628
2015    8       24     1  26    2.1590   457.9    3.335      26.578
2015    8       24     1  33    2.1574   457.5    3.336      26.529
2015    8       24     1  40    2.1559   457.2    3.336      26.479
2015    8       24     1  47    2.1544   456.8    3.337      26.430
2015    8       24     1  54    2.1529   456.4    3.339      26.381
2015    8       24     2   1    2.1515   456.0    3.340      26.333
2015    8       24     2   8    2.1501   455.6    3.341      26.285
2015    8       24     2  14    2.1487   455.3    3.342      26.238
2015    8       24     2  21    2.1474   454.9    3.344      26.190
2015    8       24     2  28    2.1461   454.5    3.346      26.144
2015    8       24     2  35    2.1448   454.1    3.347      26.097
2015    8       24     2  42    2.1436   453.7    3.349      26.052
2015    8       24     2  49    2.1424   453.3    3.351      26.006
2015    8       24     2  56    2.1412   453.0    3.353      25.962
2015    8       24     3   3    2.1401   452.6    3.355      25.917
2015    8       24     3  10    2.1391   452.2    3.358      25.874
2015    8       24     3  17    2.1380   451.8    3.360      25.830
2015    8       24     3  23    2.1370   451.4    3.363      25.788
2015    8       24     3  30    2.1361   451.0    3.365      25.745
2015    8       24     3  37    2.1352   450.6    3.368      25.703
2015    8       24     3  44    2.1343   450.3    3.371      25.661
2015    8       24     3  51    2.1334   449.9    3.374      25.620
2015    8       24     3  58    2.1326   449.5    3.377      25.579
2015    8       24     4   5    2.1318   449.1    3.380      25.539
2015    8       24     4  12    2.1310   448.7    3.383      25.499
2015    8       24     4  19    2.1303   448.3    3.386      25.459
2015    8       24     4  26    2.1295   447.9    3.389      25.419
2015    8       24     4  33    2.1288   447.6    3.393      25.380
2015    8       24     4  39    2.1281   447.2    3.396      25.341
2015    8       24     4  46    2.1274   446.8    3.399      25.302
2015    8       24     4  53    2.1268   446.4    3.403      25.263
2015    8       24     5   0    2.1261   446.0    3.406      25.225
2015    8       24     5   7    2.1254   445.6    3.410      25.187
2015    8       24     5  14    2.1248   445.2    3.413      25.149
2015    8       24     5  21    2.1241   444.8    3.417      25.111
2015    8       24     5  28    2.1235   444.5    3.421      25.073
2015    8       24     5  35    2.1228   444.1    3.424      25.035
2015    8       24     5  42    2.1222   443.7    3.428      24.998
2015    8       24     5  49    2.1216   443.3    3.432      24.960
2015    8       24     5  56    2.1210   442.9    3.436      24.923
2015    8       24     6   3    2.1204   442.5    3.439      24.886
2015    8       24     6   9    2.1199   442.1    3.443      24.849
2015    8       24     6  16    2.1193   441.7    3.447      24.813
2015    8       24     6  23    2.1188   441.3    3.451      24.776
2015    8       24     6  30    2.1183   440.9    3.455      24.740
2015    8       24     6  37    2.1178   440.5    3.459      24.704
2015    8       24     6  44    2.1173   440.1    3.463      24.668
2015    8       24     6  51    2.1169   439.7    3.467      24.633
2015    8       24     6  58    2.1164   439.3    3.471      24.597
2015    8       24     7   5    2.1160   438.9    3.476      24.562
2015    8       24     7  12    2.1157   438.5    3.480      24.527
2015    8       24     7  18    2.1153   438.1    3.484      24.493
2015    8       24     7  25    2.1150   437.7    3.489      24.458
2015    8       24     7  32    2.1147   437.3    3.493      24.424
2015    8       24     7  39    2.1144   436.9    3.498      24.390
2015    8       24     7  46    2.1141   436.5    3.502      24.356
2015    8       24     7  53    2.1139   436.1    3.507      24.322
2015    8       24     7  59    2.1137   435.7    3.512      24.288
2015    8       24     8   6    2.1136   435.3    3.517      24.255
2015    8       24     8  13    2.1134   434.9    3.521      24.221
2015    8       24     8  20    2.1134   434.5    3.526      24.188
2015    8       24     8  27    2.1133   434.1    3.531      24.155
2015    8       24     8  34    2.1133   433.7    3.537      24.122
2015    8       24     8  41    2.1133   433.3    3.542      24.090
2015    8       24     8  48    2.1134   432.9    3.547      24.057
2015    8       24     8  54    2.1134   432.5    3.553      24.025
2015    8       24     9   1    2.1136   432.1    3.558      23.992
2015    8       24     9   8    2.1138   431.7    3.564      23.960
2015    8       24     9  15    2.1140   431.3    3.569      23.928
2015    8       24     9  22    2.1142   430.9    3.575      23.897
2015    8       24     9  29    2.1146   430.5    3.581      23.866
2015    8       24     9  36    2.1149   430.1    3.587      23.835
2015    8       24     9  43    2.1153   429.7    3.593      23.803
2015    8       24     9  49    2.1158   429.3    3.599      23.773
2015    8       24     9  56    2.1163   428.9    3.606      23.743
2015    8       24    10   3    2.1168   428.5    3.612      23.713
2015    8       24    10  10    2.1174   428.1    3.619      23.683
2015    8       24    10  17    2.1180   427.7    3.625      23.654
2015    8       24    10  24    2.1187   427.3    3.632      23.624
2015    8       24    10  31    2.1194   426.9    3.639      23.596
2015    8       24    10  38    2.1202   426.5    3.646      23.567
2015    8       24    10  45    2.1210   426.1    3.653      23.539
2015    8       24    10  52    2.1219   425.7    3.660      23.511
2015    8       24    10  58    2.1228   425.3    3.667      23.483
2015    8       24    11   5    2.1237   424.9    3.674      23.456
2015    8       24    11  12    2.1247   424.5    3.682      23.429
2015    8       24    11  19    2.1257   424.1    3.689      23.402
2015    8       24    11  26    2.1267   423.7    3.697      23.376
2015    8       24    11  33    2.1278   423.3    3.704      23.349
2015    8       24    11  40    2.1289   422.9    3.712      23.323
2015    8       24    11  47    2.1301   422.5    3.720      23.298
2015    8       24    11  54    2.1313   422.1    3.728      23.273
2015    8       24    12   1    2.1325   421.8    3.736      23.247
2015    8       24    12   8    2.1337   421.4    3.744      23.223
2015    8       24    12  15    2.1350   421.0    3.752      23.198
2015    8       24    12  21    2.1363   420.6    3.760      23.174
2015    8       24    12  28    2.1376   420.2    3.769      23.150
2015    8       24    12  35    2.1390   419.8    3.777      23.127
2015    8       24    12  42    2.1404   419.4    3.785      23.103
2015    8       24    12  49    2.1418   419.1    3.794      23.081
2015    8       24    12  56    2.1433   418.7    3.803      23.058
2015    8       24    13   3    2.1448   418.3    3.811      23.036
2015    8       24    13  10    2.1464   417.9    3.820      23.014
2015    8       24    13  17    2.1479   417.5    3.829      22.993
2015    8       24    13  24    2.1495   417.2    3.838      22.972
2015    8       24    13  31    2.1512   416.8    3.847      22.951
2015    8       24    13  38    2.1529   416.4    3.856      22.931
2015    8       24    13  45    2.1546   416.0    3.866      22.911
2015    8       24    13  51    2.1563   415.6    3.875      22.892
2015    8       24    13  58    2.1581   415.3    3.885      22.873
2015    8       24    14   5    2.1600   414.9    3.895      22.855
2015    8       24    14  12    2.1618   414.5    3.904      22.837
2015    8       24    14  19    2.1638   414.2    3.914      22.820
2015    8       24    14  26    2.1658   413.8    3.924      22.803
2015    8       24    14  33    2.1678   413.4    3.934      22.786
2015    8       24    14  40    2.1698   413.1    3.945      22.770
2015    8       24    14  46    2.1719   412.7    3.955      22.755
2015    8       24    14  53    2.1741   412.4    3.966      22.739
2015    8       24    15   0    2.1763   412.0    3.976      22.724
2015    8       24    15   7    2.1785   411.6    3.987      22.710
2015    8       24    15  14    2.1808   411.3    3.998      22.696
2015    8       24    15  21    2.1832   410.9    4.009      22.683
2015    8       24    15  28    2.1856   410.6    4.020      22.669
2015    8       24    15  34    2.1880   410.2    4.031      22.656
2015    8       24    15  41    2.1905   409.9    4.042      22.644
2015    8       24    15  48    2.1930   409.5    4.054      22.631
2015    8       24    15  55    2.1956   409.2    4.065      22.619
2015    8       24    16   2    2.1982   408.8    4.077      22.608
2015    8       24    16   9    2.2009   408.5    4.089      22.596
2015    8       24    16  16    2.2036   408.1    4.100      22.585
2015    8       24    16  23    2.2064   407.8    4.112      22.575
2015    8       24    16  29    2.2092   407.5    4.124      22.564
2015    8       24    16  36    2.2121   407.1    4.136      22.554
2015    8       24    16  43    2.2150   406.8    4.148      22.544
2015    8       24    16  50    2.2180   406.5    4.161      22.534
2015    8       24    16  57    2.2209   406.1    4.173      22.524
2015    8       24    17   4    2.2240   405.8    4.185      22.515
2015    8       24    17  11    2.2271   405.5    4.198      22.506
2015    8       24    17  18    2.2302   405.1    4.210      22.497
2015    8       24    17  24    2.2334   404.8    4.223      22.488
2015    8       24    17  31    2.2366   404.5    4.235      22.479
2015    8       24    17  38    2.2398   404.2    4.248      22.471
2015    8       24    17  45    2.2431   403.8    4.261      22.463
2015    8       24    17  52    2.2465   403.5    4.273      22.455
2015    8       24    17  59    2.2499   403.2    4.286      22.447
2015    8       24    18   6    2.2533   402.9    4.299      22.439
2015    8       24    18  13    2.2568   402.5    4.312      22.432
2015    8       24    18  20    2.2603   402.2    4.325      22.425
2015    8       24    18  27    2.2638   401.9    4.338      22.418
2015    8       24    18  34    2.2674   401.6    4.351      22.411
2015    8       24    18  40    2.2710   401.3    4.365      22.404
2015    8       24    18  47    2.2747   401.0    4.378      22.398
2015    8       24    18  54    2.2784   400.6    4.391      22.392
2015    8       24    19   1    2.2821   400.3    4.405      22.386
2015    8       24    19   8    2.2859   400.0    4.418      22.380
2015    8       24    19  15    2.2897   399.7    4.432      22.375
2015    8       24    19  22    2.2936   399.4    4.446      22.370
2015    8       24    19  29    2.2974   399.1    4.459      22.365
2015    8       24    19  36    2.3014   398.8    4.473      22.360
2015    8       24    19  43    2.3053   398.5    4.487      22.356
2015    8       24    19  50    2.3093   398.2    4.501      22.352
2015    8       24    19  57    2.3133   397.9    4.515      22.348
2015    8       24    20   4    2.3174   397.6    4.530      22.344
2015    8       24    20  10    2.3215   397.3    4.544      22.341
2015    8       24    20  17    2.3256   397.0    4.558      22.338
2015    8       24    20  24    2.3297   396.7    4.573      22.336
2015    8       24    20  31    2.3339   396.4    4.587      22.333
2015    8       24    20  38    2.3381   396.1    4.602      22.331
2015    8       24    20  45    2.3424   395.8    4.616      22.330
2015    8       24    20  52    2.3466   395.5    4.631      22.329
2015    8       24    20  59    2.3509   395.2    4.646      22.328
2015    8       24    21   6    2.3552   395.0    4.661      22.327
2015    8       24    21  13    2.3596   394.7    4.676      22.327
2015    8       24    21  20    2.3639   394.4    4.691      22.327
2015    8       24    21  26    2.3684   394.1    4.706      22.327
2015    8       24    21  33    2.3728   393.8    4.722      22.328
2015    8       24    21  40    2.3773   393.6    4.737      22.328
2015    8       24    21  47    2.3817   393.3    4.753      22.330
2015    8       24    21  54    2.3863   393.0    4.768      22.331
2015    8       24    22   1    2.3908   392.8    4.784      22.333
2015    8       24    22   8    2.3954   392.5    4.800      22.335
2015    8       24    22  14    2.4001   392.2    4.815      22.338
2015    8       24    22  21    2.4047   392.0    4.831      22.340
2015    8       24    22  28    2.4094   391.7    4.847      22.344
2015    8       24    22  35    2.4142   391.4    4.864      22.347
2015    8       24    22  42    2.4189   391.2    4.880      22.351
2015    8       24    22  49    2.4238   390.9    4.896      22.355
2015    8       24    22  56    2.4286   390.7    4.912      22.359
2015    8       24    23   2    2.4335   390.4    4.929      22.363
2015    8       24    23   9    2.4385   390.1    4.946      22.368
2015    8       24    23  16    2.4435   389.9    4.963      22.373
2015    8       24    23  23    2.4485   389.6    4.979      22.379
2015    8       24    23  30    2.4536   389.4    4.996      22.384
2015    8       24    23  37    2.4587   389.1    5.014      22.390
2015    8       24    23  44    2.4639   388.9    5.031      22.397
2015    8       24    23  50    2.4692   388.6    5.048      22.404
2015    8       24    23  57    2.4745   388.4    5.066      22.411
2015    8       25     0   4    2.4798   388.2    5.084      22.419
2015    8       25     0  11    2.4853   387.9    5.102      22.427
2015    8       25     0  18    2.4908   387.7    5.119      22.436
2015    8       25     0  25    2.4964   387.5    5.138      22.445
2015    8       25     0  32    2.5019   387.2    5.156      22.455
2015    8       25     0  39    2.5077   387.0    5.175      22.465
2015    8       25     0  46    2.5134   386.8    5.193      22.475
2015    8       25     0  52    2.5193   386.5    5.212      22.486
2015    8       25     0  59    2.5252   386.3    5.231      22.498
2015    8       25     1   6    2.5312   386.1    5.251      22.511
2015    8       25     1  13    2.5372   385.9    5.270      22.523
2015    8       25     1  20    2.5433   385.6    5.290      22.537
2015    8       25     1  27    2.5495   385.4    5.310      22.551
2015    8       25     1  34    2.5557   385.2    5.330      22.566
2015    8       25     1  41    2.5619   385.0    5.350      22.581
2015    8       25     1  48    2.5682   384.8    5.371      22.598
2015    8       25     1  55    2.5745   384.6    5.391      22.615
2015    8       25     2   1    2.5809   384.4    5.411      22.633
2015    8       25     2   8    2.5872   384.2    5.432      22.652
2015    8       25     2  15    2.5937   384.0    5.452      22.672
2015    8       25     2  22    2.6000   383.8    5.473      22.692
2015    8       25     2  29    2.6065   383.6    5.493      22.714
2015    8       25     2  36    2.6128   383.4    5.514      22.735
2015    8       25     2  43    2.6193   383.2    5.534      22.758
2015    8       25     2  50    2.6257   383.0    5.555      22.780
2015    8       25     2  57    2.6322   382.8    5.576      22.803
2015    8       25     3   4    2.6386   382.6    5.596      22.826
2015    8       25     3  11    2.6451   382.5    5.617      22.848
2015    8       25     3  18    2.6515   382.3    5.637      22.871
2015    8       25     3  25    2.6580   382.1    5.658      22.894
2015    8       25     3  31    2.6645   381.9    5.678      22.917
2015    8       25     3  38    2.6710   381.7    5.699      22.940
2015    8       25     3  45    2.6775   381.6    5.719      22.963
2015    8       25     3  52    2.6841   381.4    5.740      22.986
2015    8       25     3  59    2.6906   381.2    5.760      23.009
2015    8       25     4   6    2.6971   381.0    5.781      23.032
2015    8       25     4  13    2.7037   380.9    5.802      23.055
2015    8       25     4  20    2.7103   380.7    5.822      23.079
2015    8       25     4  27    2.7168   380.5    5.843      23.102
2015    8       25     4  34    2.7234   380.3    5.863      23.125
2015    8       25     4  41    2.7300   380.2    5.884      23.148
2015    8       25     4  47    2.7367   380.0    5.904      23.171
2015    8       25     4  54    2.7433   379.8    5.925      23.194
2015    8       25     5   1    2.7500   379.7    5.946      23.217
2015    8       25     5   8    2.7567   379.5    5.966      23.240
2015    8       25     5  15    2.7635   379.4    5.987      23.263
2015    8       25     5  22    2.7702   379.2    6.008      23.287
2015    8       25     5  29    2.7771   379.0    6.028      23.310
2015    8       25     5  35    2.7839   378.9    6.049      23.334
2015    8       25     5  42    2.7909   378.7    6.070      23.357
2015    8       25     5  49    2.7978   378.6    6.091      23.381
2015    8       25     5  56    2.8049   378.4    6.113      23.405
2015    8       25     6   3    2.8119   378.3    6.134      23.430
2015    8       25     6  10    2.8191   378.1    6.156      23.454
2015    8       25     6  17    2.8263   378.0    6.178      23.479
2015    8       25     6  23    2.8336   377.8    6.200      23.505
2015    8       25     6  30    2.8410   377.7    6.222      23.530
2015    8       25     6  37    2.8485   377.5    6.245      23.556
2015    8       25     6  44    2.8560   377.4    6.267      23.583
2015    8       25     6  51    2.8637   377.2    6.291      23.610
2015    8       25     6  58    2.8715   377.1    6.314      23.637
2015    8       25     7   5    2.8794   377.0    6.338      23.666
2015    8       25     7  11    2.8874   376.8    6.362      23.695
2015    8       25     7  18    2.8955   376.7    6.387      23.724
2015    8       25     7  25    2.9038   376.6    6.412      23.754
2015    8       25     7  32    2.9122   376.5    6.438      23.785
2015    8       25     7  39    2.9206   376.3    6.465      23.817
2015    8       25     7  46    2.9293   376.2    6.492      23.849
2015    8       25     7  53    2.9379   376.1    6.519      23.883
2015    8       25     8   0    2.9467   376.0    6.547      23.919
2015    8       25     8   7    2.9555   375.9    6.574      23.956
2015    8       25     8  13    2.9645   375.8    6.602      23.997
2015    8       25     8  20    2.9734   375.7    6.630      24.040
2015    8       25     8  27    2.9824   375.7    6.658      24.086
2015    8       25     8  34    2.9913   375.6    6.686      24.134
2015    8       25     8  41    3.0004   375.5    6.714      24.184
2015    8       25     8  48    3.0093   375.5    6.741      24.237
2015    8       25     8  55    3.0183   375.4    6.768      24.291
2015    8       25     9   2    3.0272   375.4    6.795      24.345
2015    8       25     9   9    3.0361   375.3    6.822      24.401
2015    8       25     9  16    3.0450   375.3    6.848      24.456
2015    8       25     9  22    3.0538   375.2    6.874      24.512
2015    8       25     9  29    3.0626   375.2    6.900      24.568
2015    8       25     9  36    3.0714   375.1    6.925      24.624
2015    8       25     9  43    3.0800   375.1    6.950      24.679
2015    8       25     9  50    3.0888   375.0    6.975      24.734
2015    8       25     9  57    3.0974   375.0    7.000      24.789
2015    8       25    10   4    3.1061   374.9    7.024      24.843
2015    8       25    10  11    3.1146   374.9    7.048      24.897
2015    8       25    10  18    3.1233   374.8    7.073      24.950
2015    8       25    10  25    3.1318   374.8    7.096      25.002
2015    8       25    10  32    3.1405   374.7    7.120      25.053
2015    8       25    10  39    3.1490   374.7    7.144      25.104
2015    8       25    10  46    3.1576   374.6    7.167      25.154
2015    8       25    10  52    3.1662   374.6    7.190      25.203
2015    8       25    10  59    3.1748   374.5    7.213      25.252
2015    8       25    11   6    3.1834   374.5    7.236      25.300
2015    8       25    11  13    3.1920   374.5    7.259      25.348
2015    8       25    11  20    3.2006   374.4    7.282      25.396
2015    8       25    11  27    3.2092   374.4    7.305      25.443
2015    8       25    11  34    3.2178   374.3    7.327      25.489
2015    8       25    11  41    3.2265   374.3    7.350      25.535
2015    8       25    11  48    3.2352   374.2    7.372      25.581
2015    8       25    11  55    3.2439   374.2    7.394      25.627
2015    8       25    12   2    3.2526   374.2    7.417      25.673
2015    8       25    12   8    3.2615   374.1    7.439      25.718
2015    8       25    12  15    3.2702   374.1    7.461      25.764
2015    8       25    12  22    3.2792   374.1    7.484      25.809
2015    8       25    12  29    3.2881   374.0    7.506      25.855
2015    8       25    12  36    3.2971   374.0    7.529      25.900
2015    8       25    12  43    3.3061   374.0    7.552      25.946
2015    8       25    12  50    3.3152   373.9    7.575      25.992
2015    8       25    12  56    3.3244   373.9    7.597      26.037
2015    8       25    13   3    3.3337   373.9    7.620      26.083
2015    8       25    13  10    3.3429   373.9    7.644      26.130
2015    8       25    13  17    3.3524   373.8    7.667      26.176
2015    8       25    13  24    3.3618   373.8    7.691      26.223
2015    8       25    13  31    3.3714   373.8    7.715      26.270
2015    8       25    13  38    3.3810   373.8    7.739      26.317
2015    8       25    13  44    3.3908   373.8    7.764      26.366
2015    8       25    13  51    3.4007   373.8    7.788      26.414
2015    8       25    13  58    3.4107   373.8    7.814      26.463
2015    8       25    14   5    3.4207   373.8    7.840      26.513
2015    8       25    14  12    3.4309   373.8    7.866      26.563
2015    8       25    14  19    3.4412   373.8    7.893      26.614
2015    8       25    14  26    3.4516   373.8    7.921      26.666
2015    8       25    14  32    3.4621   373.8    7.949      26.719
2015    8       25    14  39    3.4728   373.8    7.978      26.772
2015    8       25    14  46    3.4834   373.8    8.007      26.826
2015    8       25    14  53    3.4943   373.8    8.037      26.882
2015    8       25    15   0    3.5051   373.8    8.068      26.939
2015    8       25    15   7    3.5161   373.8    8.099      26.998
2015    8       25    15  14    3.5270   373.8    8.131      27.058
2015    8       25    15  21    3.5380   373.9    8.162      27.123
2015    8       25    15  28    3.5490   373.9    8.194      27.192
2015    8       25    15  34    3.5600   374.0    8.225      27.266
2015    8       25    15  41    3.5710   374.1    8.255      27.343
2015    8       25    15  48    3.5820   374.1    8.286      27.424
2015    8       25    15  55    3.5928   374.2    8.315      27.507
2015    8       25    16   2    3.6037   374.3    8.344      27.594
2015    8       25    16   9    3.6144   374.4    8.372      27.682
2015    8       25    16  16    3.6252   374.4    8.400      27.770
2015    8       25    16  23    3.6357   374.5    8.427      27.858
2015    8       25    16  30    3.6463   374.6    8.454      27.946
2015    8       25    16  37    3.6568   374.7    8.480      28.033
2015    8       25    16  44    3.6672   374.7    8.505      28.120
2015    8       25    16  50    3.6776   374.8    8.530      28.205
2015    8       25    16  57    3.6880   374.9    8.555      28.290
2015    8       25    17   4    3.6982   375.0    8.579      28.373
2015    8       25    17  11    3.7086   375.0    8.603      28.456
2015    8       25    17  18    3.7189   375.1    8.626      28.537
2015    8       25    17  25    3.7293   375.2    8.650      28.618
2015    8       25    17  32    3.7395   375.3    8.673      28.697
2015    8       25    17  39    3.7500   375.3    8.696      28.777
2015    8       25    17  46    3.7603   375.4    8.719      28.854
2015    8       25    17  53    3.7708   375.5    8.741      28.932
2015    8       25    18   0    3.7812   375.6    8.764      29.009
2015    8       25    18   7    3.7919   375.7    8.786      29.086
2015    8       25    18  14    3.8023   375.7    8.808      29.164
2015    8       25    18  21    3.8130   375.8    8.830      29.242
2015    8       25    18  27    3.8236   375.9    8.852      29.319
2015    8       25    18  34    3.8343   376.0    8.874      29.398
2015    8       25    18  41    3.8449   376.1    8.895      29.475
2015    8       25    18  48    3.8557   376.2    8.916      29.553
2015    8       25    18  55    3.8664   376.3    8.937      29.629
2015    8       25    19   2    3.8772   376.4    8.958      29.706
2015    8       25    19   9    3.8879   376.5    8.978      29.781
2015    8       25    19  16    3.8988   376.6    8.998      29.857
2015    8       25    19  23    3.9095   376.7    9.018      29.931
2015    8       25    19  30    3.9204   376.8    9.038      30.005
2015    8       25    19  37    3.9312   376.9    9.057      30.078
2015    8       25    19  44    3.9422   377.0    9.077      30.152
2015    8       25    19  51    3.9530   377.1    9.096      30.224
2015    8       25    19  58    3.9640   377.2    9.115      30.296
2015    8       25    20   5    3.9749   377.3    9.134      30.367
2015    8       25    20  12    3.9859   377.4    9.153      30.438
2015    8       25    20  18    3.9968   377.5    9.171      30.508
2015    8       25    20  25    4.0078   377.7    9.190      30.578
2015    8       25    20  32    4.0187   377.8    9.209      30.647
2015    8       25    20  39    4.0298   377.9    9.227      30.717
2015    8       25    20  46    4.0407   378.0    9.246      30.785
2015    8       25    20  53    4.0517   378.1    9.264      30.854
2015    8       25    21   0    4.0627   378.2    9.283      30.921
2015    8       25    21   7    4.0737   378.3    9.302      30.989
2015    8       25    21  14    4.0847   378.4    9.320      31.057
2015    8       25    21  21    4.0958   378.5    9.339      31.125
2015    8       25    21  28    4.1068   378.6    9.358      31.192
2015    8       25    21  35    4.1179   378.7    9.378      31.259
2015    8       25    21  42    4.1289   378.8    9.397      31.327
2015    8       25    21  49    4.1400   378.9    9.417      31.394
2015    8       25    21  55    4.1511   379.0    9.437      31.461
2015    8       25    22   2    4.1622   379.2    9.457      31.530
2015    8       25    22   9    4.1732   379.3    9.478      31.598
2015    8       25    22  16    4.1843   379.4    9.499      31.668
2015    8       25    22  23    4.1953   379.5    9.520      31.738
2015    8       25    22  30    4.2064   379.6    9.541      31.810
2015    8       25    22  37    4.2175   379.7    9.563      31.884
2015    8       25    22  44    4.2286   379.8    9.584      31.961
2015    8       25    22  51    4.2397   379.9    9.605      32.040
2015    8       25    22  58    4.2508   380.1    9.627      32.122
2015    8       25    23   5    4.2619   380.2    9.649      32.205
2015    8       25    23  12    4.2730   380.3    9.670      32.290
2015    8       25    23  18    4.2841   380.4    9.692      32.378
2015    8       25    23  25    4.2952   380.5    9.713      32.467
2015    8       25    23  32    4.3063   380.7    9.735      32.557
2015    8       25    23  39    4.3175   380.8    9.757      32.649
2015    8       25    23  46    4.3286   380.9    9.778      32.742
2015    8       25    23  53    4.3399   381.1    9.801      32.836
2015    8       26     0   0    4.3511   381.2    9.823      32.931
2015    8       26     0   7    4.3625   381.3    9.845      33.026
2015    8       26     0  14    4.3739   381.4    9.868      33.123
2015    8       26     0  21    4.3854   381.6    9.891      33.221
2015    8       26     0  28    4.3969   381.7    9.914      33.320
2015    8       26     0  35    4.4086   381.9    9.937      33.422
2015    8       26     0  41    4.4203   382.0    9.960      33.524
2015    8       26     0  48    4.4322   382.2    9.983      33.629
2015    8       26     0  55    4.4441   382.3   10.006      33.734
2015    8       26     1   2    4.4562   382.5   10.029      33.841
2015    8       26     1   9    4.4681   382.6   10.052      33.947
2015    8       26     1  16    4.4804   382.8   10.075      34.055
2015    8       26     1  23    4.4926   383.0   10.099      34.164
2015    8       26     1  30    4.5050   383.1   10.122      34.275
2015    8       26     1  37    4.5172   383.3   10.146      34.386
2015    8       26     1  44    4.5298   383.5   10.170      34.498
2015    8       26     1  51    4.5423   383.7   10.195      34.610
2015    8       26     1  58    4.5551   383.8   10.220      34.723
2015    8       26     2   5    4.5678   384.0   10.245      34.837
2015    8       26     2  12    4.5808   384.2   10.270      34.953
2015    8       26     2  19    4.5938   384.4   10.295      35.072
2015    8       26     2  26    4.6070   384.6   10.321      35.195
2015    8       26     2  32    4.6203   384.8   10.345      35.319
2015    8       26     2  39    4.6337   385.0   10.370      35.447
2015    8       26     2  46    4.6470   385.3   10.394      35.573
2015    8       26     2  53    4.6603   385.5   10.417      35.700
2015    8       26     3   0    4.6734   385.8   10.439      35.824
2015    8       26     3   7    4.6865   386.0   10.460      35.948
2015    8       26     3  14    4.6993   386.3   10.480      36.069
2015    8       26     3  21    4.7121   386.5   10.500      36.190
2015    8       26     3  28    4.7246   386.8   10.518      36.307
2015    8       26     3  35    4.7371   387.0   10.535      36.423
2015    8       26     3  42    4.7493   387.3   10.551      36.537
2015    8       26     3  49    4.7615   387.6   10.567      36.649
2015    8       26     3  56    4.7734   387.8   10.581      36.759
2015    8       26     4   3    4.7853   388.1   10.595      36.868
2015    8       26     4  10    4.7970   388.4   10.608      36.975
2015    8       26     4  16    4.8086   388.6   10.620      37.082
2015    8       26     4  23    4.8200   388.9   10.631      37.186
2015    8       26     4  30    4.8314   389.2   10.642      37.289
2015    8       26     4  37    4.8426   389.4   10.652      37.391
2015    8       26     4  44    4.8539   389.7   10.661      37.492
2015    8       26     4  51    4.8649   390.0   10.670      37.591
2015    8       26     4  58    4.8760   390.3   10.678      37.690
2015    8       26     5   5    4.8868   390.5   10.686      37.787
2015    8       26     5  12    4.8978   390.8   10.693      37.883
2015    8       26     5  19    4.9085   391.1   10.699      37.978
2015    8       26     5  26    4.9193   391.3   10.706      38.072
2015    8       26     5  33    4.9299   391.6   10.712      38.165
2015    8       26     5  40    4.9405   391.9   10.717      38.258
2015    8       26     5  46    4.9510   392.1   10.723      38.349
2015    8       26     5  53    4.9616   392.4   10.728      38.440
2015    8       26     6   0    4.9720   392.6   10.733      38.529
2015    8       26     6   7    4.9825   392.9   10.738      38.619
2015    8       26     6  14    4.9929   393.2   10.743      38.708
2015    8       26     6  21    5.0034   393.4   10.748      38.797
2015    8       26     6  28    5.0137   393.7   10.753      38.886
2015    8       26     6  35    5.0242   393.9   10.758      38.975
2015    8       26     6  42    5.0345   394.1   10.763      39.063
2015    8       26     6  49    5.0450   394.4   10.768      39.152
2015    8       26     6  56    5.0555   394.6   10.774      39.242
2015    8       26     7   2    5.0661   394.9   10.780      39.332
2015    8       26     7   9    5.0767   395.1   10.787      39.422
2015    8       26     7  16    5.0874   395.4   10.793      39.513
2015    8       26     7  23    5.0981   395.6   10.800      39.604
2015    8       26     7  30    5.1089   395.9   10.808      39.696
2015    8       26     7  37    5.1197   396.1   10.815      39.791
2015    8       26     7  44    5.1307   396.4   10.823      39.887
2015    8       26     7  51    5.1416   396.6   10.830      39.984
2015    8       26     7  58    5.1527   396.9   10.838      40.083
2015    8       26     8   5    5.1637   397.1   10.845      40.182
2015    8       26     8  12    5.1749   397.4   10.853      40.283
2015    8       26     8  19    5.1860   397.7   10.861      40.384
2015    8       26     8  26    5.1973   397.9   10.869      40.486
2015    8       26     8  32    5.2084   398.2   10.877      40.588
2015    8       26     8  39    5.2197   398.5   10.885      40.691
2015    8       26     8  46    5.2310   398.7   10.894      40.793
2015    8       26     8  53    5.2424   399.0   10.904      40.897
2015    8       26     9   0    5.2537   399.2   10.914      41.000
2015    8       26     9   7    5.2652   399.5   10.926      41.105
2015    8       26     9  14    5.2767   399.7   10.938      41.210
2015    8       26     9  21    5.2884   400.0   10.951      41.318
2015    8       26     9  28    5.3002   400.2   10.965      41.427
2015    8       26     9  35    5.3121   400.5   10.979      41.541
2015    8       26     9  42    5.3241   400.8   10.994      41.658
2015    8       26     9  49    5.3362   401.0   11.010      41.780
2015    8       26     9  56    5.3484   401.3   11.026      41.904
2015    8       26    10   3    5.3607   401.6   11.043      42.031
2015    8       26    10  10    5.3729   401.9   11.060      42.158
2015    8       26    10  17    5.3852   402.2   11.077      42.289
2015    8       26    10  23    5.3974   402.5   11.095      42.421
2015    8       26    10  30    5.4097   402.8   11.113      42.554
2015    8       26    10  37    5.4219   403.1   11.132      42.686
2015    8       26    10  44    5.4343   403.4   11.151      42.821
2015    8       26    10  51    5.4468   403.7   11.170      42.960
2015    8       26    10  58    5.4593   404.1   11.190      43.106
2015    8       26    11   5    5.4719   404.4   11.209      43.255
2015    8       26    11  12    5.4846   404.7   11.227      43.408
2015    8       26    11  19    5.4971   405.1   11.245      43.564
2015    8       26    11  26    5.5098   405.5   11.262      43.726
2015    8       26    11  33    5.5224   405.9   11.277      43.889
2015    8       26    11  40    5.5350   406.3   11.292      44.054
2015    8       26    11  47    5.5473   406.7   11.305      44.216
2015    8       26    11  53    5.5597   407.1   11.318      44.378
2015    8       26    12   0    5.5717   407.5   11.329      44.536
2015    8       26    12   7    5.5838   407.9   11.340      44.694
2015    8       26    12  14    5.5957   408.3   11.349      44.850
2015    8       26    12  21    5.6074   408.8   11.357      45.006
2015    8       26    12  28    5.6189   409.2   11.363      45.159
2015    8       26    12  35    5.6303   409.6   11.368      45.311
2015    8       26    12  42    5.6415   410.1   11.372      45.460
2015    8       26    12  49    5.6526   410.6   11.375      45.608
2015    8       26    12  56    5.6634   411.0   11.377      45.752
2015    8       26    13   3    5.6741   411.5   11.378      45.896
2015    8       26    13   9    5.6845   412.0   11.378      46.037
2015    8       26    13  16    5.6949   412.4   11.376      46.177
2015    8       26    13  23    5.7050   412.9   11.373      46.314
2015    8       26    13  30    5.7150   413.4   11.370      46.450
2015    8       26    13  37    5.7247   413.9   11.365      46.582
2015    8       26    13  44    5.7343   414.4   11.359      46.714
2015    8       26    13  51    5.7436   414.9   11.352      46.843
2015    8       26    13  58    5.7529   415.4   11.344      46.970
2015    8       26    14   5    5.7618   415.9   11.335      47.095
2015    8       26    14  12    5.7707   416.4   11.325      47.219
2015    8       26    14  19    5.7794   416.9   11.314      47.340
2015    8       26    14  26    5.7880   417.4   11.302      47.460
2015    8       26    14  32    5.7963   418.0   11.290      47.576
2015    8       26    14  39    5.8046   418.5   11.277      47.692
2015    8       26    14  46    5.8127   419.0   11.264      47.804
2015    8       26    14  53    5.8207   419.5   11.250      47.915
2015    8       26    15   0    5.8286   420.0   11.236      48.024
2015    8       26    15   7    5.8364   420.4   11.222      48.131
2015    8       26    15  14    5.8441   420.9   11.207      48.236
2015    8       26    15  21    5.8518   421.4   11.192      48.340
2015    8       26    15  28    5.8594   421.9   11.177      48.442
2015    8       26    15  35    5.8669   422.4   11.161      48.543
2015    8       26    15  42    5.8742   422.9   11.145      48.642
2015    8       26    15  49    5.8816   423.3   11.128      48.740
2015    8       26    15  56    5.8887   423.8   11.111      48.837
2015    8       26    16   3    5.8958   424.3   11.093      48.932
2015    8       26    16   9    5.9026   424.8   11.076      49.025
2015    8       26    16  16    5.9092   425.3   11.057      49.117
2015    8       26    16  23    5.9156   425.8   11.036      49.207
2015    8       26    16  30    5.9217   426.2   11.015      49.293
2015    8       26    16  37    5.9273   426.7   10.993      49.375
2015    8       26    16  44    5.9328   427.2   10.970      49.454
2015    8       26    16  51    5.9379   427.7   10.947      49.528
2015    8       26    16  58    5.9429   428.1   10.925      49.598
2015    8       26    17   5    5.9479   428.5   10.905      49.660
2015    8       26    17  12    5.9529   428.8   10.887      49.722
2015    8       26    17  19    5.9581   429.2   10.871      49.782
2015    8       26    17  26    5.9637   429.5   10.858      49.843
2015    8       26    17  33    5.9696   429.7   10.847      49.907
2015    8       26    17  40    5.9760   430.0   10.838      49.978
2015    8       26    17  46    5.9828   430.3   10.832      50.055
2015    8       26    17  53    5.9901   430.5   10.828      50.141
2015    8       26    18   0    5.9982   430.9   10.827      50.239
2015    8       26    18   7    6.0072   431.2   10.829      50.353
2015    8       26    18  14    6.0168   431.6   10.832      50.485
2015    8       26    18  21    6.0270   432.0   10.838      50.635
2015    8       26    18  28    6.0374   432.5   10.844      50.797
2015    8       26    18  35    6.0481   433.0   10.851      50.973
2015    8       26    18  42    6.0587   433.5   10.858      51.159
2015    8       26    18  49    6.0690   434.1   10.863      51.352
2015    8       26    18  56    6.0790   434.6   10.867      51.540
2015    8       26    19   3    6.0885   435.2   10.870      51.725
2015    8       26    19   9    6.0976   435.7   10.871      51.904
2015    8       26    19  16    6.1064   436.3   10.871      52.080
2015    8       26    19  23    6.1148   436.8   10.870      52.251
2015    8       26    19  30    6.1228   437.4   10.867      52.421
2015    8       26    19  37    6.1306   437.9   10.864      52.588
2015    8       26    19  44    6.1381   438.5   10.859      52.754
2015    8       26    19  51    6.1454   439.0   10.853      52.917
2015    8       26    19  58    6.1526   439.6   10.847      53.081
2015    8       26    20   5    6.1596   440.2   10.840      53.242
2015    8       26    20  12    6.1664   440.8   10.831      53.404
2015    8       26    20  19    6.1730   441.4   10.822      53.565
2015    8       26    20  26    6.1795   442.0   10.812      53.725
2015    8       26    20  32    6.1858   442.6   10.801      53.884
2015    8       26    20  39    6.1920   443.2   10.789      54.043
2015    8       26    20  46    6.1979   443.8   10.776      54.199
2015    8       26    20  53    6.2036   444.4   10.761      54.355
2015    8       26    21   0    6.2091   445.1   10.746      54.508
2015    8       26    21   7    6.2144   445.7   10.730      54.660
2015    8       26    21  14    6.2194   446.4   10.712      54.808
2015    8       26    21  21    6.2241   447.0   10.694      54.953
2015    8       26    21  28    6.2286   447.6   10.674      55.094
2015    8       26    21  35    6.2329   448.3   10.654      55.232
2015    8       26    21  41    6.2370   448.9   10.634      55.366
2015    8       26    21  48    6.2410   449.6   10.612      55.498
2015    8       26    21  55    6.2448   450.2   10.590      55.627
2015    8       26    22   2    6.2486   450.9   10.568      55.755
2015    8       26    22   9    6.2523   451.5   10.546      55.879
2015    8       26    22  16    6.2560   452.1   10.523      56.003
2015    8       26    22  23    6.2595   452.7   10.500      56.124
2015    8       26    22  30    6.2631   453.4   10.476      56.244
2015    8       26    22  37    6.2666   454.0   10.453      56.361
2015    8       26    22  44    6.2701   454.6   10.429      56.478
2015    8       26    22  51    6.2735   455.3   10.404      56.593
2015    8       26    22  58    6.2769   455.9   10.379      56.708
2015    8       26    23   5    6.2801   456.6   10.354      56.820
2015    8       26    23  12    6.2832   457.2   10.328      56.932
2015    8       26    23  18    6.2861   457.9   10.301      57.041
2015    8       26    23  25    6.2889   458.5   10.274      57.148
2015    8       26    23  32    6.2914   459.2   10.245      57.254
2015    8       26    23  39    6.2936   459.9   10.215      57.358
2015    8       26    23  46    6.2955   460.6   10.183      57.457
2015    8       26    23  53    6.2971   461.3   10.150      57.554
2015    8       27     0   0    6.2984   462.0   10.116      57.646
2015    8       27     0   7    6.2995   462.7   10.082      57.736
2015    8       27     0  14    6.3004   463.3   10.048      57.816
2015    8       27     0  21    6.3013   463.9   10.015      57.890
2015    8       27     0  28    6.3022   464.5    9.984      57.958
2015    8       27     0  35    6.3034   465.1    9.953      58.025
2015    8       27     0  42    6.3046   465.6    9.924      58.090
2015    8       27     0  49    6.3062   466.1    9.895      58.156
2015    8       27     0  55    6.3079   466.7    9.868      58.227
2015    8       27     1   2    6.3099   467.3    9.841      58.305
2015    8       27     1   9    6.3122   467.9    9.815      58.391
2015    8       27     1  16    6.3149   468.5    9.790      58.485
2015    8       27     1  23    6.3180   469.2    9.766      58.594
2015    8       27     1  30    6.3211   469.9    9.743      58.717
2015    8       27     1  37    6.3242   470.6    9.719      58.850
2015    8       27     1  44    6.3270   471.4    9.696      58.991
2015    8       27     1  51    6.3295   472.2    9.671      59.136
2015    8       27     1  58    6.3308   473.1    9.642      59.289
2015    8       27     2   5    6.3313   473.9    9.612      59.426
2015    8       27     2  12    6.3309   474.7    9.579      59.551
2015    8       27     2  18    6.3297   475.4    9.544      59.661
2015    8       27     2  25    6.3279   476.2    9.508      59.762
2015    8       27     2  32    6.3257   476.9    9.471      59.854
2015    8       27     2  39    6.3231   477.5    9.435      59.934
2015    8       27     2  46    6.3206   478.1    9.400      60.011
2015    8       27     2  53    6.3181   478.7    9.365      60.090
2015    8       27     3   0    6.3157   479.4    9.331      60.172
2015    8       27     3   7    6.3134   480.0    9.298      60.256
2015    8       27     3  14    6.3112   480.6    9.266      60.344
2015    8       27     3  21    6.3090   481.3    9.235      60.436
2015    8       27     3  27    6.3070   481.9    9.205      60.531
2015    8       27     3  34    6.3051   482.6    9.175      60.631
2015    8       27     3  41    6.3033   483.2    9.146      60.734
2015    8       27     3  48    6.3014   483.9    9.118      60.840
2015    8       27     3  55    6.2997   484.5    9.091      60.947
2015    8       27     4   2    6.2978   485.2    9.063      61.055
2015    8       27     4   9    6.2960   485.9    9.035      61.163
2015    8       27     4  16    6.2940   486.5    9.008      61.273
2015    8       27     4  23    6.2919   487.2    8.980      61.383
2015    8       27     4  30    6.2896   487.8    8.953      61.491
2015    8       27     4  37    6.2873   488.5    8.925      61.597
2015    8       27     4  43    6.2847   489.2    8.897      61.702
2015    8       27     4  50    6.2820   489.8    8.869      61.804
2015    8       27     4  57    6.2793   490.5    8.841      61.906
2015    8       27     5   4    6.2765   491.1    8.813      62.007
2015    8       27     5  11    6.2736   491.8    8.785      62.108
2015    8       27     5  18    6.2707   492.4    8.757      62.207
2015    8       27     5  25    6.2677   493.1    8.728      62.307
2015    8       27     5  32    6.2647   493.8    8.700      62.406
2015    8       27     5  39    6.2615   494.5    8.670      62.504
2015    8       27     5  46    6.2582   495.1    8.641      62.597
2015    8       27     5  53    6.2545   495.8    8.611      62.688
2015    8       27     6   0    6.2507   496.5    8.579      62.777
2015    8       27     6   7    6.2463   497.2    8.547      62.861
2015    8       27     6  13    6.2417   497.9    8.514      62.932
2015    8       27     6  20    6.2366   498.5    8.480      62.993
2015    8       27     6  27    6.2313   499.2    8.446      63.045
2015    8       27     6  34    6.2257   499.8    8.412      63.088
2015    8       27     6  41    6.2203   500.4    8.380      63.122
2015    8       27     6  48    6.2147   500.9    8.347      63.157
2015    8       27     6  55    6.2094   501.5    8.316      63.192
2015    8       27     7   2    6.2040   502.1    8.285      63.228
2015    8       27     7   9    6.1989   502.7    8.256      63.266
2015    8       27     7  16    6.1938   503.3    8.226      63.306
2015    8       27     7  23    6.1890   503.9    8.198      63.349
2015    8       27     7  30    6.1842   504.5    8.170      63.396
2015    8       27     7  37    6.1795   505.2    8.142      63.445
2015    8       27     7  44    6.1749   505.8    8.115      63.496
2015    8       27     7  50    6.1704   506.4    8.089      63.551
2015    8       27     7  57    6.1659   507.1    8.062      63.609
2015    8       27     8   4    6.1614   507.8    8.036      63.669
2015    8       27     8  11    6.1569   508.5    8.010      63.730
2015    8       27     8  18    6.1523   509.2    7.983      63.791
2015    8       27     8  25    6.1475   509.9    7.957      63.856
2015    8       27     8  32    6.1427   510.6    7.930      63.923
2015    8       27     8  39    6.1376   511.4    7.902      63.994
2015    8       27     8  46    6.1322   512.1    7.873      64.066
2015    8       27     8  53    6.1264   512.9    7.844      64.139
2015    8       27     9   0    6.1202   513.7    7.813      64.211
2015    8       27     9   6    6.1134   514.5    7.780      64.283
2015    8       27     9  13    6.1060   515.3    7.746      64.354
2015    8       27     9  20    6.0978   516.1    7.709      64.411
2015    8       27     9  27    6.0892   516.9    7.670      64.453
2015    8       27     9  34    6.0801   517.6    7.631      64.481
2015    8       27     9  41    6.0709   518.3    7.591      64.499
2015    8       27     9  48    6.0613   519.0    7.550      64.506
2015    8       27     9  55    6.0518   519.6    7.511      64.498
2015    8       27    10   2    6.0425   520.1    7.473      64.484
2015    8       27    10   9    6.0334   520.7    7.436      64.472
2015    8       27    10  16    6.0245   521.3    7.399      64.460
2015    8       27    10  22    6.0159   521.8    7.365      64.450
2015    8       27    10  29    6.0073   522.4    7.331      64.442
2015    8       27    10  36    5.9990   522.9    7.299      64.437
2015    8       27    10  43    5.9909   523.5    7.267      64.436
2015    8       27    10  50    5.9831   524.0    7.238      64.439
2015    8       27    10  57    5.9753   524.6    7.209      64.445
2015    8       27    11   4    5.9678   525.1    7.181      64.455
2015    8       27    11  11    5.9603   525.7    7.154      64.466
2015    8       27    11  18    5.9529   526.2    7.127      64.478
2015    8       27    11  25    5.9455   526.8    7.101      64.493
2015    8       27    11  31    5.9382   527.3    7.076      64.508
2015    8       27    11  38    5.9307   527.8    7.051      64.527
2015    8       27    11  45    5.9234   528.3    7.026      64.546
2015    8       27    11  52    5.9160   528.9    7.002      64.567
2015    8       27    11  59    5.9086   529.4    6.977      64.588
2015    8       27    12   6    5.9011   530.0    6.953      64.611
2015    8       27    12  13    5.8936   530.5    6.929      64.635
2015    8       27    12  20    5.8860   531.1    6.905      64.660
2015    8       27    12  27    5.8784   531.6    6.880      64.685
2015    8       27    12  34    5.8707   532.2    6.856      64.710
2015    8       27    12  41    5.8629   532.7    6.831      64.736
2015    8       27    12  48    5.8549   533.3    6.806      64.760
2015    8       27    12  54    5.8469   533.9    6.781      64.783
2015    8       27    13   1    5.8385   534.5    6.755      64.802
2015    8       27    13   8    5.8299   535.1    6.728      64.817
2015    8       27    13  15    5.8209   535.7    6.699      64.829
2015    8       27    13  22    5.8116   536.3    6.670      64.836
2015    8       27    13  29    5.8016   536.9    6.639      64.824
2015    8       27    13  36    5.7914   537.5    6.608      64.797
2015    8       27    13  43    5.7808   538.1    6.576      64.757
2015    8       27    13  50    5.7703   538.6    6.545      64.703
2015    8       27    13  57    5.7597   539.1    6.515      64.639
2015    8       27    14   4    5.7495   539.6    6.486      64.577
2015    8       27    14  11    5.7392   540.0    6.457      64.517
2015    8       27    14  18    5.7294   540.5    6.430      64.460
2015    8       27    14  25    5.7196   540.9    6.403      64.404
2015    8       27    14  31    5.7103   541.4    6.378      64.352
2015    8       27    14  38    5.7010   541.8    6.354      64.305
2015    8       27    14  45    5.6921   542.2    6.331      64.264
2015    8       27    14  52    5.6833   542.6    6.309      64.228
2015    8       27    14  59    5.6747   543.0    6.287      64.199
2015    8       27    15   6    5.6661   543.5    6.266      64.176
2015    8       27    15  13    5.6578   543.9    6.247      64.158
2015    8       27    15  20    5.6495   544.3    6.227      64.143
2015    8       27    15  27    5.6414   544.7    6.209      64.133
2015    8       27    15  34    5.6332   545.1    6.190      64.126
2015    8       27    15  41    5.6251   545.6    6.172      64.123
2015    8       27    15  47    5.6170   546.0    6.154      64.123
2015    8       27    15  54    5.6089   546.5    6.137      64.126
2015    8       27    16   1    5.6006   546.9    6.119      64.130
2015    8       27    16   8    5.5924   547.4    6.102      64.136
2015    8       27    16  15    5.5841   547.8    6.084      64.140
2015    8       27    16  22    5.5757   548.2    6.066      64.142
2015    8       27    16  29    5.5671   548.7    6.048      64.141
2015    8       27    16  36    5.5586   549.1    6.031      64.138
2015    8       27    16  43    5.5500   549.5    6.012      64.131
2015    8       27    16  50    5.5413   549.9    5.994      64.122
2015    8       27    16  56    5.5326   550.3    5.975      64.110
2015    8       27    17   3    5.5239   550.7    5.957      64.095
2015    8       27    17  10    5.5152   551.1    5.938      64.078
2015    8       27    17  17    5.5066   551.5    5.919      64.059
2015    8       27    17  24    5.4978   552.0    5.900      64.038
2015    8       27    17  31    5.4892   552.4    5.881      64.017
2015    8       27    17  38    5.4803   552.8    5.861      63.993
2015    8       27    17  45    5.4713   553.3    5.841      63.963
2015    8       27    17  52    5.4622   553.7    5.820      63.925
2015    8       27    17  59    5.4531   554.1    5.800      63.884
2015    8       27    18   5    5.4439   554.4    5.780      63.836
2015    8       27    18  12    5.4351   554.8    5.760      63.785
2015    8       27    18  19    5.4263   555.1    5.741      63.734
2015    8       27    18  26    5.4178   555.4    5.723      63.687
2015    8       27    18  33    5.4093   555.7    5.705      63.640
2015    8       27    18  40    5.4011   556.0    5.688      63.595
2015    8       27    18  47    5.3930   556.3    5.671      63.550
2015    8       27    18  54    5.3850   556.6    5.655      63.509
2015    8       27    19   1    5.3771   556.9    5.639      63.468
2015    8       27    19   8    5.3694   557.2    5.624      63.428
2015    8       27    19  14    5.3617   557.4    5.609      63.389
2015    8       27    19  21    5.3540   557.7    5.594      63.352
2015    8       27    19  28    5.3463   558.0    5.579      63.319
2015    8       27    19  35    5.3387   558.3    5.565      63.286
2015    8       27    19  42    5.3310   558.6    5.550      63.254
2015    8       27    19  49    5.3233   559.0    5.535      63.221
2015    8       27    19  56    5.3156   559.3    5.521      63.188
2015    8       27    20   3    5.3079   559.6    5.506      63.152
2015    8       27    20  10    5.3001   559.9    5.491      63.113
2015    8       27    20  17    5.2923   560.2    5.476      63.073
2015    8       27    20  24    5.2844   560.5    5.461      63.032
2015    8       27    20  31    5.2763   560.9    5.445      62.990
2015    8       27    20  38    5.2681   561.2    5.429      62.943
2015    8       27    20  44    5.2599   561.5    5.412      62.894
2015    8       27    20  51    5.2518   561.9    5.396      62.840
2015    8       27    20  58    5.2438   562.1    5.381      62.783
2015    8       27    21   5    5.2359   562.4    5.365      62.725
2015    8       27    21  12    5.2282   562.7    5.350      62.669
2015    8       27    21  19    5.2206   563.0    5.335      62.614
2015    8       27    21  26    5.2133   563.2    5.321      62.561
2015    8       27    21  33    5.2061   563.5    5.307      62.515
2015    8       27    21  40    5.1990   563.8    5.294      62.475
2015    8       27    21  47    5.1921   564.1    5.281      62.440
2015    8       27    21  54    5.1853   564.5    5.269      62.408
2015    8       27    22   1    5.1786   564.8    5.256      62.377
2015    8       27    22   8    5.1719   565.0    5.244      62.345
2015    8       27    22  14    5.1653   565.3    5.232      62.313
2015    8       27    22  21    5.1587   565.6    5.220      62.280
2015    8       27    22  28    5.1520   565.8    5.208      62.247
2015    8       27    22  35    5.1454   566.1    5.196      62.216
2015    8       27    22  42    5.1386   566.4    5.185      62.186
2015    8       27    22  49    5.1320   566.6    5.173      62.160
2015    8       27    22  56    5.1252   567.0    5.161      62.137
2015    8       27    23   3    5.1185   567.3    5.150      62.117
2015    8       27    23  10    5.1117   567.6    5.138      62.098
2015    8       27    23  17    5.1050   567.9    5.127      62.080
2015    8       27    23  23    5.0983   568.1    5.116      62.060
2015    8       27    23  30    5.0916   568.4    5.105      62.039
2015    8       27    23  37    5.0849   568.7    5.093      62.015
2015    8       27    23  44    5.0782   568.9    5.082      61.991
2015    8       27    23  51    5.0714   569.2    5.071      61.967
2015    8       27    23  58    5.0647   569.4    5.060      61.945
2015    8       28     0   5    5.0578   569.7    5.049      61.925
2015    8       28     0  12    5.0511   570.0    5.038      61.907
2015    8       28     0  19    5.0442   570.3    5.027      61.889
2015    8       28     0  25    5.0374   570.7    5.015      61.875
2015    8       28     0  32    5.0305   571.0    5.004      61.859
2015    8       28     0  39    5.0236   571.3    4.992      61.842
2015    8       28     0  46    5.0164   571.7    4.980      61.824
2015    8       28     0  53    5.0090   572.1    4.967      61.803
2015    8       28     1   0    5.0014   572.5    4.953      61.771
2015    8       28     1   7    4.9936   572.8    4.939      61.732
2015    8       28     1  14    4.9857   573.2    4.924      61.685
2015    8       28     1  21    4.9779   573.4    4.910      61.631
2015    8       28     1  28    4.9702   573.7    4.896      61.569
2015    8       28     1  34    4.9626   573.9    4.883      61.512
2015    8       28     1  41    4.9552   574.2    4.870      61.456
2015    8       28     1  48    4.9479   574.4    4.857      61.403
2015    8       28     1  55    4.9408   574.6    4.845      61.350
2015    8       28     2   2    4.9338   574.8    4.833      61.300
2015    8       28     2   9    4.9269   575.0    4.822      61.253
2015    8       28     2  16    4.9202   575.2    4.811      61.208
2015    8       28     2  23    4.9135   575.4    4.800      61.165
2015    8       28     2  30    4.9069   575.6    4.790      61.123
2015    8       28     2  37    4.9003   575.8    4.780      61.086
2015    8       28     2  43    4.8937   576.0    4.770      61.052
2015    8       28     2  50    4.8872   576.2    4.760      61.020
2015    8       28     2  57    4.8806   576.4    4.751      60.990
2015    8       28     3   4    4.8740   576.7    4.741      60.960
2015    8       28     3  11    4.8675   576.9    4.732      60.931
2015    8       28     3  18    4.8609   577.1    4.722      60.897
2015    8       28     3  25    4.8543   577.4    4.713      60.862
2015    8       28     3  32    4.8476   577.6    4.703      60.825
2015    8       28     3  39    4.8410   577.8    4.693      60.788
2015    8       28     3  46    4.8342   578.0    4.683      60.751
2015    8       28     3  53    4.8274   578.2    4.673      60.714
2015    8       28     4   0    4.8205   578.4    4.663      60.675
2015    8       28     4   6    4.8138   578.6    4.653      60.635
2015    8       28     4  13    4.8071   578.8    4.644      60.593
2015    8       28     4  20    4.8006   579.0    4.635      60.551
2015    8       28     4  27    4.7940   579.1    4.626      60.510
2015    8       28     4  34    4.7877   579.3    4.617      60.471
2015    8       28     4  41    4.7813   579.5    4.608      60.434
2015    8       28     4  48    4.7751   579.7    4.600      60.403
2015    8       28     4  55    4.7688   579.9    4.592      60.377
2015    8       28     5   2    4.7627   580.1    4.584      60.355
2015    8       28     5   9    4.7565   580.3    4.576      60.334
2015    8       28     5  16    4.7504   580.6    4.568      60.313
2015    8       28     5  23    4.7442   580.8    4.560      60.289
2015    8       28     5  30    4.7381   581.0    4.551      60.262
2015    8       28     5  37    4.7318   581.2    4.543      60.233
2015    8       28     5  43    4.7256   581.4    4.535      60.203
2015    8       28     5  50    4.7192   581.6    4.526      60.171
2015    8       28     5  57    4.7129   581.8    4.518      60.140
2015    8       28     6   4    4.7065   582.0    4.509      60.108
2015    8       28     6  11    4.7001   582.2    4.500      60.075
2015    8       28     6  18    4.6937   582.4    4.491      60.040
2015    8       28     6  25    4.6873   582.6    4.483      60.004
2015    8       28     6  32    4.6810   582.8    4.474      59.965
2015    8       28     6  38    4.6747   583.0    4.465      59.925
2015    8       28     6  45    4.6685   583.1    4.457      59.884
2015    8       28     6  52    4.6623   583.3    4.449      59.843
2015    8       28     6  59    4.6561   583.4    4.440      59.803
2015    8       28     7   6    4.6501   583.6    4.432      59.765
2015    8       28     7  13    4.6440   583.8    4.425      59.728
2015    8       28     7  20    4.6380   583.9    4.417      59.695
2015    8       28     7  27    4.6319   584.1    4.409      59.664
2015    8       28     7  34    4.6260   584.3    4.402      59.636
2015    8       28     7  40    4.6200   584.5    4.394      59.609
2015    8       28     7  47    4.6140   584.7    4.387      59.582
2015    8       28     7  54    4.6080   584.8    4.380      59.553
2015    8       28     8   1    4.6020   585.0    4.372      59.523
2015    8       28     8   8    4.5960   585.2    4.365      59.492
2015    8       28     8  15    4.5899   585.4    4.357      59.460
2015    8       28     8  22    4.5838   585.5    4.350      59.426
2015    8       28     8  29    4.5778   585.7    4.342      59.393
2015    8       28     8  36    4.5717   585.9    4.335      59.358
2015    8       28     8  42    4.5658   586.0    4.327      59.322
2015    8       28     8  49    4.5598   586.2    4.320      59.285
2015    8       28     8  56    4.5539   586.3    4.313      59.249
2015    8       28     9   3    4.5480   586.5    4.305      59.212
2015    8       28     9  10    4.5422   586.6    4.298      59.176
2015    8       28     9  17    4.5364   586.8    4.291      59.140
2015    8       28     9  24    4.5306   586.9    4.284      59.105
2015    8       28     9  31    4.5249   587.1    4.277      59.069
2015    8       28     9  38    4.5192   587.2    4.270      59.035
2015    8       28     9  45    4.5134   587.3    4.263      59.001
2015    8       28     9  51    4.5078   587.5    4.257      58.967
2015    8       28     9  58    4.5021   587.6    4.250      58.934
2015    8       28    10   5    4.4965   587.8    4.244      58.901
2015    8       28    10  12    4.4908   587.9    4.237      58.867
2015    8       28    10  19    4.4852   588.0    4.231      58.834
2015    8       28    10  26    4.4795   588.2    4.225      58.801
2015    8       28    10  33    4.4739   588.3    4.218      58.768
2015    8       28    10  40    4.4683   588.4    4.212      58.734
2015    8       28    10  47    4.4627   588.6    4.206      58.701
2015    8       28    10  54    4.4571   588.7    4.200      58.667
2015    8       28    11   1    4.4516   588.8    4.194      58.633
2015    8       28    11   8    4.4460   588.9    4.187      58.599
2015    8       28    11  14    4.4405   589.0    4.181      58.566
2015    8       28    11  21    4.4350   589.2    4.175      58.532
2015    8       28    11  28    4.4296   589.3    4.170      58.499
2015    8       28    11  35    4.4241   589.4    4.164      58.466
2015    8       28    11  42    4.4188   589.5    4.158      58.434
2015    8       28    11  49    4.4134   589.6    4.152      58.402
2015    8       28    11  56    4.4080   589.7    4.146      58.371
2015    8       28    12   3    4.4027   589.8    4.141      58.340
2015    8       28    12  10    4.3974   589.9    4.135      58.309
2015    8       28    12  17    4.3921   590.0    4.130      58.279
2015    8       28    12  24    4.3868   590.1    4.124      58.250
2015    8       28    12  31    4.3816   590.3    4.119      58.220
2015    8       28    12  38    4.3763   590.4    4.113      58.191
2015    8       28    12  44    4.3711   590.5    4.108      58.162
2015    8       28    12  51    4.3659   590.6    4.103      58.133
2015    8       28    12  58    4.3607   590.7    4.097      58.104
2015    8       28    13   5    4.3556   590.8    4.092      58.075
2015    8       28    13  12    4.3504   590.9    4.086      58.046
2015    8       28    13  19    4.3453   591.0    4.081      58.018
2015    8       28    13  26    4.3402   591.1    4.076      57.989
2015    8       28    13  33    4.3351   591.2    4.071      57.960
2015    8       28    13  40    4.3300   591.3    4.065      57.931
2015    8       28    13  46    4.3250   591.4    4.060      57.902
2015    8       28    13  53    4.3200   591.5    4.055      57.873
2015    8       28    14   0    4.3150   591.6    4.050      57.845
2015    8       28    14   7    4.3100   591.7    4.045      57.816
2015    8       28    14  14    4.3050   591.7    4.040      57.787
2015    8       28    14  21    4.3001   591.8    4.034      57.758
2015    8       28    14  28    4.2952   591.9    4.029      57.730
2015    8       28    14  35    4.2903   592.0    4.024      57.701
2015    8       28    14  41    4.2854   592.1    4.019      57.673
2015    8       28    14  48    4.2805   592.2    4.015      57.645
2015    8       28    14  55    4.2757   592.3    4.010      57.617
2015    8       28    15   2    4.2709   592.4    4.005      57.589
2015    8       28    15   9    4.2661   592.4    4.000      57.561
2015    8       28    15  16    4.2613   592.5    3.995      57.533
2015    8       28    15  23    4.2565   592.6    3.991      57.505
2015    8       28    15  30    4.2518   592.7    3.986      57.477
2015    8       28    15  36    4.2471   592.8    3.981      57.450
2015    8       28    15  43    4.2424   592.8    3.977      57.422
2015    8       28    15  50    4.2377   592.9    3.972      57.395
2015    8       28    15  57    4.2330   593.0    3.968      57.367
2015    8       28    16   4    4.2284   593.1    3.963      57.340
2015    8       28    16  11    4.2238   593.1    3.959      57.312
2015    8       28    16  18    4.2192   593.2    3.954      57.285
2015    8       28    16  25    4.2146   593.3    3.950      57.257
2015    8       28    16  32    4.2101   593.3    3.945      57.230
2015    8       28    16  39    4.2056   593.4    3.941      57.202
2015    8       28    16  45    4.2011   593.5    3.937      57.175
2015    8       28    16  52    4.1966   593.5    3.932      57.147
2015    8       28    16  59    4.1922   593.6    3.928      57.120
2015    8       28    17   6    4.1877   593.7    3.924      57.093
2015    8       28    17  13    4.1833   593.7    3.920      57.065
2015    8       28    17  20    4.1789   593.8    3.916      57.038
2015    8       28    17  27    4.1745   593.9    3.912      57.010
2015    8       28    17  34    4.1701   593.9    3.908      56.982
2015    8       28    17  41    4.1658   594.0    3.903      56.955
2015    8       28    17  48    4.1614   594.1    3.899      56.927
2015    8       28    17  55    4.1571   594.1    3.895      56.899
2015    8       28    18   1    4.1527   594.2    3.891      56.871
2015    8       28    18   8    4.1485   594.2    3.887      56.843
2015    8       28    18  15    4.1441   594.3    3.883      56.815
2015    8       28    18  22    4.1399   594.3    3.880      56.787
2015    8       28    18  29    4.1357   594.4    3.876      56.758
2015    8       28    18  36    4.1314   594.5    3.872      56.730
2015    8       28    18  43    4.1272   594.5    3.868      56.702
2015    8       28    18  50    4.1231   594.6    3.864      56.673
2015    8       28    18  57    4.1189   594.6    3.860      56.645
2015    8       28    19   4    4.1148   594.7    3.856      56.617
2015    8       28    19  11    4.1106   594.7    3.853      56.589
2015    8       28    19  18    4.1066   594.8    3.849      56.561
2015    8       28    19  25    4.1025   594.8    3.845      56.533
2015    8       28    19  31    4.0984   594.9    3.841      56.505
2015    8       28    19  38    4.0944   594.9    3.838      56.477
2015    8       28    19  45    4.0904   595.0    3.834      56.450
2015    8       28    19  52    4.0864   595.0    3.830      56.422
2015    8       28    19  59    4.0825   595.0    3.827      56.394
2015    8       28    20   6    4.0785   595.1    3.823      56.367
2015    8       28    20  13    4.0746   595.1    3.820      56.340
2015    8       28    20  20    4.0707   595.2    3.816      56.312
2015    8       28    20  27    4.0669   595.2    3.813      56.285
2015    8       28    20  34    4.0630   595.3    3.809      56.258
2015    8       28    20  40    4.0592   595.3    3.806      56.232
2015    8       28    20  47    4.0553   595.3    3.802      56.205
2015    8       28    20  54    4.0515   595.4    3.799      56.178
2015    8       28    21   1    4.0477   595.4    3.796      56.151
2015    8       28    21   8    4.0440   595.5    3.792      56.124
2015    8       28    21  15    4.0402   595.5    3.789      56.097
2015    8       28    21  22    4.0365   595.5    3.786      56.071
2015    8       28    21  28    4.0328   595.6    3.782      56.044
2015    8       28    21  35    4.0291   595.6    3.779      56.017
2015    8       28    21  42    4.0254   595.6    3.776      55.990
2015    8       28    21  49    4.0217   595.7    3.772      55.964
2015    8       28    21  56    4.0180   595.7    3.769      55.937
2015    8       28    22   3    4.0144   595.7    3.766      55.910
2015    8       28    22  10    4.0107   595.8    3.763      55.884
2015    8       28    22  17    4.0071   595.8    3.759      55.857
2015    8       28    22  23    4.0035   595.8    3.756      55.830
2015    8       28    22  30    3.9999   595.8    3.753      55.804
2015    8       28    22  37    3.9963   595.9    3.750      55.777
2015    8       28    22  44    3.9927   595.9    3.747      55.751
2015    8       28    22  51    3.9891   595.9    3.743      55.724
2015    8       28    22  58    3.9856   595.9    3.740      55.698
2015    8       28    23   5    3.9821   596.0    3.737      55.672
2015    8       28    23  12    3.9785   596.0    3.734      55.645
2015    8       28    23  19    3.9750   596.0    3.731      55.619
2015    8       28    23  25    3.9715   596.0    3.728      55.593
2015    8       28    23  32    3.9680   596.1    3.725      55.566
2015    8       28    23  39    3.9646   596.1    3.722      55.540
2015    8       28    23  46    3.9611   596.1    3.719      55.514
2015    8       28    23  53    3.9576   596.1    3.716      55.488
2015    8       29     0   0    3.9542   596.1    3.713      55.461
2015    8       29     0   7    3.9507   596.2    3.710      55.435
2015    8       29     0  14    3.9473   596.2    3.707      55.409
2015    8       29     0  21    3.9439   596.2    3.705      55.383
2015    8       29     0  28    3.9404   596.2    3.702      55.357
2015    8       29     0  34    3.9370   596.2    3.699      55.331
2015    8       29     0  41    3.9336   596.2    3.696      55.304
2015    8       29     0  48    3.9302   596.3    3.693      55.278
2015    8       29     0  55    3.9268   596.3    3.690      55.252
2015    8       29     1   2    3.9235   596.3    3.688      55.226
2015    8       29     1   9    3.9201   596.3    3.685      55.199
2015    8       29     1  16    3.9167   596.3    3.682      55.173
2015    8       29     1  23    3.9133   596.3    3.679      55.146
2015    8       29     1  30    3.9100   596.3    3.676      55.120
2015    8       29     1  37    3.9066   596.3    3.674      55.093
2015    8       29     1  44    3.9033   596.3    3.671      55.067
2015    8       29     1  51    3.9000   596.4    3.668      55.040
2015    8       29     1  57    3.8967   596.4    3.666      55.013
2015    8       29     2   4    3.8934   596.4    3.663      54.986
2015    8       29     2  11    3.8901   596.4    3.660      54.959
2015    8       29     2  18    3.8868   596.4    3.658      54.932
2015    8       29     2  25    3.8835   596.4    3.655      54.905
2015    8       29     2  32    3.8802   596.4    3.652      54.878
2015    8       29     2  39    3.8770   596.4    3.650      54.851
2015    8       29     2  46    3.8737   596.4    3.647      54.824
2015    8       29     2  53    3.8705   596.4    3.645      54.797
2015    8       29     3   0    3.8673   596.4    3.642      54.770
2015    8       29     3   7    3.8641   596.4    3.639      54.744
2015    8       29     3  14    3.8609   596.4    3.637      54.717
2015    8       29     3  20    3.8578   596.4    3.634      54.690
2015    8       29     3  27    3.8546   596.4    3.632      54.663
2015    8       29     3  34    3.8515   596.4    3.629      54.637
2015    8       29     3  41    3.8484   596.4    3.627      54.610
2015    8       29     3  48    3.8453   596.4    3.625      54.584
2015    8       29     3  55    3.8422   596.4    3.622      54.557
2015    8       29     4   2    3.8391   596.4    3.620      54.531
2015    8       29     4   8    3.8360   596.4    3.617      54.504
2015    8       29     4  15    3.8330   596.4    3.615      54.478
2015    8       29     4  22    3.8299   596.4    3.613      54.452
2015    8       29     4  29    3.8269   596.4    3.610      54.426
2015    8       29     4  36    3.8239   596.4    3.608      54.400
2015    8       29     4  43    3.8209   596.4    3.606      54.374
2015    8       29     4  50    3.8178   596.4    3.603      54.348
2015    8       29     4  56    3.8149   596.4    3.601      54.323
2015    8       29     5   3    3.8119   596.4    3.599      54.297
2015    8       29     5  10    3.8089   596.4    3.596      54.271
2015    8       29     5  17    3.8060   596.4    3.594      54.246
2015    8       29     5  24    3.8030   596.4    3.592      54.220
2015    8       29     5  31    3.8001   596.4    3.590      54.194
2015    8       29     5  38    3.7972   596.3    3.587      54.169
2015    8       29     5  45    3.7943   596.3    3.585      54.144
2015    8       29     5  51    3.7914   596.3    3.583      54.118
2015    8       29     5  58    3.7885   596.3    3.581      54.093
2015    8       29     6   5    3.7856   596.3    3.579      54.068
2015    8       29     6  12    3.7827   596.3    3.577      54.042
2015    8       29     6  19    3.7798   596.3    3.574      54.017
2015    8       29     6  26    3.7770   596.3    3.572      53.992
2015    8       29     6  33    3.7741   596.3    3.570      53.966
2015    8       29     6  40    3.7712   596.2    3.568      53.941
2015    8       29     6  47    3.7684   596.2    3.566      53.915
2015    8       29     6  53    3.7655   596.2    3.564      53.889
2015    8       29     7   0    3.7627   596.2    3.562      53.864
2015    8       29     7   7    3.7598   596.2    3.560      53.838
2015    8       29     7  14    3.7570   596.2    3.557      53.812
2015    8       29     7  21    3.7541   596.2    3.555      53.786
2015    8       29     7  28    3.7513   596.1    3.553      53.760
2015    8       29     7  35    3.7485   596.1    3.551      53.734
2015    8       29     7  42    3.7456   596.1    3.549      53.707
2015    8       29     7  49    3.7428   596.1    3.547      53.681
2015    8       29     7  56    3.7400   596.1    3.545      53.654
2015    8       29     8   2    3.7371   596.0    3.543      53.627
2015    8       29     8   9    3.7343   596.0    3.541      53.600
2015    8       29     8  16    3.7315   596.0    3.538      53.572
2015    8       29     8  23    3.7287   596.0    3.536      53.545
2015    8       29     8  30    3.7258   596.0    3.534      53.517
2015    8       29     8  37    3.7230   595.9    3.532      53.490
2015    8       29     8  44    3.7202   595.9    3.530      53.461
2015    8       29     8  51    3.7174   595.9    3.528      53.433
2015    8       29     8  58    3.7145   595.9    3.525      53.404
2015    8       29     9   5    3.7117   595.8    3.523      53.376
2015    8       29     9  12    3.7089   595.8    3.521      53.347
2015    8       29     9  19    3.7061   595.8    3.519      53.318
2015    8       29     9  26    3.7033   595.7    3.517      53.288
2015    8       29     9  32    3.7005   595.7    3.514      53.259
2015    8       29     9  39    3.6977   595.7    3.512      53.230
2015    8       29     9  46    3.6950   595.7    3.510      53.200
2015    8       29     9  53    3.6922   595.6    3.508      53.170
2015    8       29    10   0    3.6894   595.6    3.506      53.141
2015    8       29    10   7    3.6867   595.6    3.504      53.111
2015    8       29    10  14    3.6839   595.5    3.501      53.081
2015    8       29    10  21    3.6812   595.5    3.499      53.052
2015    8       29    10  28    3.6785   595.5    3.497      53.022
2015    8       29    10  35    3.6757   595.4    3.495      52.993
2015    8       29    10  41    3.6730   595.4    3.493      52.964
2015    8       29    10  48    3.6703   595.4    3.491      52.934
2015    8       29    10  55    3.6676   595.3    3.489      52.905
2015    8       29    11   2    3.6650   595.3    3.487      52.877
2015    8       29    11   9    3.6623   595.2    3.485      52.848
2015    8       29    11  16    3.6596   595.2    3.483      52.820
2015    8       29    11  23    3.6570   595.2    3.481      52.792
2015    8       29    11  29    3.6543   595.1    3.480      52.764
2015    8       29    11  36    3.6517   595.1    3.478      52.737
2015    8       29    11  43    3.6491   595.1    3.476      52.709
2015    8       29    11  50    3.6465   595.0    3.474      52.683
2015    8       29    11  57    3.6439   595.0    3.473      52.656
2015    8       29    12   4    3.6414   594.9    3.471      52.630
2015    8       29    12  11    3.6388   594.9    3.469      52.604
2015    8       29    12  17    3.6362   594.9    3.468      52.579
2015    8       29    12  24    3.6337   594.8    3.466      52.554
2015    8       29    12  31    3.6312   594.8    3.465      52.530
2015    8       29    12  38    3.6287   594.7    3.464      52.505
2015    8       29    12  45    3.6262   594.7    3.462      52.481
2015    8       29    12  52    3.6237   594.6    3.461      52.458
2015    8       29    12  59    3.6212   594.6    3.460      52.434
2015    8       29    13   5    3.6188   594.6    3.458      52.411
2015    8       29    13  12    3.6164   594.5    3.457      52.389
2015    8       29    13  19    3.6139   594.5    3.456      52.366
2015    8       29    13  26    3.6115   594.4    3.455      52.344
2015    8       29    13  33    3.6091   594.4    3.454      52.321
2015    8       29    13  40    3.6067   594.4    3.453      52.300
2015    8       29    13  47    3.6043   594.3    3.451      52.278
2015    8       29    13  54    3.6019   594.3    3.450      52.256
2015    8       29    14   0    3.5995   594.2    3.449      52.234
2015    8       29    14   7    3.5971   594.2    3.448      52.212
2015    8       29    14  14    3.5947   594.1    3.447      52.189
2015    8       29    14  21    3.5923   594.1    3.445      52.166
2015    8       29    14  28    3.5899   594.1    3.444      52.142
2015    8       29    14  35    3.5874   594.0    3.443      52.118
2015    8       29    14  42    3.5850   594.0    3.441      52.093
2015    8       29    14  49    3.5826   593.9    3.440      52.068
2015    8       29    14  56    3.5802   593.9    3.438      52.042
2015    8       29    15   2    3.5777   593.8    3.437      52.016
2015    8       29    15   9    3.5753   593.8    3.435      51.989
2015    8       29    15  16    3.5729   593.7    3.434      51.962
2015    8       29    15  23    3.5704   593.7    3.432      51.934
2015    8       29    15  30    3.5680   593.6    3.430      51.906
2015    8       29    15  37    3.5656   593.6    3.429      51.877
2015    8       29    15  44    3.5631   593.5    3.427      51.848
2015    8       29    15  51    3.5607   593.5    3.425      51.818
2015    8       29    15  58    3.5583   593.4    3.423      51.788
2015    8       29    16   5    3.5558   593.4    3.421      51.758
2015    8       29    16  12    3.5534   593.3    3.420      51.727
2015    8       29    16  19    3.5510   593.3    3.418      51.695
2015    8       29    16  26    3.5485   593.2    3.416      51.663
2015    8       29    16  32    3.5461   593.1    3.414      51.631
2015    8       29    16  39    3.5437   593.1    3.412      51.598
2015    8       29    16  46    3.5412   593.0    3.410      51.565
2015    8       29    16  53    3.5388   593.0    3.408      51.531
2015    8       29    17   0    3.5364   592.9    3.406      51.497
2015    8       29    17   7    3.5339   592.8    3.403      51.462
2015    8       29    17  14    3.5315   592.8    3.401      51.427
2015    8       29    17  21    3.5291   592.7    3.399      51.392
2015    8       29    17  28    3.5266   592.6    3.397      51.356
2015    8       29    17  35    3.5242   592.6    3.395      51.321
2015    8       29    17  42    3.5218   592.5    3.393      51.285
2015    8       29    17  48    3.5194   592.4    3.391      51.249
2015    8       29    17  55    3.5170   592.4    3.389      51.213
2015    8       29    18   2    3.5146   592.3    3.386      51.177
2015    8       29    18   9    3.5122   592.2    3.384      51.141
2015    8       29    18  16    3.5099   592.2    3.382      51.105
2015    8       29    18  23    3.5075   592.1    3.380      51.069
2015    8       29    18  30    3.5051   592.0    3.379      51.034
2015    8       29    18  37    3.5028   591.9    3.377      50.999
2015    8       29    18  43    3.5005   591.9    3.375      50.965
2015    8       29    18  50    3.4982   591.8    3.373      50.931
2015    8       29    18  57    3.4959   591.7    3.372      50.898
2015    8       29    19   4    3.4936   591.6    3.370      50.865
2015    8       29    19  11    3.4914   591.5    3.369      50.833
2015    8       29    19  18    3.4891   591.5    3.367      50.801
2015    8       29    19  24    3.4869   591.4    3.366      50.771
2015    8       29    19  31    3.4847   591.3    3.365      50.741
2015    8       29    19  38    3.4826   591.2    3.363      50.712
2015    8       29    19  45    3.4804   591.1    3.362      50.683
2015    8       29    19  52    3.4783   591.0    3.362      50.656
2015    8       29    19  59    3.4762   591.0    3.361      50.630
2015    8       29    20   6    3.4742   590.9    3.360      50.604
2015    8       29    20  13    3.4721   590.8    3.359      50.579
2015    8       29    20  19    3.4701   590.7    3.359      50.556
2015    8       29    20  26    3.4681   590.6    3.358      50.533
2015    8       29    20  33    3.4662   590.6    3.358      50.511
2015    8       29    20  40    3.4643   590.5    3.358      50.489
2015    8       29    20  47    3.4624   590.4    3.357      50.469
2015    8       29    20  54    3.4605   590.3    3.357      50.450
2015    8       29    21   1    3.4586   590.3    3.357      50.431
2015    8       29    21   8    3.4568   590.2    3.357      50.413
2015    8       29    21  14    3.4549   590.1    3.357      50.395
2015    8       29    21  21    3.4531   590.0    3.357      50.377
2015    8       29    21  28    3.4512   590.0    3.357      50.359
2015    8       29    21  35    3.4493   589.9    3.356      50.341
2015    8       29    21  42    3.4474   589.8    3.356      50.323
2015    8       29    21  49    3.4455   589.8    3.356      50.304
2015    8       29    21  56    3.4436   589.7    3.356      50.285
2015    8       29    22   3    3.4417   589.6    3.355      50.266
2015    8       29    22  10    3.4398   589.6    3.355      50.246
2015    8       29    22  16    3.4378   589.5    3.354      50.225
2015    8       29    22  23    3.4359   589.4    3.354      50.203
2015    8       29    22  30    3.4339   589.3    3.353      50.181
2015    8       29    22  37    3.4320   589.3    3.353      50.158
2015    8       29    22  44    3.4300   589.2    3.352      50.134
2015    8       29    22  51    3.4281   589.1    3.351      50.110
2015    8       29    22  58    3.4261   589.1    3.350      50.085
2015    8       29    23   5    3.4241   589.0    3.349      50.059
2015    8       29    23  12    3.4221   588.9    3.348      50.032
2015    8       29    23  19    3.4202   588.8    3.347      50.005
2015    8       29    23  26    3.4182   588.8    3.346      49.977
2015    8       29    23  33    3.4162   588.7    3.345      49.949
2015    8       29    23  40    3.4142   588.6    3.344      49.919
2015    8       29    23  46    3.4122   588.5    3.343      49.890
2015    8       29    23  53    3.4102   588.5    3.342      49.859
2015    8       30     0   0    3.4082   588.4    3.340      49.828
2015    8       30     0   7    3.4062   588.3    3.339      49.796
2015    8       30     0  14    3.4043   588.2    3.338      49.764
2015    8       30     0  21    3.4023   588.1    3.336      49.731
2015    8       30     0  28    3.4003   588.0    3.335      49.698
2015    8       30     0  35    3.3983   588.0    3.333      49.665
2015    8       30     0  42    3.3963   587.9    3.332      49.631
2015    8       30     0  49    3.3944   587.8    3.330      49.596
2015    8       30     0  56    3.3924   587.7    3.329      49.562
2015    8       30     1   2    3.3905   587.6    3.327      49.526
2015    8       30     1   9    3.3885   587.5    3.326      49.492
2015    8       30     1  16    3.3866   587.4    3.324      49.456
2015    8       30     1  23    3.3847   587.3    3.323      49.421
2015    8       30     1  30    3.3828   587.2    3.321      49.386
2015    8       30     1  37    3.3809   587.1    3.320      49.351
2015    8       30     1  44    3.3790   587.0    3.318      49.316
2015    8       30     1  51    3.3771   586.9    3.317      49.282
2015    8       30     1  57    3.3752   586.8    3.315      49.247
2015    8       30     2   4    3.3734   586.7    3.314      49.213
2015    8       30     2  11    3.3716   586.6    3.313      49.179
2015    8       30     2  18    3.3698   586.5    3.311      49.145
2015    8       30     2  25    3.3680   586.4    3.310      49.112
2015    8       30     2  32    3.3662   586.3    3.309      49.080
2015    8       30     2  38    3.3645   586.2    3.308      49.047
2015    8       30     2  45    3.3628   586.1    3.307      49.016
2015    8       30     2  52    3.3610   586.0    3.306      48.985
2015    8       30     2  59    3.3594   585.9    3.305      48.955
2015    8       30     3   6    3.3577   585.8    3.304      48.925
2015    8       30     3  13    3.3561   585.7    3.304      48.897
2015    8       30     3  20    3.3545   585.6    3.303      48.869
2015    8       30     3  26    3.3529   585.5    3.303      48.843
2015    8       30     3  33    3.3514   585.4    3.302      48.816
2015    8       30     3  40    3.3499   585.3    3.302      48.792
2015    8       30     3  47    3.3484   585.2    3.302      48.767
2015    8       30     3  54    3.3470   585.1    3.302      48.744
2015    8       30     4   1    3.3455   585.0    3.302      48.721
2015    8       30     4   8    3.3441   584.9    3.302      48.700
2015    8       30     4  15    3.3426   584.8    3.302      48.679
2015    8       30     4  21    3.3412   584.7    3.302      48.658
2015    8       30     4  28    3.3397   584.6    3.302      48.638
2015    8       30     4  35    3.3383   584.5    3.302      48.618
2015    8       30     4  42    3.3368   584.4    3.302      48.598
2015    8       30     4  49    3.3353   584.3    3.303      48.578
2015    8       30     4  56    3.3338   584.2    3.302      48.557
2015    8       30     5   3    3.3322   584.1    3.302      48.537
2015    8       30     5  10    3.3307   584.0    3.302      48.515
2015    8       30     5  17    3.3291   583.9    3.302      48.493
2015    8       30     5  24    3.3276   583.8    3.302      48.471
2015    8       30     5  30    3.3260   583.7    3.301      48.448
2015    8       30     5  37    3.3245   583.6    3.301      48.424
2015    8       30     5  44    3.3229   583.5    3.301      48.400
2015    8       30     5  51    3.3213   583.4    3.300      48.375
2015    8       30     5  58    3.3197   583.3    3.300      48.350
2015    8       30     6   5    3.3182   583.2    3.299      48.324
2015    8       30     6  12    3.3166   583.1    3.299      48.298
2015    8       30     6  19    3.3150   583.0    3.298      48.271
2015    8       30     6  26    3.3135   582.9    3.298      48.244
2015    8       30     6  33    3.3119   582.8    3.297      48.217
2015    8       30     6  40    3.3104   582.7    3.297      48.189
2015    8       30     6  47    3.3088   582.6    3.296      48.161
2015    8       30     6  53    3.3073   582.5    3.296      48.134
2015    8       30     7   0    3.3057   582.5    3.296      48.106
2015    8       30     7   7    3.3042   582.4    3.295      48.078
2015    8       30     7  14    3.3027   582.3    3.295      48.050
2015    8       30     7  21    3.3012   582.2    3.295      48.023
2015    8       30     7  28    3.2997   582.1    3.294      47.995
2015    8       30     7  35    3.2983   582.0    3.294      47.968
2015    8       30     7  42    3.2968   581.9    3.294      47.941
2015    8       30     7  49    3.2954   581.8    3.294      47.915
2015    8       30     7  56    3.2940   581.7    3.294      47.889
2015    8       30     8   3    3.2926   581.6    3.295      47.864
2015    8       30     8  10    3.2912   581.5    3.295      47.840
2015    8       30     8  16    3.2899   581.4    3.295      47.816
2015    8       30     8  23    3.2885   581.3    3.296      47.793
2015    8       30     8  30    3.2872   581.2    3.296      47.770
2015    8       30     8  37    3.2859   581.1    3.296      47.749
2015    8       30     8  44    3.2846   581.0    3.297      47.729
2015    8       30     8  51    3.2833   580.9    3.297      47.711
2015    8       30     8  58    3.2820   580.8    3.298      47.693
2015    8       30     9   4    3.2807   580.7    3.298      47.676
2015    8       30     9  11    3.2795   580.6    3.298      47.659
2015    8       30     9  18    3.2782   580.5    3.299      47.641
2015    8       30     9  25    3.2769   580.4    3.299      47.624
2015    8       30     9  32    3.2756   580.3    3.299      47.607
2015    8       30     9  39    3.2743   580.2    3.299      47.590
2015    8       30     9  46    3.2730   580.1    3.299      47.573
2015    8       30     9  52    3.2717   580.0    3.299      47.555
2015    8       30     9  59    3.2704   579.9    3.299      47.536
2015    8       30    10   6    3.2691   579.8    3.299      47.517
2015    8       30    10  13    3.2678   579.7    3.299      47.496
2015    8       30    10  20    3.2665   579.6    3.298      47.476
2015    8       30    10  27    3.2652   579.5    3.298      47.454
2015    8       30    10  34    3.2639   579.4    3.298      47.432
2015    8       30    10  40    3.2626   579.3    3.297      47.409
2015    8       30    10  47    3.2612   579.2    3.297      47.386
2015    8       30    10  54    3.2599   579.1    3.296      47.362
2015    8       30    11   1    3.2586   579.0    3.296      47.337
2015    8       30    11   8    3.2573   578.9    3.295      47.313
2015    8       30    11  15    3.2560   578.8    3.295      47.288
2015    8       30    11  22    3.2548   578.7    3.294      47.262
2015    8       30    11  29    3.2535   578.6    3.293      47.237
2015    8       30    11  35    3.2522   578.5    3.293      47.211
2015    8       30    11  42    3.2509   578.4    3.292      47.185
2015    8       30    11  49    3.2496   578.3    3.292      47.158
2015    8       30    11  56    3.2483   578.2    3.291      47.132
2015    8       30    12   3    3.2470   578.1    3.290      47.105
2015    8       30    12  10    3.2457   578.0    3.290      47.078
2015    8       30    12  17    3.2444   577.9    3.289      47.050
2015    8       30    12  24    3.2431   577.8    3.288      47.022
2015    8       30    12  31    3.2418   577.7    3.288      46.993
2015    8       30    12  37    3.2405   577.6    3.287      46.965
2015    8       30    12  44    3.2392   577.4    3.286      46.935
2015    8       30    12  51    3.2379   577.3    3.286      46.906
2015    8       30    12  58    3.2366   577.2    3.285      46.876
2015    8       30    13   5    3.2353   577.1    3.284      46.847
2015    8       30    13  12    3.2340   577.0    3.284      46.816
2015    8       30    13  19    3.2327   576.9    3.283      46.786
2015    8       30    13  26    3.2314   576.8    3.282      46.756
2015    8       30    13  33    3.2302   576.7    3.282      46.726
2015    8       30    13  40    3.2289   576.5    3.281      46.695
2015    8       30    13  47    3.2276   576.4    3.280      46.665
2015    8       30    13  54    3.2264   576.3    3.280      46.635
2015    8       30    14   0    3.2252   576.2    3.279      46.606
2015    8       30    14   7    3.2239   576.1    3.279      46.576
2015    8       30    14  14    3.2227   576.0    3.279      46.547
2015    8       30    14  21    3.2215   575.9    3.278      46.518
2015    8       30    14  28    3.2204   575.7    3.278      46.490
2015    8       30    14  35    3.2192   575.6    3.278      46.462
2015    8       30    14  42    3.2181   575.5    3.278      46.435
2015    8       30    14  49    3.2169   575.4    3.278      46.408
2015    8       30    14  56    3.2158   575.3    3.278      46.382
2015    8       30    15   3    3.2147   575.2    3.278      46.356
2015    8       30    15  10    3.2136   575.1    3.279      46.332
2015    8       30    15  17    3.2125   575.0    3.279      46.307
2015    8       30    15  23    3.2115   574.9    3.279      46.284
2015    8       30    15  30    3.2104   574.7    3.280      46.261
2015    8       30    15  37    3.2094   574.6    3.281      46.239
2015    8       30    15  44    3.2084   574.5    3.281      46.218
2015    8       30    15  51    3.2073   574.4    3.282      46.199
2015    8       30    15  58    3.2063   574.3    3.283      46.181
2015    8       30    16   5    3.2053   574.2    3.284      46.164
2015    8       30    16  12    3.2042   574.1    3.285      46.148
2015    8       30    16  18    3.2032   574.0    3.285      46.133
2015    8       30    16  25    3.2021   573.9    3.286      46.119
2015    8       30    16  32    3.2011   573.8    3.287      46.105
2015    8       30    16  39    3.2001   573.7    3.288      46.091
2015    8       30    16  46    3.1990   573.6    3.289      46.078
2015    8       30    16  53    3.1980   573.5    3.290      46.066
2015    8       30    17   0    3.1970   573.4    3.291      46.054
2015    8       30    17   6    3.1959   573.3    3.293      46.043
2015    8       30    17  13    3.1949   573.2    3.294      46.033
2015    8       30    17  20    3.1939   573.1    3.295      46.022
2015    8       30    17  27    3.1928   573.0    3.296      46.012
2015    8       30    17  34    3.1918   572.9    3.297      46.002
2015    8       30    17  41    3.1908   572.8    3.298      45.991
2015    8       30    17  48    3.1897   572.7    3.299      45.980
2015    8       30    17  54    3.1887   572.6    3.300      45.970
2015    8       30    18   1    3.1877   572.5    3.301      45.959
2015    8       30    18   8    3.1866   572.4    3.302      45.949
2015    8       30    18  15    3.1856   572.3    3.303      45.938
2015    8       30    18  22    3.1845   572.2    3.304      45.928
2015    8       30    18  29    3.1835   572.1    3.304      45.917
2015    8       30    18  36    3.1824   572.0    3.305      45.905
2015    8       30    18  43    3.1814   571.9    3.306      45.893
2015    8       30    18  49    3.1803   571.8    3.306      45.880
2015    8       30    18  56    3.1793   571.7    3.307      45.866
2015    8       30    19   3    3.1782   571.6    3.307      45.852
2015    8       30    19  10    3.1771   571.5    3.307      45.837
2015    8       30    19  17    3.1761   571.4    3.308      45.821
2015    8       30    19  24    3.1750   571.3    3.308      45.804
2015    8       30    19  31    3.1739   571.2    3.308      45.788
2015    8       30    19  38    3.1729   571.1    3.308      45.770
2015    8       30    19  44    3.1718   571.0    3.308      45.751
2015    8       30    19  51    3.1708   570.9    3.308      45.732
2015    8       30    19  58    3.1697   570.8    3.308      45.713
2015    8       30    20   5    3.1686   570.7    3.308      45.693
2015    8       30    20  12    3.1676   570.6    3.308      45.672
2015    8       30    20  19    3.1665   570.5    3.307      45.651
2015    8       30    20  26    3.1655   570.4    3.307      45.630
2015    8       30    20  33    3.1645   570.3    3.307      45.608
2015    8       30    20  40    3.1634   570.2    3.307      45.586
2015    8       30    20  47    3.1623   570.1    3.306      45.564
2015    8       30    20  54    3.1613   570.0    3.306      45.542
2015    8       30    21   1    3.1602   569.9    3.305      45.519
2015    8       30    21   7    3.1591   569.8    3.305      45.496
2015    8       30    21  14    3.1581   569.7    3.304      45.472
2015    8       30    21  21    3.1570   569.5    3.304      45.448
2015    8       30    21  28    3.1559   569.4    3.303      45.423
2015    8       30    21  35    3.1548   569.3    3.302      45.399
2015    8       30    21  42    3.1537   569.2    3.302      45.374
2015    8       30    21  49    3.1526   569.1    3.301      45.349
2015    8       30    21  56    3.1515   569.0    3.301      45.323
2015    8       30    22   3    3.1505   568.9    3.300      45.298
2015    8       30    22  10    3.1494   568.8    3.299      45.272
2015    8       30    22  17    3.1483   568.7    3.299      45.247
2015    8       30    22  24    3.1472   568.6    3.298      45.221
2015    8       30    22  30    3.1461   568.5    3.298      45.196
2015    8       30    22  37    3.1450   568.4    3.297      45.171
2015    8       30    22  44    3.1439   568.3    3.297      45.146
2015    8       30    22  51    3.1428   568.2    3.297      45.120
2015    8       30    22  58    3.1417   568.1    3.296      45.095
2015    8       30    23   5    3.1406   568.0    3.296      45.070
2015    8       30    23  12    3.1395   567.9    3.295      45.045
2015    8       30    23  19    3.1384   567.7    3.295      45.020
2015    8       30    23  26    3.1373   567.6    3.295      44.995
2015    8       30    23  32    3.1362   567.5    3.295      44.970
2015    8       30    23  39    3.1351   567.4    3.294      44.946
2015    8       30    23  46    3.1339   567.3    3.294      44.921
2015    8       30    23  53    3.1328   567.2    3.294      44.897
2015    8       31     0   0    3.1317   567.1    3.294      44.874
2015    8       31     0   7    3.1306   567.0    3.294      44.851
2015    8       31     0  14    3.1295   566.8    3.294      44.828
2015    8       31     0  20    3.1284   566.7    3.295      44.806
2015    8       31     0  27    3.1274   566.6    3.295      44.785
2015    8       31     0  34    3.1263   566.5    3.295      44.764
2015    8       31     0  41    3.1252   566.4    3.296      44.744
2015    8       31     0  48    3.1242   566.3    3.296      44.725
2015    8       31     0  55    3.1232   566.1    3.297      44.706
2015    8       31     1   1    3.1222   566.0    3.297      44.689
2015    8       31     1   8    3.1212   565.9    3.298      44.672
2015    8       31     1  15    3.1203   565.8    3.299      44.656
2015    8       31     1  22    3.1193   565.7    3.300      44.641
2015    8       31     1  29    3.1184   565.5    3.301      44.627
2015    8       31     1  36    3.1175   565.4    3.302      44.613
2015    8       31     1  43    3.1167   565.3    3.303      44.600
2015    8       31     1  50    3.1158   565.2    3.304      44.588
2015    8       31     1  56    3.1150   565.1    3.306      44.577
2015    8       31     2   3    3.1142   565.0    3.307      44.566
2015    8       31     2  10    3.1134   564.8    3.309      44.556
2015    8       31     2  17    3.1126   564.7    3.310      44.547
2015    8       31     2  24    3.1119   564.6    3.311      44.539
2015    8       31     2  31    3.1111   564.5    3.313      44.531
2015    8       31     2  38    3.1103   564.4    3.314      44.524
2015    8       31     2  45    3.1095   564.3    3.316      44.516
2015    8       31     2  52    3.1088   564.2    3.317      44.508
2015    8       31     2  58    3.1080   564.1    3.318      44.501
2015    8       31     3   5    3.1071   564.0    3.320      44.493
2015    8       31     3  12    3.1063   563.9    3.321      44.485
2015    8       31     3  19    3.1055   563.8    3.322      44.477
2015    8       31     3  26    3.1047   563.7    3.323      44.469
2015    8       31     3  33    3.1039   563.5    3.324      44.461
2015    8       31     3  40    3.1030   563.4    3.325      44.452
2015    8       31     3  47    3.1022   563.3    3.326      44.443
2015    8       31     3  54    3.1013   563.2    3.327      44.434
2015    8       31     4   1    3.1004   563.1    3.328      44.424
2015    8       31     4   8    3.0995   563.0    3.329      44.414
2015    8       31     4  14    3.0986   562.9    3.330      44.404
2015    8       31     4  21    3.0977   562.8    3.331      44.393
2015    8       31     4  28    3.0967   562.7    3.331      44.383
2015    8       31     4  35    3.0957   562.6    3.332      44.372
2015    8       31     4  42    3.0947   562.5    3.333      44.361
2015    8       31     4  49    3.0937   562.4    3.333      44.349
2015    8       31     4  56    3.0927   562.3    3.334      44.336
2015    8       31     5   3    3.0917   562.2    3.334      44.323
2015    8       31     5  10    3.0906   562.1    3.334      44.310
2015    8       31     5  17    3.0896   562.0    3.335      44.296
2015    8       31     5  24    3.0885   561.9    3.335      44.282
2015    8       31     5  31    3.0874   561.8    3.335      44.267
2015    8       31     5  38    3.0863   561.7    3.336      44.251
2015    8       31     5  44    3.0852   561.6    3.336      44.236
2015    8       31     5  51    3.0841   561.5    3.336      44.220
2015    8       31     5  58    3.0830   561.4    3.336      44.203
2015    8       31     6   5    3.0819   561.3    3.336      44.187
2015    8       31     6  12    3.0808   561.2    3.336      44.170
2015    8       31     6  19    3.0797   561.1    3.336      44.153
2015    8       31     6  26    3.0786   560.9    3.336      44.135
2015    8       31     6  33    3.0775   560.8    3.336      44.117
2015    8       31     6  40    3.0763   560.7    3.336      44.099
2015    8       31     6  46    3.0752   560.6    3.336      44.081
2015    8       31     6  53    3.0741   560.5    3.336      44.062
2015    8       31     7   0    3.0730   560.4    3.336      44.043
2015    8       31     7   7    3.0719   560.3    3.336      44.024
2015    8       31     7  14    3.0707   560.2    3.336      44.004
2015    8       31     7  21    3.0696   560.1    3.336      43.984
2015    8       31     7  27    3.0685   559.9    3.336      43.964
2015    8       31     7  34    3.0674   559.8    3.336      43.944
2015    8       31     7  41    3.0663   559.7    3.336      43.923
2015    8       31     7  48    3.0653   559.6    3.336      43.902
2015    8       31     7  55    3.0642   559.5    3.336      43.882
2015    8       31     8   2    3.0631   559.4    3.336      43.861
2015    8       31     8   9    3.0621   559.2    3.336      43.841
2015    8       31     8  15    3.0611   559.1    3.336      43.820
2015    8       31     8  22    3.0600   559.0    3.336      43.800
2015    8       31     8  29    3.0590   558.9    3.337      43.780
2015    8       31     8  36    3.0580   558.8    3.337      43.761
2015    8       31     8  43    3.0570   558.6    3.337      43.741
2015    8       31     8  50    3.0561   558.5    3.338      43.722
2015    8       31     8  57    3.0551   558.4    3.338      43.703
2015    8       31     9   4    3.0542   558.3    3.339      43.684
2015    8       31     9  10    3.0532   558.2    3.339      43.665
2015    8       31     9  17    3.0523   558.1    3.340      43.648
2015    8       31     9  24    3.0514   557.9    3.340      43.630
2015    8       31     9  31    3.0505   557.8    3.341      43.612
2015    8       31     9  38    3.0496   557.7    3.342      43.595
2015    8       31     9  45    3.0487   557.6    3.343      43.578
2015    8       31     9  52    3.0478   557.5    3.343      43.561
2015    8       31     9  59    3.0469   557.3    3.344      43.545
2015    8       31    10   6    3.0460   557.2    3.345      43.529
2015    8       31    10  12    3.0452   557.1    3.346      43.514
2015    8       31    10  19    3.0443   557.0    3.347      43.498
2015    8       31    10  26    3.0434   556.9    3.348      43.483
2015    8       31    10  33    3.0425   556.8    3.349      43.468
2015    8       31    10  40    3.0416   556.6    3.350      43.453
2015    8       31    10  47    3.0407   556.5    3.351      43.438
2015    8       31    10  54    3.0398   556.4    3.352      43.424
2015    8       31    11   1    3.0389   556.3    3.353      43.410
2015    8       31    11   8    3.0379   556.2    3.354      43.395
2015    8       31    11  15    3.0370   556.0    3.355      43.381
2015    8       31    11  21    3.0360   555.9    3.356      43.366
2015    8       31    11  28    3.0351   555.8    3.356      43.352
2015    8       31    11  35    3.0341   555.7    3.357      43.337
2015    8       31    11  42    3.0331   555.6    3.358      43.322
2015    8       31    11  49    3.0321   555.4    3.359      43.308
2015    8       31    11  56    3.0311   555.3    3.360      43.293
2015    8       31    12   3    3.0301   555.2    3.361      43.278
2015    8       31    12  10    3.0291   555.1    3.362      43.263
2015    8       31    12  17    3.0281   554.9    3.363      43.249
2015    8       31    12  24    3.0271   554.8    3.364      43.234
2015    8       31    12  31    3.0260   554.7    3.365      43.219
2015    8       31    12  38    3.0250   554.6    3.366      43.205
2015    8       31    12  45    3.0240   554.4    3.367      43.190
2015    8       31    12  52    3.0230   554.3    3.368      43.176
2015    8       31    12  58    3.0220   554.2    3.369      43.162
2015    8       31    13   5    3.0210   554.1    3.370      43.149
2015    8       31    13  12    3.0200   553.9    3.371      43.135
2015    8       31    13  19    3.0190   553.8    3.372      43.122
2015    8       31    13  26    3.0180   553.7    3.373      43.110
2015    8       31    13  33    3.0170   553.6    3.374      43.098
2015    8       31    13  40    3.0160   553.4    3.376      43.086
2015    8       31    13  47    3.0150   553.3    3.377      43.075
2015    8       31    13  53    3.0141   553.2    3.378      43.064
2015    8       31    14   0    3.0131   553.1    3.379      43.053
2015    8       31    14   7    3.0121   552.9    3.381      43.043
2015    8       31    14  14    3.0111   552.8    3.382      43.033
2015    8       31    14  21    3.0101   552.7    3.383      43.023
2015    8       31    14  28    3.0091   552.6    3.385      43.014
2015    8       31    14  35    3.0082   552.5    3.386      43.004
2015    8       31    14  41    3.0072   552.3    3.387      42.994
2015    8       31    14  48    3.0062   552.2    3.388      42.984
2015    8       31    14  55    3.0051   552.1    3.390      42.974
2015    8       31    15   2    3.0041   552.0    3.391      42.964
2015    8       31    15   9    3.0031   551.9    3.392      42.953
2015    8       31    15  16    3.0021   551.7    3.393      42.942
2015    8       31    15  23    3.0011   551.6    3.394      42.931
2015    8       31    15  29    3.0000   551.5    3.395      42.919
2015    8       31    15  36    2.9990   551.4    3.396      42.907
2015    8       31    15  43    2.9979   551.3    3.397      42.895
2015    8       31    15  50    2.9969   551.1    3.398      42.882
2015    8       31    15  57    2.9958   551.0    3.399      42.869
2015    8       31    16   4    2.9948   550.9    3.400      42.854
2015    8       31    16  11    2.9937   550.8    3.401      42.840
2015    8       31    16  18    2.9926   550.7    3.401      42.825
2015    8       31    16  24    2.9916   550.5    3.402      42.809
2015    8       31    16  31    2.9905   550.4    3.403      42.793
2015    8       31    16  38    2.9895   550.3    3.403      42.776
2015    8       31    16  45    2.9884   550.2    3.404      42.759
2015    8       31    16  52    2.9873   550.0    3.405      42.742
2015    8       31    16  59    2.9863   549.9    3.405      42.724
2015    8       31    17   6    2.9852   549.8    3.406      42.706
2015    8       31    17  13    2.9842   549.7    3.406      42.687
2015    8       31    17  19    2.9831   549.5    3.407      42.669
2015    8       31    17  26    2.9821   549.4    3.407      42.650
2015    8       31    17  33    2.9810   549.3    3.408      42.631
2015    8       31    17  40    2.9800   549.2    3.408      42.612
2015    8       31    17  47    2.9790   549.0    3.409      42.593
2015    8       31    17  54    2.9779   548.9    3.410      42.573
2015    8       31    18   1    2.9769   548.8    3.410      42.554
2015    8       31    18   8    2.9758   548.7    3.411      42.535
2015    8       31    18  15    2.9748   548.5    3.411      42.516
2015    8       31    18  22    2.9737   548.4    3.412      42.497
2015    8       31    18  29    2.9727   548.3    3.413      42.478
2015    8       31    18  35    2.9716   548.1    3.413      42.459
2015    8       31    18  42    2.9706   548.0    3.414      42.440
2015    8       31    18  49    2.9695   547.9    3.414      42.421
2015    8       31    18  56    2.9684   547.7    3.415      42.402
2015    8       31    19   3    2.9674   547.6    3.416      42.383
2015    8       31    19  10    2.9663   547.5    3.417      42.364
2015    8       31    19  17    2.9652   547.4    3.417      42.345
2015    8       31    19  24    2.9641   547.2    3.418      42.327
2015    8       31    19  31    2.9630   547.1    3.419      42.307
2015    8       31    19  38    2.9620   547.0    3.419      42.289
2015    8       31    19  45    2.9609   546.8    3.420      42.270
2015    8       31    19  52    2.9598   546.7    3.421      42.251
2015    8       31    19  59    2.9587   546.6    3.421      42.232
2015    8       31    20   5    2.9575   546.4    3.422      42.214
2015    8       31    20  12    2.9564   546.3    3.423      42.195
2015    8       31    20  19    2.9553   546.2    3.423      42.176
2015    8       31    20  26    2.9542   546.0    3.424      42.157
2015    8       31    20  33    2.9531   545.9    3.425      42.139
2015    8       31    20  40    2.9519   545.8    3.425      42.120
2015    8       31    20  47    2.9508   545.6    3.426      42.101
2015    8       31    20  54    2.9496   545.5    3.427      42.082
2015    8       31    21   1    2.9485   545.4    3.427      42.064
2015    8       31    21   7    2.9473   545.2    3.428      42.045
2015    8       31    21  14    2.9462   545.1    3.429      42.027
2015    8       31    21  21    2.9450   545.0    3.430      42.009
2015    8       31    21  28    2.9438   544.8    3.430      41.990
2015    8       31    21  35    2.9426   544.7    3.431      41.972
2015    8       31    21  42    2.9415   544.6    3.432      41.954
2015    8       31    21  49    2.9403   544.4    3.433      41.937
2015    8       31    21  55    2.9391   544.3    3.433      41.919
2015    8       31    22   2    2.9379   544.2    3.434      41.901
2015    8       31    22   9    2.9367   544.0    3.435      41.884
2015    8       31    22  16    2.9355   543.9    3.436      41.867
2015    8       31    22  23    2.9343   543.8    3.437      41.850
2015    8       31    22  30    2.9331   543.6    3.438      41.834
2015    8       31    22  36    2.9320   543.5    3.439      41.817
2015    8       31    22  43    2.9307   543.4    3.439      41.801
2015    8       31    22  50    2.9295   543.3    3.440      41.785
2015    8       31    22  57    2.9283   543.1    3.441      41.769
2015    8       31    23   4    2.9271   543.0    3.442      41.754
2015    8       31    23  11    2.9259   542.9    3.443      41.738
2015    8       31    23  18    2.9247   542.7    3.444      41.722
2015    8       31    23  25    2.9235   542.6    3.445      41.707
2015    8       31    23  31    2.9222   542.5    3.446      41.691
2015    8       31    23  38    2.9210   542.3    3.447      41.675
2015    8       31    23  45    2.9198   542.2    3.448      41.660
2015    8       31    23  52    2.9185   542.1    3.449      41.644
2015    8       31    23  59    2.9173   542.0    3.450      41.628
2015    9        1     0   6    2.9160   541.8    3.451      41.612
2015    9        1     0  13    2.9147   541.7    3.451      41.596
2015    9        1     0  20    2.9135   541.5    3.452      41.580
2015    9        1     0  27    2.9122   541.4    3.453      41.563
2015    9        1     0  33    2.9109   541.3    3.454      41.546
2015    9        1     0  40    2.9096   541.1    3.454      41.529
2015    9        1     0  47    2.9083   541.0    3.455      41.512
2015    9        1     0  54    2.9071   540.9    3.456      41.494
2015    9        1     1   1    2.9058   540.7    3.456      41.477
2015    9        1     1   8    2.9045   540.6    3.457      41.459
2015    9        1     1  15    2.9032   540.5    3.458      41.440
2015    9        1     1  22    2.9019   540.3    3.458      41.422
2015    9        1     1  29    2.9006   540.2    3.459      41.403
2015    9        1     1  36    2.8992   540.0    3.459      41.384
2015    9        1     1  42    2.8979   539.9    3.460      41.364
2015    9        1     1  49    2.8966   539.8    3.460      41.345
2015    9        1     1  56    2.8952   539.6    3.461      41.325
2015    9        1     2   3    2.8939   539.5    3.461      41.305
2015    9        1     2  10    2.8925   539.3    3.462      41.284
2015    9        1     2  17    2.8912   539.2    3.462      41.264
2015    9        1     2  24    2.8898   539.1    3.463      41.242
2015    9        1     2  31    2.8884   538.9    3.463      41.221
2015    9        1     2  38    2.8870   538.8    3.463      41.200
2015    9        1     2  45    2.8856   538.6    3.464      41.178
2015    9        1     2  52    2.8842   538.5    3.464      41.156
2015    9        1     2  59    2.8828   538.3    3.464      41.134
2015    9        1     3   6    2.8814   538.2    3.465      41.111
2015    9        1     3  12    2.8800   538.1    3.465      41.088
2015    9        1     3  19    2.8785   537.9    3.465      41.065
2015    9        1     3  26    2.8771   537.8    3.466      41.042
2015    9        1     3  33    2.8756   537.6    3.466      41.019
2015    9        1     3  40    2.8742   537.5    3.466      40.995
2015    9        1     3  47    2.8727   537.3    3.467      40.971
2015    9        1     3  54    2.8712   537.2    3.467      40.947
2015    9        1     4   1    2.8697   537.0    3.467      40.922
2015    9        1     4   8    2.8681   536.9    3.467      40.898
2015    9        1     4  15    2.8666   536.7    3.467      40.873
2015    9        1     4  21    2.8651   536.6    3.468      40.848
2015    9        1     4  28    2.8635   536.5    3.468      40.823
2015    9        1     4  35    2.8620   536.3    3.468      40.798
2015    9        1     4  42    2.8604   536.2    3.468      40.772
2015    9        1     4  49    2.8588   536.0    3.468      40.746
2015    9        1     4  56    2.8572   535.9    3.468      40.720
2015    9        1     5   3    2.8556   535.7    3.469      40.694
2015    9        1     5   9    2.8540   535.6    3.469      40.668
2015    9        1     5  16    2.8524   535.4    3.469      40.641
2015    9        1     5  23    2.8508   535.3    3.469      40.615
2015    9        1     5  30    2.8492   535.1    3.469      40.588
2015    9        1     5  37    2.8475   535.0    3.469      40.561
2015    9        1     5  44    2.8459   534.8    3.469      40.535
2015    9        1     5  51    2.8442   534.6    3.469      40.508
2015    9        1     5  57    2.8426   534.5    3.469      40.481
2015    9        1     6   4    2.8409   534.3    3.470      40.455
2015    9        1     6  11    2.8393   534.2    3.470      40.429
2015    9        1     6  18    2.8376   534.0    3.470      40.402
2015    9        1     6  25    2.8359   533.9    3.470      40.377
2015    9        1     6  32    2.8343   533.7    3.470      40.351
2015    9        1     6  39    2.8326   533.6    3.471      40.325
2015    9        1     6  45    2.8309   533.4    3.471      40.300
2015    9        1     6  52    2.8293   533.2    3.471      40.275
2015    9        1     6  59    2.8276   533.1    3.472      40.250
2015    9        1     7   6    2.8259   532.9    3.472      40.225
2015    9        1     7  13    2.8243   532.8    3.472      40.200
2015    9        1     7  20    2.8226   532.6    3.473      40.175
2015    9        1     7  27    2.8209   532.5    3.473      40.150
2015    9        1     7  34    2.8192   532.3    3.474      40.126
2015    9        1     7  40    2.8175   532.1    3.474      40.100
2015    9        1     7  47    2.8158   532.0    3.474      40.075
2015    9        1     7  54    2.8141   531.8    3.474      40.050
2015    9        1     8   1    2.8124   531.6    3.475      40.024
2015    9        1     8   8    2.8107   531.5    3.475      39.998
2015    9        1     8  15    2.8090   531.3    3.475      39.972
2015    9        1     8  22    2.8072   531.2    3.475      39.945
2015    9        1     8  29    2.8055   531.0    3.476      39.918
2015    9        1     8  36    2.8038   530.8    3.476      39.891
2015    9        1     8  43    2.8020   530.6    3.476      39.863
2015    9        1     8  50    2.8003   530.5    3.476      39.835
2015    9        1     8  56    2.7986   530.3    3.476      39.807
2015    9        1     9   3    2.7968   530.1    3.476      39.778
2015    9        1     9  10    2.7950   530.0    3.476      39.749
2015    9        1     9  17    2.7933   529.8    3.476      39.720
2015    9        1     9  24    2.7915   529.6    3.476      39.691
2015    9        1     9  31    2.7898   529.4    3.476      39.661
2015    9        1     9  38    2.7880   529.3    3.476      39.632
2015    9        1     9  45    2.7862   529.1    3.476      39.602
2015    9        1     9  52    2.7845   528.9    3.476      39.572
2015    9        1     9  59    2.7827   528.7    3.476      39.542
2015    9        1    10   6    2.7810   528.6    3.476      39.512
2015    9        1    10  13    2.7792   528.4    3.476      39.481
2015    9        1    10  19    2.7774   528.2    3.476      39.451
2015    9        1    10  26    2.7757   528.0    3.476      39.421
2015    9        1    10  33    2.7739   527.8    3.476      39.391
2015    9        1    10  40    2.7721   527.7    3.477      39.361
2015    9        1    10  47    2.7704   527.5    3.477      39.331
2015    9        1    10  54    2.7686   527.3    3.477      39.301
2015    9        1    11   1    2.7669   527.1    3.477      39.271
2015    9        1    11   8    2.7651   526.9    3.477      39.241
2015    9        1    11  15    2.7634   526.8    3.478      39.212
2015    9        1    11  22    2.7616   526.6    3.478      39.182
2015    9        1    11  28    2.7598   526.4    3.478      39.153
2015    9        1    11  35    2.7581   526.2    3.479      39.123
2015    9        1    11  42    2.7563   526.0    3.479      39.094
2015    9        1    11  49    2.7545   525.9    3.480      39.064
2015    9        1    11  56    2.7527   525.7    3.480      39.035
2015    9        1    12   3    2.7510   525.5    3.481      39.005
2015    9        1    12  10    2.7492   525.3    3.481      38.976
2015    9        1    12  17    2.7473   525.1    3.482      38.946
2015    9        1    12  23    2.7455   524.9    3.482      38.917
2015    9        1    12  30    2.7437   524.8    3.483      38.887
2015    9        1    12  37    2.7418   524.6    3.483      38.857
2015    9        1    12  44    2.7400   524.4    3.484      38.827
2015    9        1    12  51    2.7381   524.2    3.484      38.797
2015    9        1    12  58    2.7363   524.0    3.485      38.766
2015    9        1    13   4    2.7344   523.8    3.485      38.736
2015    9        1    13  11    2.7325   523.6    3.486      38.705
2015    9        1    13  18    2.7306   523.4    3.486      38.674
2015    9        1    13  25    2.7287   523.3    3.486      38.643
2015    9        1    13  32    2.7268   523.1    3.487      38.611
2015    9        1    13  39    2.7249   522.9    3.487      38.579
2015    9        1    13  46    2.7230   522.7    3.488      38.548
2015    9        1    13  53    2.7211   522.5    3.488      38.515
2015    9        1    13  59    2.7192   522.3    3.488      38.483
2015    9        1    14   6    2.7172   522.1    3.488      38.450
2015    9        1    14  13    2.7153   521.9    3.489      38.418
2015    9        1    14  20    2.7134   521.7    3.489      38.385
2015    9        1    14  27    2.7115   521.5    3.489      38.352
2015    9        1    14  34    2.7096   521.3    3.489      38.318
2015    9        1    14  41    2.7077   521.1    3.490      38.285
2015    9        1    14  48    2.7058   520.9    3.490      38.251
2015    9        1    14  54    2.7039   520.7    3.490      38.217
2015    9        1    15   1    2.7020   520.5    3.490      38.182
2015    9        1    15   8    2.7001   520.3    3.490      38.148
2015    9        1    15  15    2.6982   520.1    3.490      38.113
2015    9        1    15  22    2.6963   519.9    3.490      38.078
2015    9        1    15  29    2.6944   519.7    3.490      38.042
2015    9        1    15  36    2.6925   519.5    3.490      38.006
2015    9        1    15  43    2.6905   519.3    3.490      37.970
2015    9        1    15  50    2.6886   519.1    3.490      37.933
2015    9        1    15  57    2.6867   518.9    3.490      37.896
2015    9        1    16   3    2.6848   518.7    3.490      37.859
2015    9        1    16  10    2.6829   518.5    3.490      37.821
2015    9        1    16  17    2.6810   518.3    3.490      37.783
2015    9        1    16  24    2.6791   518.1    3.490      37.745
2015    9        1    16  31    2.6772   517.9    3.490      37.707
2015    9        1    16  38    2.6753   517.6    3.490      37.668
2015    9        1    16  45    2.6734   517.4    3.489      37.629
2015    9        1    16  52    2.6714   517.2    3.489      37.590
2015    9        1    16  59    2.6696   517.0    3.489      37.550
2015    9        1    17   6    2.6676   516.8    3.489      37.511
2015    9        1    17  13    2.6658   516.6    3.489      37.471
2015    9        1    17  20    2.6639   516.4    3.489      37.431
2015    9        1    17  26    2.6620   516.1    3.489      37.391
2015    9        1    17  33    2.6601   515.9    3.489      37.351
2015    9        1    17  40    2.6582   515.7    3.489      37.311
2015    9        1    17  47    2.6564   515.5    3.489      37.271
2015    9        1    17  54    2.6545   515.2    3.489      37.231
2015    9        1    18   1    2.6526   515.0    3.489      37.191
2015    9        1    18   8    2.6508   514.8    3.489      37.152
2015    9        1    18  15    2.6490   514.6    3.489      37.112
2015    9        1    18  22    2.6472   514.4    3.489      37.073
2015    9        1    18  29    2.6454   514.1    3.490      37.033
2015    9        1    18  36    2.6436   513.9    3.490      36.994
2015    9        1    18  42    2.6418   513.7    3.490      36.955
2015    9        1    18  49    2.6400   513.5    3.491      36.917
2015    9        1    18  56    2.6383   513.2    3.491      36.879
2015    9        1    19   3    2.6365   513.0    3.492      36.841
2015    9        1    19  10    2.6348   512.8    3.492      36.803
2015    9        1    19  17    2.6330   512.6    3.493      36.765
2015    9        1    19  24    2.6313   512.3    3.494      36.728
2015    9        1    19  30    2.6296   512.1    3.494      36.691
2015    9        1    19  37    2.6279   511.9    3.495      36.654
2015    9        1    19  44    2.6261   511.7    3.496      36.618
2015    9        1    19  51    2.6244   511.4    3.497      36.581
2015    9        1    19  58    2.6227   511.2    3.498      36.546
2015    9        1    20   5    2.6209   511.0    3.499      36.510
2015    9        1    20  12    2.6192   510.8    3.500      36.474
2015    9        1    20  18    2.6175   510.6    3.501      36.439
2015    9        1    20  25    2.6158   510.3    3.502      36.404
2015    9        1    20  32    2.6140   510.1    3.503      36.368
2015    9        1    20  39    2.6123   509.9    3.504      36.333
2015    9        1    20  46    2.6105   509.7    3.505      36.298
2015    9        1    20  53    2.6088   509.4    3.506      36.263
2015    9        1    21   0    2.6071   509.2    3.508      36.228
2015    9        1    21   6    2.6054   509.0    3.509      36.194
2015    9        1    21  13    2.6037   508.8    3.510      36.159
2015    9        1    21  20    2.6020   508.5    3.511      36.124
2015    9        1    21  27    2.6003   508.3    3.512      36.089
2015    9        1    21  34    2.5986   508.1    3.513      36.055
2015    9        1    21  41    2.5969   507.8    3.514      36.020
2015    9        1    21  48    2.5953   507.6    3.515      35.986
2015    9        1    21  55    2.5936   507.4    3.516      35.951
2015    9        1    22   1    2.5919   507.2    3.517      35.917
2015    9        1    22   8    2.5903   506.9    3.519      35.882
2015    9        1    22  15    2.5886   506.7    3.520      35.847
2015    9        1    22  22    2.5869   506.5    3.521      35.812
2015    9        1    22  29    2.5852   506.2    3.521      35.776
2015    9        1    22  36    2.5835   506.0    3.522      35.740
2015    9        1    22  43    2.5818   505.8    3.523      35.705
2015    9        1    22  50    2.5801   505.5    3.524      35.668
2015    9        1    22  57    2.5784   505.3    3.525      35.632
2015    9        1    23   4    2.5767   505.0    3.525      35.594
2015    9        1    23  10    2.5750   504.8    3.526      35.556
2015    9        1    23  17    2.5733   504.6    3.527      35.518
2015    9        1    23  24    2.5716   504.3    3.527      35.480
2015    9        1    23  31    2.5699   504.1    3.528      35.441
2015    9        1    23  38    2.5682   503.8    3.528      35.401
2015    9        1    23  45    2.5665   503.6    3.529      35.361
2015    9        1    23  52    2.5648   503.3    3.529      35.321
2015    9        1    23  59    2.5631   503.1    3.529      35.280
2015    9        2     0   6    2.5614   502.9    3.530      35.239
2015    9        2     0  13    2.5597   502.6    3.530      35.197
2015    9        2     0  20    2.5581   502.4    3.530      35.156
2015    9        2     0  27    2.5564   502.1    3.530      35.113
2015    9        2     0  34    2.5547   501.9    3.531      35.071
2015    9        2     0  40    2.5530   501.6    3.531      35.028
2015    9        2     0  47    2.5514   501.3    3.531      34.985
2015    9        2     0  54    2.5497   501.1    3.531      34.941
2015    9        2     1   1    2.5481   500.8    3.531      34.898
2015    9        2     1   8    2.5465   500.6    3.531      34.854
2015    9        2     1  15    2.5448   500.3    3.532      34.810
2015    9        2     1  22    2.5432   500.1    3.532      34.766
2015    9        2     1  29    2.5416   499.8    3.532      34.722
2015    9        2     1  36    2.5400   499.5    3.532      34.678
2015    9        2     1  43    2.5385   499.3    3.532      34.633
2015    9        2     1  50    2.5369   499.0    3.533      34.589
2015    9        2     1  56    2.5353   498.8    3.533      34.545
2015    9        2     2   3    2.5337   498.5    3.533      34.500
2015    9        2     2  10    2.5322   498.2    3.533      34.456
2015    9        2     2  17    2.5307   498.0    3.534      34.412
2015    9        2     2  24    2.5292   497.7    3.534      34.368
2015    9        2     2  31    2.5276   497.4    3.535      34.323
2015    9        2     2  38    2.5261   497.2    3.535      34.280
2015    9        2     2  44    2.5246   496.9    3.536      34.236
2015    9        2     2  51    2.5232   496.7    3.536      34.192
2015    9        2     2  58    2.5217   496.4    3.537      34.149
2015    9        2     3   5    2.5202   496.1    3.537      34.105
2015    9        2     3  12    2.5188   495.9    3.538      34.062
2015    9        2     3  19    2.5174   495.6    3.539      34.020
2015    9        2     3  26    2.5160   495.3    3.540      33.977
2015    9        2     3  32    2.5146   495.0    3.541      33.934
2015    9        2     3  39    2.5132   494.8    3.542      33.892
2015    9        2     3  46    2.5118   494.5    3.543      33.850
2015    9        2     3  53    2.5104   494.2    3.544      33.809
2015    9        2     4   0    2.5091   494.0    3.545      33.768
2015    9        2     4   7    2.5078   493.7    3.547      33.727
2015    9        2     4  14    2.5065   493.4    3.548      33.687
2015    9        2     4  20    2.5052   493.1    3.550      33.647
2015    9        2     4  27    2.5039   492.9    3.551      33.608
2015    9        2     4  34    2.5027   492.6    3.553      33.569
2015    9        2     4  41    2.5014   492.3    3.555      33.531
2015    9        2     4  48    2.5002   492.0    3.557      33.493
2015    9        2     4  55    2.4990   491.7    3.559      33.456
2015    9        2     5   2    2.4979   491.4    3.561      33.419
2015    9        2     5   9    2.4968   491.2    3.563      33.383
2015    9        2     5  15    2.4956   490.9    3.566      33.346
2015    9        2     5  22    2.4945   490.6    3.568      33.311
2015    9        2     5  29    2.4934   490.3    3.571      33.276
2015    9        2     5  36    2.4924   490.0    3.573      33.242
2015    9        2     5  43    2.4913   489.8    3.576      33.208
2015    9        2     5  50    2.4902   489.5    3.579      33.174
2015    9        2     5  57    2.4892   489.2    3.581      33.140
2015    9        2     6   4    2.4882   488.9    3.584      33.107
2015    9        2     6  11    2.4872   488.6    3.587      33.074
2015    9        2     6  17    2.4862   488.3    3.590      33.041
2015    9        2     6  24    2.4852   488.1    3.593      33.007
2015    9        2     6  31    2.4842   487.8    3.595      32.974
2015    9        2     6  38    2.4832   487.5    3.598      32.939
2015    9        2     6  45    2.4822   487.2    3.601      32.906
2015    9        2     6  52    2.4812   486.9    3.604      32.871
2015    9        2     6  59    2.4802   486.6    3.606      32.836
2015    9        2     7   6    2.4792   486.3    3.609      32.801
2015    9        2     7  13    2.4782   486.0    3.612      32.766
2015    9        2     7  20    2.4771   485.8    3.614      32.729
2015    9        2     7  27    2.4761   485.5    3.617      32.693
2015    9        2     7  34    2.4751   485.2    3.619      32.656
2015    9        2     7  41    2.4741   484.9    3.621      32.618
2015    9        2     7  47    2.4731   484.6    3.624      32.581
2015    9        2     7  54    2.4721   484.3    3.626      32.543
2015    9        2     8   1    2.4711   484.0    3.628      32.504
2015    9        2     8   8    2.4701   483.7    3.630      32.466
2015    9        2     8  15    2.4692   483.4    3.632      32.427
2015    9        2     8  22    2.4682   483.1    3.634      32.388
2015    9        2     8  29    2.4672   482.8    3.636      32.348
2015    9        2     8  36    2.4663   482.5    3.638      32.309
2015    9        2     8  43    2.4654   482.2    3.640      32.269
2015    9        2     8  50    2.4644   481.9    3.642      32.229
2015    9        2     8  57    2.4635   481.6    3.644      32.189
2015    9        2     9   3    2.4626   481.3    3.646      32.148
2015    9        2     9  10    2.4617   481.0    3.647      32.108
2015    9        2     9  17    2.4608   480.7    3.649      32.067
2015    9        2     9  24    2.4599   480.4    3.651      32.026
2015    9        2     9  31    2.4590   480.1    3.653      31.985
2015    9        2     9  38    2.4582   479.8    3.655      31.944
2015    9        2     9  45    2.4573   479.5    3.656      31.903
2015    9        2     9  52    2.4565   479.2    3.658      31.862
2015    9        2     9  58    2.4557   478.9    3.660      31.821
2015    9        2    10   5    2.4549   478.6    3.662      31.780
2015    9        2    10  12    2.4541   478.3    3.664      31.739
2015    9        2    10  19    2.4534   478.0    3.666      31.698
2015    9        2    10  26    2.4526   477.7    3.668      31.658
2015    9        2    10  33    2.4519   477.4    3.670      31.617
2015    9        2    10  39    2.4512   477.1    3.672      31.577
2015    9        2    10  46    2.4506   476.8    3.674      31.536
2015    9        2    10  53    2.4499   476.4    3.676      31.496
2015    9        2    11   0    2.4493   476.1    3.679      31.456
2015    9        2    11   7    2.4488   475.8    3.681      31.417
2015    9        2    11  14    2.4482   475.5    3.684      31.377
2015    9        2    11  21    2.4477   475.2    3.687      31.338
2015    9        2    11  28    2.4472   474.9    3.690      31.300
2015    9        2    11  34    2.4468   474.5    3.693      31.262
2015    9        2    11  41    2.4464   474.2    3.696      31.224
2015    9        2    11  48    2.4460   473.9    3.699      31.186
2015    9        2    11  55    2.4457   473.6    3.702      31.149
2015    9        2    12   2    2.4453   473.2    3.706      31.113
2015    9        2    12   9    2.4451   472.9    3.709      31.077
2015    9        2    12  16    2.4448   472.6    3.713      31.041
2015    9        2    12  23    2.4446   472.3    3.717      31.006
2015    9        2    12  29    2.4445   471.9    3.721      30.972
2015    9        2    12  36    2.4444   471.6    3.725      30.937
2015    9        2    12  43    2.4443   471.3    3.730      30.904
2015    9        2    12  50    2.4443   471.0    3.734      30.870
2015    9        2    12  57    2.4443   470.6    3.739      30.838
2015    9        2    13   4    2.4444   470.3    3.744      30.806
2015    9        2    13  11    2.4444   470.0    3.748      30.774
2015    9        2    13  18    2.4446   469.7    3.753      30.743
2015    9        2    13  25    2.4447   469.3    3.759      30.712
2015    9        2    13  31    2.4450   469.0    3.764      30.681
2015    9        2    13  38    2.4452   468.7    3.769      30.651
2015    9        2    13  45    2.4454   468.4    3.774      30.621
2015    9        2    13  52    2.4457   468.0    3.780      30.591
2015    9        2    13  59    2.4460   467.7    3.785      30.561
2015    9        2    14   6    2.4463   467.4    3.791      30.532
2015    9        2    14  13    2.4466   467.1    3.796      30.502
2015    9        2    14  20    2.4469   466.8    3.802      30.472
2015    9        2    14  27    2.4473   466.4    3.807      30.442
2015    9        2    14  34    2.4477   466.1    3.813      30.412
2015    9        2    14  41    2.4481   465.8    3.818      30.381
2015    9        2    14  48    2.4485   465.4    3.824      30.351
2015    9        2    14  54    2.4489   465.1    3.830      30.320
2015    9        2    15   1    2.4494   464.8    3.835      30.291
2015    9        2    15   8    2.4499   464.5    3.841      30.260
2015    9        2    15  15    2.4505   464.1    3.847      30.230
2015    9        2    15  22    2.4510   463.8    3.853      30.200
2015    9        2    15  29    2.4516   463.5    3.858      30.171
2015    9        2    15  36    2.4523   463.2    3.864      30.141
2015    9        2    15  43    2.4529   462.8    3.870      30.112
2015    9        2    15  50    2.4537   462.5    3.876      30.083
2015    9        2    15  57    2.4544   462.2    3.882      30.054
2015    9        2    16   4    2.4552   461.9    3.888      30.025
2015    9        2    16  11    2.4560   461.5    3.894      29.997
2015    9        2    16  17    2.4569   461.2    3.900      29.969
2015    9        2    16  24    2.4577   460.9    3.907      29.941
2015    9        2    16  31    2.4587   460.6    3.913      29.913
2015    9        2    16  38    2.4596   460.3    3.919      29.886
2015    9        2    16  45    2.4606   459.9    3.926      29.858
2015    9        2    16  52    2.4616   459.6    3.932      29.832
2015    9        2    16  59    2.4627   459.3    3.939      29.805
2015    9        2    17   6    2.4638   459.0    3.945      29.779
2015    9        2    17  12    2.4649   458.7    3.952      29.752
2015    9        2    17  19    2.4661   458.3    3.959      29.727
2015    9        2    17  26    2.4673   458.0    3.966      29.701
2015    9        2    17  33    2.4685   457.7    3.973      29.676
2015    9        2    17  40    2.4698   457.4    3.980      29.651
2015    9        2    17  47    2.4711   457.1    3.987      29.626
2015    9        2    17  53    2.4725   456.7    3.994      29.602
2015    9        2    18   0    2.4739   456.4    4.001      29.578
2015    9        2    18   7    2.4753   456.1    4.009      29.553
2015    9        2    18  14    2.4768   455.8    4.016      29.530
2015    9        2    18  21    2.4783   455.5    4.023      29.507
2015    9        2    18  28    2.4799   455.2    4.031      29.484
2015    9        2    18  35    2.4815   454.8    4.039      29.461
2015    9        2    18  41    2.4832   454.5    4.046      29.439
2015    9        2    18  48    2.4849   454.2    4.054      29.416
2015    9        2    18  55    2.4866   453.9    4.062      29.395
2015    9        2    19   2    2.4884   453.6    4.070      29.373
2015    9        2    19   9    2.4902   453.3    4.078      29.352
2015    9        2    19  16    2.4921   452.9    4.086      29.331
2015    9        2    19  23    2.4939   452.6    4.094      29.310
2015    9        2    19  30    2.4959   452.3    4.103      29.290
2015    9        2    19  36    2.4979   452.0    4.111      29.270
2015    9        2    19  43    2.4999   451.7    4.119      29.249
2015    9        2    19  50    2.5019   451.4    4.128      29.230
2015    9        2    19  57    2.5041   451.1    4.136      29.210
2015    9        2    20   4    2.5062   450.8    4.145      29.191
2015    9        2    20  11    2.5084   450.4    4.153      29.171
2015    9        2    20  18    2.5106   450.1    4.162      29.152
2015    9        2    20  25    2.5128   449.8    4.171      29.133
2015    9        2    20  32    2.5151   449.5    4.179      29.114
2015    9        2    20  39    2.5175   449.2    4.188      29.095
2015    9        2    20  45    2.5198   448.9    4.197      29.077
2015    9        2    20  52    2.5222   448.6    4.206      29.058
2015    9        2    20  59    2.5246   448.3    4.215      29.040
2015    9        2    21   6    2.5271   448.0    4.224      29.021
2015    9        2    21  13    2.5296   447.7    4.233      29.003
2015    9        2    21  20    2.5322   447.4    4.242      28.985
2015    9        2    21  27    2.5348   447.1    4.251      28.967
2015    9        2    21  34    2.5375   446.8    4.260      28.949
2015    9        2    21  41    2.5402   446.5    4.269      28.931
2015    9        2    21  48    2.5429   446.2    4.278      28.913
2015    9        2    21  55    2.5457   445.9    4.288      28.896
2015    9        2    22   1    2.5486   445.6    4.297      28.878
2015    9        2    22   8    2.5514   445.3    4.307      28.861
2015    9        2    22  15    2.5544   445.0    4.316      28.845
2015    9        2    22  22    2.5574   444.7    4.326      28.828
2015    9        2    22  29    2.5604   444.4    4.336      28.812
2015    9        2    22  36    2.5635   444.1    4.346      28.796
2015    9        2    22  43    2.5667   443.8    4.356      28.780
2015    9        2    22  50    2.5699   443.5    4.366      28.765
2015    9        2    22  57    2.5732   443.2    4.376      28.750
2015    9        2    23   4    2.5765   442.9    4.387      28.736
2015    9        2    23  11    2.5800   442.6    4.398      28.722
2015    9        2    23  18    2.5834   442.3    4.408      28.708
2015    9        2    23  24    2.5870   442.0    4.419      28.695
2015    9        2    23  31    2.5905   441.7    4.430      28.683
2015    9        2    23  38    2.5942   441.4    4.442      28.671
2015    9        2    23  45    2.5979   441.1    4.453      28.659
2015    9        2    23  52    2.6018   440.8    4.465      28.648
2015    9        2    23  59    2.6056   440.6    4.477      28.638
2015    9        3     0   6    2.6096   440.3    4.489      28.629
