year    month   day   hour  minute  B_enl V_enl   n_enl       T_enl
[year] [month] [day] [hour][minute] [nT]  [km/s]  [cm-3]      [kK]
2015    8       21     0   2    4.4052   507.6    5.006      45.183
2015    8       21     0   9    4.4050   507.7    5.006      45.186
2015    8       21     0  15    4.4049   507.7    5.006      45.190
2015    8       21     0  21    4.4047   507.7    5.006      45.195
2015    8       21     0  27    4.4046   507.8    5.006      45.200
2015    8       21     0  33    4.4045   507.8    5.007      45.205
2015    8       21     0  40    4.4044   507.8    5.007      45.211
2015    8       21     0  46    4.4043   507.8    5.007      45.218
2015    8       21     0  52    4.4041   507.9    5.008      45.225
2015    8       21     0  58    4.4040   507.9    5.008      45.232
2015    8       21     1   5    4.4039   507.9    5.008      45.240
2015    8       21     1  11    4.4038   508.0    5.009      45.249
2015    8       21     1  17    4.4037   508.0    5.009      45.258
2015    8       21     1  23    4.4036   508.0    5.010      45.268
2015    8       21     1  30    4.4035   508.1    5.010      45.278
2015    8       21     1  36    4.4033   508.1    5.011      45.288
2015    8       21     1  42    4.4032   508.1    5.012      45.300
2015    8       21     1  48    4.4031   508.2    5.012      45.311
2015    8       21     1  54    4.4030   508.2    5.013      45.323
2015    8       21     2   1    4.4029   508.2    5.014      45.335
2015    8       21     2   7    4.4028   508.3    5.015      45.348
2015    8       21     2  13    4.4027   508.3    5.015      45.361
2015    8       21     2  19    4.4026   508.3    5.016      45.375
2015    8       21     2  26    4.4024   508.4    5.017      45.389
2015    8       21     2  32    4.4023   508.4    5.018      45.403
2015    8       21     2  38    4.4022   508.5    5.018      45.417
2015    8       21     2  44    4.4020   508.5    5.019      45.432
2015    8       21     2  51    4.4019   508.5    5.020      45.447
2015    8       21     2  57    4.4017   508.6    5.021      45.462
2015    8       21     3   3    4.4016   508.6    5.022      45.477
2015    8       21     3   9    4.4014   508.6    5.022      45.493
2015    8       21     3  16    4.4012   508.7    5.023      45.508
2015    8       21     3  22    4.4010   508.7    5.024      45.524
2015    8       21     3  28    4.4008   508.8    5.025      45.540
2015    8       21     3  34    4.4006   508.8    5.025      45.556
2015    8       21     3  41    4.4004   508.8    5.026      45.571
2015    8       21     3  47    4.4002   508.9    5.027      45.587
2015    8       21     3  53    4.4000   508.9    5.027      45.602
2015    8       21     3  59    4.3998   508.9    5.028      45.618
2015    8       21     4   5    4.3996   509.0    5.028      45.633
2015    8       21     4  12    4.3994   509.0    5.029      45.649
2015    8       21     4  18    4.3991   509.1    5.029      45.664
2015    8       21     4  24    4.3989   509.1    5.030      45.679
2015    8       21     4  30    4.3987   509.1    5.030      45.693
2015    8       21     4  37    4.3985   509.2    5.031      45.708
2015    8       21     4  43    4.3982   509.2    5.031      45.722
2015    8       21     4  49    4.3980   509.2    5.031      45.736
2015    8       21     4  55    4.3978   509.3    5.032      45.750
2015    8       21     5   2    4.3976   509.3    5.032      45.764
2015    8       21     5   8    4.3974   509.4    5.032      45.777
2015    8       21     5  14    4.3972   509.4    5.032      45.790
2015    8       21     5  20    4.3970   509.4    5.032      45.803
2015    8       21     5  26    4.3968   509.5    5.033      45.816
2015    8       21     5  33    4.3966   509.5    5.033      45.828
2015    8       21     5  39    4.3965   509.5    5.033      45.841
2015    8       21     5  45    4.3963   509.6    5.033      45.853
2015    8       21     5  51    4.3962   509.6    5.033      45.865
2015    8       21     5  58    4.3961   509.7    5.033      45.877
2015    8       21     6   4    4.3960   509.7    5.033      45.889
2015    8       21     6  10    4.3959   509.7    5.033      45.901
2015    8       21     6  16    4.3958   509.8    5.033      45.913
2015    8       21     6  23    4.3957   509.8    5.033      45.925
2015    8       21     6  29    4.3957   509.9    5.034      45.938
2015    8       21     6  35    4.3957   509.9    5.034      45.950
2015    8       21     6  41    4.3957   509.9    5.034      45.962
2015    8       21     6  48    4.3957   510.0    5.034      45.975
2015    8       21     6  54    4.3957   510.0    5.034      45.988
2015    8       21     7   0    4.3958   510.1    5.035      46.001
2015    8       21     7   6    4.3959   510.1    5.035      46.014
2015    8       21     7  12    4.3959   510.2    5.035      46.027
2015    8       21     7  19    4.3960   510.2    5.036      46.041
2015    8       21     7  25    4.3961   510.3    5.036      46.055
2015    8       21     7  31    4.3963   510.3    5.037      46.070
2015    8       21     7  37    4.3964   510.4    5.037      46.085
2015    8       21     7  44    4.3965   510.4    5.038      46.100
2015    8       21     7  50    4.3966   510.5    5.038      46.116
2015    8       21     7  56    4.3967   510.5    5.039      46.132
2015    8       21     8   2    4.3967   510.6    5.040      46.148
2015    8       21     8   9    4.3968   510.6    5.040      46.165
2015    8       21     8  15    4.3969   510.7    5.041      46.182
2015    8       21     8  21    4.3969   510.7    5.042      46.200
2015    8       21     8  27    4.3969   510.8    5.043      46.218
2015    8       21     8  33    4.3969   510.8    5.043      46.236
2015    8       21     8  40    4.3969   510.9    5.044      46.254
2015    8       21     8  46    4.3969   511.0    5.045      46.273
2015    8       21     8  52    4.3968   511.0    5.046      46.292
2015    8       21     8  58    4.3967   511.1    5.047      46.311
2015    8       21     9   5    4.3966   511.1    5.048      46.331
2015    8       21     9  11    4.3964   511.2    5.049      46.351
2015    8       21     9  17    4.3963   511.2    5.050      46.372
2015    8       21     9  23    4.3961   511.3    5.051      46.393
2015    8       21     9  30    4.3958   511.4    5.052      46.414
2015    8       21     9  36    4.3956   511.4    5.052      46.435
2015    8       21     9  42    4.3953   511.5    5.053      46.456
2015    8       21     9  48    4.3951   511.5    5.054      46.477
2015    8       21     9  55    4.3948   511.6    5.055      46.498
2015    8       21    10   1    4.3944   511.6    5.056      46.519
2015    8       21    10   7    4.3941   511.7    5.056      46.540
2015    8       21    10  13    4.3938   511.7    5.057      46.561
2015    8       21    10  20    4.3934   511.8    5.058      46.583
2015    8       21    10  26    4.3930   511.8    5.059      46.604
2015    8       21    10  32    4.3927   511.9    5.060      46.625
2015    8       21    10  38    4.3923   511.9    5.061      46.646
2015    8       21    10  44    4.3918   512.0    5.062      46.668
2015    8       21    10  51    4.3914   512.1    5.063      46.690
2015    8       21    10  57    4.3910   512.1    5.064      46.713
2015    8       21    11   3    4.3905   512.2    5.064      46.737
2015    8       21    11   9    4.3900   512.2    5.065      46.761
2015    8       21    11  16    4.3896   512.3    5.066      46.785
2015    8       21    11  22    4.3890   512.3    5.066      46.809
2015    8       21    11  28    4.3885   512.4    5.067      46.832
2015    8       21    11  34    4.3880   512.4    5.067      46.855
2015    8       21    11  41    4.3874   512.5    5.067      46.876
2015    8       21    11  47    4.3868   512.6    5.067      46.898
2015    8       21    11  53    4.3862   512.6    5.067      46.918
2015    8       21    11  59    4.3856   512.7    5.067      46.937
2015    8       21    12   5    4.3849   512.7    5.066      46.956
2015    8       21    12  12    4.3843   512.8    5.066      46.974
2015    8       21    12  18    4.3836   512.8    5.065      46.991
2015    8       21    12  24    4.3829   512.9    5.064      47.007
2015    8       21    12  30    4.3822   513.0    5.063      47.023
2015    8       21    12  37    4.3815   513.0    5.062      47.038
2015    8       21    12  43    4.3808   513.1    5.061      47.052
2015    8       21    12  49    4.3801   513.1    5.060      47.065
2015    8       21    12  55    4.3794   513.2    5.059      47.078
2015    8       21    13   2    4.3787   513.2    5.057      47.090
2015    8       21    13   8    4.3779   513.3    5.056      47.101
2015    8       21    13  14    4.3772   513.4    5.054      47.112
2015    8       21    13  20    4.3764   513.4    5.053      47.122
2015    8       21    13  27    4.3757   513.5    5.051      47.132
2015    8       21    13  33    4.3749   513.5    5.049      47.141
2015    8       21    13  39    4.3741   513.6    5.048      47.150
2015    8       21    13  45    4.3734   513.6    5.046      47.158
2015    8       21    13  51    4.3726   513.7    5.044      47.166
2015    8       21    13  58    4.3718   513.7    5.042      47.174
2015    8       21    14   4    4.3710   513.8    5.040      47.181
2015    8       21    14  10    4.3702   513.8    5.039      47.188
2015    8       21    14  16    4.3694   513.9    5.037      47.195
2015    8       21    14  23    4.3687   513.9    5.035      47.202
2015    8       21    14  29    4.3679   514.0    5.033      47.208
2015    8       21    14  35    4.3671   514.0    5.031      47.215
2015    8       21    14  41    4.3664   514.1    5.030      47.221
2015    8       21    14  48    4.3656   514.2    5.028      47.228
2015    8       21    14  54    4.3649   514.2    5.026      47.234
2015    8       21    15   0    4.3642   514.3    5.025      47.241
2015    8       21    15   6    4.3634   514.3    5.023      47.248
2015    8       21    15  12    4.3627   514.4    5.022      47.256
2015    8       21    15  19    4.3620   514.4    5.020      47.264
2015    8       21    15  25    4.3613   514.5    5.019      47.272
2015    8       21    15  31    4.3606   514.5    5.018      47.281
2015    8       21    15  37    4.3599   514.6    5.017      47.291
2015    8       21    15  44    4.3591   514.7    5.016      47.300
2015    8       21    15  50    4.3584   514.7    5.015      47.311
2015    8       21    15  56    4.3577   514.8    5.014      47.322
2015    8       21    16   2    4.3569   514.8    5.014      47.334
2015    8       21    16   9    4.3561   514.9    5.013      47.347
2015    8       21    16  15    4.3553   515.0    5.013      47.361
2015    8       21    16  21    4.3544   515.0    5.013      47.376
2015    8       21    16  27    4.3535   515.1    5.013      47.392
2015    8       21    16  34    4.3525   515.2    5.013      47.409
2015    8       21    16  40    4.3515   515.2    5.013      47.426
2015    8       21    16  46    4.3504   515.3    5.014      47.446
2015    8       21    16  52    4.3493   515.4    5.014      47.466
2015    8       21    16  59    4.3481   515.4    5.014      47.488
2015    8       21    17   5    4.3469   515.5    5.015      47.511
2015    8       21    17  11    4.3456   515.6    5.015      47.534
2015    8       21    17  17    4.3443   515.6    5.015      47.557
2015    8       21    17  23    4.3429   515.7    5.016      47.580
2015    8       21    17  30    4.3415   515.8    5.016      47.602
2015    8       21    17  36    4.3400   515.9    5.016      47.623
2015    8       21    17  42    4.3385   515.9    5.015      47.643
2015    8       21    17  48    4.3369   516.0    5.015      47.662
2015    8       21    17  55    4.3353   516.1    5.015      47.681
2015    8       21    18   1    4.3337   516.1    5.014      47.700
2015    8       21    18   7    4.3320   516.2    5.014      47.719
2015    8       21    18  13    4.3303   516.3    5.013      47.737
2015    8       21    18  20    4.3285   516.4    5.012      47.756
2015    8       21    18  26    4.3267   516.4    5.011      47.773
2015    8       21    18  32    4.3249   516.5    5.009      47.789
2015    8       21    18  38    4.3230   516.6    5.007      47.804
2015    8       21    18  44    4.3211   516.7    5.005      47.818
2015    8       21    18  51    4.3191   516.7    5.003      47.830
2015    8       21    18  57    4.3172   516.8    5.001      47.842
2015    8       21    19   3    4.3152   516.9    4.998      47.852
2015    8       21    19   9    4.3132   517.0    4.996      47.861
2015    8       21    19  16    4.3111   517.1    4.993      47.869
2015    8       21    19  22    4.3091   517.1    4.990      47.876
2015    8       21    19  28    4.3070   517.2    4.987      47.882
2015    8       21    19  34    4.3049   517.3    4.983      47.887
2015    8       21    19  41    4.3027   517.4    4.980      47.891
2015    8       21    19  47    4.3006   517.4    4.976      47.894
2015    8       21    19  53    4.2984   517.5    4.972      47.896
2015    8       21    19  59    4.2962   517.6    4.968      47.898
2015    8       21    20   6    4.2939   517.7    4.964      47.899
2015    8       21    20  12    4.2917   517.7    4.960      47.899
2015    8       21    20  18    4.2894   517.8    4.956      47.899
2015    8       21    20  24    4.2871   517.9    4.952      47.898
2015    8       21    20  30    4.2848   518.0    4.947      47.896
2015    8       21    20  37    4.2824   518.0    4.943      47.894
2015    8       21    20  43    4.2800   518.1    4.938      47.892
2015    8       21    20  49    4.2777   518.2    4.934      47.889
2015    8       21    20  55    4.2752   518.2    4.929      47.885
2015    8       21    21   2    4.2728   518.3    4.924      47.881
2015    8       21    21   8    4.2703   518.4    4.920      47.877
2015    8       21    21  14    4.2679   518.4    4.915      47.873
2015    8       21    21  20    4.2654   518.5    4.910      47.867
2015    8       21    21  27    4.2629   518.6    4.905      47.862
2015    8       21    21  33    4.2603   518.6    4.900      47.856
2015    8       21    21  39    4.2577   518.7    4.896      47.850
2015    8       21    21  45    4.2551   518.8    4.891      47.844
2015    8       21    21  51    4.2526   518.8    4.886      47.837
2015    8       21    21  58    4.2499   518.9    4.881      47.830
2015    8       21    22   4    4.2473   519.0    4.876      47.823
2015    8       21    22  10    4.2445   519.0    4.871      47.816
2015    8       21    22  16    4.2419   519.1    4.866      47.809
2015    8       21    22  23    4.2391   519.1    4.861      47.801
2015    8       21    22  29    4.2364   519.2    4.857      47.794
2015    8       21    22  35    4.2336   519.3    4.852      47.786
2015    8       21    22  41    4.2308   519.3    4.847      47.779
2015    8       21    22  48    4.2279   519.4    4.842      47.771
2015    8       21    22  54    4.2251   519.4    4.838      47.764
2015    8       21    23   0    4.2222   519.5    4.833      47.757
2015    8       21    23   6    4.2193   519.5    4.829      47.751
2015    8       21    23  13    4.2163   519.6    4.824      47.744
2015    8       21    23  19    4.2133   519.7    4.820      47.738
2015    8       21    23  25    4.2103   519.7    4.816      47.733
2015    8       21    23  31    4.2072   519.8    4.812      47.728
2015    8       21    23  37    4.2040   519.8    4.808      47.724
2015    8       21    23  44    4.2008   519.9    4.804      47.720
2015    8       21    23  50    4.1975   519.9    4.800      47.717
2015    8       21    23  56    4.1943   520.0    4.797      47.715
2015    8       22     0   2    4.1909   520.1    4.793      47.714
2015    8       22     0   9    4.1875   520.1    4.790      47.715
2015    8       22     0  15    4.1840   520.2    4.787      47.716
2015    8       22     0  21    4.1805   520.2    4.783      47.718
2015    8       22     0  27    4.1768   520.3    4.780      47.720
2015    8       22     0  34    4.1732   520.4    4.776      47.722
2015    8       22     0  40    4.1695   520.4    4.772      47.722
2015    8       22     0  46    4.1658   520.5    4.768      47.721
2015    8       22     0  52    4.1619   520.5    4.764      47.720
2015    8       22     0  59    4.1581   520.6    4.760      47.717
2015    8       22     1   5    4.1542   520.7    4.756      47.713
2015    8       22     1  11    4.1503   520.7    4.751      47.708
2015    8       22     1  17    4.1463   520.8    4.746      47.702
2015    8       22     1  23    4.1424   520.8    4.742      47.694
2015    8       22     1  30    4.1383   520.9    4.737      47.684
2015    8       22     1  36    4.1343   520.9    4.732      47.673
2015    8       22     1  42    4.1302   521.0    4.727      47.661
2015    8       22     1  48    4.1261   521.0    4.722      47.648
2015    8       22     1  55    4.1219   521.1    4.716      47.633
2015    8       22     2   1    4.1178   521.1    4.711      47.617
2015    8       22     2   7    4.1136   521.2    4.705      47.600
2015    8       22     2  13    4.1095   521.2    4.700      47.583
2015    8       22     2  20    4.1052   521.2    4.694      47.564
2015    8       22     2  26    4.1010   521.3    4.688      47.544
2015    8       22     2  32    4.0968   521.3    4.683      47.524
2015    8       22     2  38    4.0926   521.4    4.677      47.503
2015    8       22     2  45    4.0883   521.4    4.671      47.480
2015    8       22     2  51    4.0840   521.4    4.665      47.458
2015    8       22     2  57    4.0797   521.5    4.659      47.434
2015    8       22     3   3    4.0755   521.5    4.653      47.410
2015    8       22     3  10    4.0711   521.5    4.646      47.386
2015    8       22     3  16    4.0668   521.6    4.640      47.361
2015    8       22     3  22    4.0625   521.6    4.634      47.335
2015    8       22     3  28    4.0582   521.6    4.628      47.309
2015    8       22     3  34    4.0538   521.7    4.621      47.282
2015    8       22     3  41    4.0495   521.7    4.615      47.256
2015    8       22     3  47    4.0451   521.7    4.609      47.228
2015    8       22     3  53    4.0408   521.7    4.602      47.201
2015    8       22     3  59    4.0364   521.8    4.596      47.173
2015    8       22     4   6    4.0321   521.8    4.589      47.145
2015    8       22     4  12    4.0277   521.8    4.583      47.116
2015    8       22     4  18    4.0234   521.8    4.577      47.087
2015    8       22     4  24    4.0191   521.8    4.570      47.058
2015    8       22     4  31    4.0147   521.8    4.564      47.029
2015    8       22     4  37    4.0104   521.9    4.558      46.999
2015    8       22     4  43    4.0061   521.9    4.551      46.970
2015    8       22     4  49    4.0017   521.9    4.545      46.939
2015    8       22     4  55    3.9973   521.9    4.538      46.909
2015    8       22     5   2    3.9930   521.9    4.532      46.878
2015    8       22     5   8    3.9886   521.9    4.526      46.847
2015    8       22     5  14    3.9842   521.9    4.519      46.816
2015    8       22     5  20    3.9798   521.9    4.513      46.784
2015    8       22     5  27    3.9753   521.9    4.506      46.752
2015    8       22     5  33    3.9709   521.9    4.500      46.720
2015    8       22     5  39    3.9663   521.9    4.494      46.687
2015    8       22     5  45    3.9618   521.9    4.487      46.654
2015    8       22     5  52    3.9572   521.9    4.481      46.621
2015    8       22     5  58    3.9527   521.9    4.474      46.587
2015    8       22     6   4    3.9480   521.9    4.468      46.553
2015    8       22     6  10    3.9433   521.9    4.462      46.519
2015    8       22     6  17    3.9386   521.9    4.455      46.483
2015    8       22     6  23    3.9339   521.9    4.449      46.449
2015    8       22     6  29    3.9291   521.9    4.442      46.413
2015    8       22     6  35    3.9244   521.9    4.436      46.377
2015    8       22     6  41    3.9195   521.8    4.429      46.340
2015    8       22     6  48    3.9147   521.8    4.423      46.304
2015    8       22     6  54    3.9098   521.8    4.416      46.267
2015    8       22     7   0    3.9050   521.8    4.410      46.230
2015    8       22     7   6    3.9000   521.8    4.403      46.192
2015    8       22     7  13    3.8951   521.7    4.397      46.154
2015    8       22     7  19    3.8902   521.7    4.390      46.115
2015    8       22     7  25    3.8852   521.7    4.383      46.076
2015    8       22     7  31    3.8802   521.6    4.377      46.037
2015    8       22     7  37    3.8753   521.6    4.370      45.997
2015    8       22     7  44    3.8703   521.6    4.364      45.957
2015    8       22     7  50    3.8653   521.5    4.358      45.917
2015    8       22     7  56    3.8603   521.5    4.351      45.876
2015    8       22     8   2    3.8553   521.5    4.345      45.836
2015    8       22     8   9    3.8502   521.4    4.338      45.794
2015    8       22     8  15    3.8452   521.4    4.332      45.752
2015    8       22     8  21    3.8401   521.3    4.325      45.709
2015    8       22     8  27    3.8351   521.3    4.319      45.666
2015    8       22     8  34    3.8300   521.2    4.312      45.621
2015    8       22     8  40    3.8250   521.2    4.306      45.577
2015    8       22     8  46    3.8199   521.1    4.300      45.530
2015    8       22     8  52    3.8149   521.0    4.293      45.483
2015    8       22     8  58    3.8098   521.0    4.287      45.435
2015    8       22     9   5    3.8048   520.9    4.281      45.387
2015    8       22     9  11    3.7997   520.8    4.274      45.337
2015    8       22     9  17    3.7947   520.8    4.268      45.287
2015    8       22     9  23    3.7897   520.7    4.262      45.236
2015    8       22     9  30    3.7847   520.6    4.256      45.185
2015    8       22     9  36    3.7796   520.5    4.249      45.132
2015    8       22     9  42    3.7746   520.5    4.243      45.080
2015    8       22     9  48    3.7696   520.4    4.237      45.026
2015    8       22     9  54    3.7647   520.3    4.231      44.973
2015    8       22    10   1    3.7597   520.2    4.226      44.919
2015    8       22    10   7    3.7548   520.1    4.220      44.865
2015    8       22    10  13    3.7498   520.0    4.214      44.809
2015    8       22    10  19    3.7449   519.9    4.208      44.755
2015    8       22    10  26    3.7401   519.8    4.203      44.700
2015    8       22    10  32    3.7353   519.7    4.198      44.645
2015    8       22    10  38    3.7304   519.6    4.192      44.590
2015    8       22    10  44    3.7257   519.5    4.187      44.535
2015    8       22    10  51    3.7209   519.4    4.182      44.480
2015    8       22    10  57    3.7163   519.3    4.177      44.425
2015    8       22    11   3    3.7116   519.1    4.172      44.370
2015    8       22    11   9    3.7071   519.0    4.168      44.316
2015    8       22    11  15    3.7025   518.9    4.163      44.261
2015    8       22    11  22    3.6980   518.8    4.159      44.208
2015    8       22    11  28    3.6935   518.7    4.155      44.154
2015    8       22    11  34    3.6892   518.6    4.151      44.102
2015    8       22    11  40    3.6848   518.4    4.147      44.048
2015    8       22    11  47    3.6805   518.3    4.143      43.997
2015    8       22    11  53    3.6762   518.2    4.140      43.944
2015    8       22    11  59    3.6720   518.1    4.136      43.893
2015    8       22    12   5    3.6678   518.0    4.133      43.841
2015    8       22    12  12    3.6637   517.8    4.130      43.791
2015    8       22    12  18    3.6595   517.7    4.127      43.740
2015    8       22    12  24    3.6555   517.6    4.123      43.690
2015    8       22    12  30    3.6514   517.4    4.120      43.640
2015    8       22    12  36    3.6473   517.3    4.117      43.590
2015    8       22    12  43    3.6433   517.2    4.114      43.540
2015    8       22    12  49    3.6392   517.1    4.111      43.491
2015    8       22    12  55    3.6352   516.9    4.108      43.440
2015    8       22    13   1    3.6311   516.8    4.105      43.391
2015    8       22    13   8    3.6271   516.6    4.102      43.340
2015    8       22    13  14    3.6231   516.5    4.099      43.289
2015    8       22    13  20    3.6190   516.4    4.096      43.238
2015    8       22    13  26    3.6149   516.2    4.092      43.187
2015    8       22    13  33    3.6109   516.1    4.089      43.135
2015    8       22    13  39    3.6068   515.9    4.086      43.084
2015    8       22    13  45    3.6028   515.8    4.082      43.031
2015    8       22    13  51    3.5987   515.7    4.079      42.979
2015    8       22    13  58    3.5946   515.5    4.075      42.925
2015    8       22    14   4    3.5906   515.4    4.072      42.872
2015    8       22    14  10    3.5865   515.2    4.068      42.818
2015    8       22    14  16    3.5825   515.1    4.064      42.764
2015    8       22    14  22    3.5784   514.9    4.061      42.709
2015    8       22    14  29    3.5744   514.8    4.057      42.655
2015    8       22    14  35    3.5703   514.6    4.053      42.599
2015    8       22    14  41    3.5663   514.4    4.050      42.544
2015    8       22    14  47    3.5622   514.3    4.046      42.487
2015    8       22    14  54    3.5582   514.1    4.042      42.431
2015    8       22    15   0    3.5542   514.0    4.038      42.374
2015    8       22    15   6    3.5501   513.8    4.034      42.317
2015    8       22    15  12    3.5461   513.6    4.030      42.259
2015    8       22    15  19    3.5421   513.5    4.027      42.201
2015    8       22    15  25    3.5381   513.3    4.023      42.142
2015    8       22    15  31    3.5341   513.1    4.019      42.083
2015    8       22    15  37    3.5301   513.0    4.015      42.024
2015    8       22    15  44    3.5261   512.8    4.011      41.964
2015    8       22    15  50    3.5222   512.6    4.007      41.904
2015    8       22    15  56    3.5182   512.5    4.003      41.843
2015    8       22    16   2    3.5143   512.3    3.999      41.782
2015    8       22    16   9    3.5103   512.1    3.995      41.721
2015    8       22    16  15    3.5064   511.9    3.991      41.658
2015    8       22    16  21    3.5025   511.8    3.987      41.596
2015    8       22    16  27    3.4986   511.6    3.983      41.533
2015    8       22    16  34    3.4947   511.4    3.979      41.470
2015    8       22    16  40    3.4909   511.2    3.976      41.407
2015    8       22    16  46    3.4870   511.0    3.972      41.343
2015    8       22    16  52    3.4832   510.8    3.968      41.279
2015    8       22    16  59    3.4794   510.6    3.964      41.216
2015    8       22    17   5    3.4756   510.5    3.961      41.151
2015    8       22    17  11    3.4719   510.3    3.957      41.087
2015    8       22    17  17    3.4682   510.1    3.954      41.023
2015    8       22    17  23    3.4645   509.9    3.950      40.959
2015    8       22    17  30    3.4608   509.7    3.947      40.895
2015    8       22    17  36    3.4572   509.5    3.944      40.831
2015    8       22    17  42    3.4536   509.3    3.941      40.767
2015    8       22    17  48    3.4500   509.1    3.938      40.704
2015    8       22    17  55    3.4465   508.9    3.935      40.641
2015    8       22    18   1    3.4430   508.7    3.932      40.579
2015    8       22    18   7    3.4395   508.5    3.929      40.516
2015    8       22    18  13    3.4361   508.3    3.927      40.455
2015    8       22    18  20    3.4327   508.1    3.924      40.393
2015    8       22    18  26    3.4294   507.9    3.922      40.332
2015    8       22    18  32    3.4261   507.7    3.920      40.272
2015    8       22    18  38    3.4228   507.5    3.918      40.212
2015    8       22    18  45    3.4196   507.3    3.916      40.153
2015    8       22    18  51    3.4164   507.0    3.915      40.094
2015    8       22    18  57    3.4133   506.8    3.913      40.036
2015    8       22    19   3    3.4102   506.6    3.912      39.979
2015    8       22    19   9    3.4071   506.4    3.910      39.921
2015    8       22    19  16    3.4041   506.2    3.909      39.865
2015    8       22    19  22    3.4011   506.0    3.908      39.809
2015    8       22    19  28    3.3981   505.8    3.907      39.754
2015    8       22    19  34    3.3952   505.6    3.907      39.699
2015    8       22    19  41    3.3923   505.4    3.906      39.645
2015    8       22    19  47    3.3894   505.2    3.905      39.590
2015    8       22    19  53    3.3865   505.0    3.905      39.537
2015    8       22    19  59    3.3837   504.7    3.904      39.483
2015    8       22    20   5    3.3809   504.5    3.904      39.431
2015    8       22    20  12    3.3781   504.3    3.903      39.377
2015    8       22    20  18    3.3753   504.1    3.903      39.325
2015    8       22    20  24    3.3726   503.9    3.902      39.272
2015    8       22    20  30    3.3699   503.6    3.902      39.220
2015    8       22    20  37    3.3671   503.4    3.902      39.167
2015    8       22    20  43    3.3645   503.2    3.901      39.115
2015    8       22    20  49    3.3618   503.0    3.901      39.062
2015    8       22    20  55    3.3592   502.8    3.901      39.011
2015    8       22    21   2    3.3565   502.5    3.901      38.958
2015    8       22    21   8    3.3539   502.3    3.901      38.907
2015    8       22    21  14    3.3513   502.1    3.901      38.855
2015    8       22    21  20    3.3488   501.9    3.900      38.803
2015    8       22    21  27    3.3462   501.6    3.900      38.752
2015    8       22    21  33    3.3437   501.4    3.900      38.701
2015    8       22    21  39    3.3411   501.2    3.900      38.649
2015    8       22    21  45    3.3386   501.0    3.900      38.598
2015    8       22    21  52    3.3361   500.8    3.900      38.547
2015    8       22    21  58    3.3336   500.5    3.900      38.496
2015    8       22    22   4    3.3311   500.3    3.900      38.445
2015    8       22    22  10    3.3286   500.1    3.900      38.394
2015    8       22    22  16    3.3261   499.9    3.900      38.343
2015    8       22    22  23    3.3236   499.6    3.900      38.292
2015    8       22    22  29    3.3211   499.4    3.900      38.241
2015    8       22    22  35    3.3186   499.2    3.900      38.190
2015    8       22    22  41    3.3161   499.0    3.900      38.139
2015    8       22    22  48    3.3137   498.7    3.900      38.088
2015    8       22    22  54    3.3112   498.5    3.899      38.036
2015    8       22    23   0    3.3087   498.3    3.899      37.985
2015    8       22    23   6    3.3063   498.0    3.899      37.933
2015    8       22    23  13    3.3039   497.8    3.898      37.882
2015    8       22    23  19    3.3014   497.6    3.898      37.829
2015    8       22    23  25    3.2990   497.3    3.898      37.777
2015    8       22    23  31    3.2966   497.1    3.897      37.724
2015    8       22    23  38    3.2942   496.9    3.896      37.672
2015    8       22    23  44    3.2918   496.6    3.896      37.618
2015    8       22    23  50    3.2894   496.4    3.895      37.565
2015    8       22    23  56    3.2870   496.2    3.894      37.511
2015    8       23     0   3    3.2846   496.0    3.894      37.458
2015    8       23     0   9    3.2822   495.7    3.893      37.403
2015    8       23     0  15    3.2799   495.5    3.892      37.349
2015    8       23     0  21    3.2775   495.3    3.891      37.294
2015    8       23     0  27    3.2752   495.0    3.890      37.240
2015    8       23     0  34    3.2729   494.8    3.889      37.184
2015    8       23     0  40    3.2705   494.6    3.888      37.129
2015    8       23     0  46    3.2682   494.3    3.887      37.073
2015    8       23     0  52    3.2659   494.1    3.886      37.017
2015    8       23     0  59    3.2636   493.9    3.885      36.961
2015    8       23     1   5    3.2613   493.6    3.884      36.905
2015    8       23     1  11    3.2590   493.4    3.883      36.848
2015    8       23     1  17    3.2567   493.1    3.881      36.792
2015    8       23     1  24    3.2545   492.9    3.880      36.734
2015    8       23     1  30    3.2522   492.7    3.879      36.677
2015    8       23     1  36    3.2500   492.4    3.878      36.619
2015    8       23     1  42    3.2477   492.2    3.876      36.562
2015    8       23     1  49    3.2455   491.9    3.875      36.504
2015    8       23     1  55    3.2433   491.7    3.874      36.447
2015    8       23     2   1    3.2411   491.5    3.873      36.388
2015    8       23     2   7    3.2389   491.2    3.871      36.330
2015    8       23     2  13    3.2367   491.0    3.870      36.271
2015    8       23     2  20    3.2346   490.7    3.869      36.213
2015    8       23     2  26    3.2324   490.5    3.868      36.154
2015    8       23     2  32    3.2303   490.2    3.866      36.096
2015    8       23     2  38    3.2282   490.0    3.865      36.038
2015    8       23     2  45    3.2261   489.7    3.864      35.980
2015    8       23     2  51    3.2241   489.5    3.863      35.921
2015    8       23     2  57    3.2220   489.2    3.862      35.863
2015    8       23     3   3    3.2200   489.0    3.861      35.804
2015    8       23     3   9    3.2180   488.7    3.860      35.747
2015    8       23     3  16    3.2160   488.5    3.859      35.689
2015    8       23     3  22    3.2141   488.2    3.858      35.632
2015    8       23     3  28    3.2121   487.9    3.857      35.574
2015    8       23     3  34    3.2102   487.7    3.857      35.518
2015    8       23     3  41    3.2083   487.4    3.856      35.461
2015    8       23     3  47    3.2064   487.2    3.855      35.405
2015    8       23     3  53    3.2046   486.9    3.855      35.349
2015    8       23     3  59    3.2027   486.7    3.854      35.294
2015    8       23     4   6    3.2009   486.4    3.854      35.238
2015    8       23     4  12    3.1991   486.1    3.854      35.184
2015    8       23     4  18    3.1974   485.9    3.854      35.129
2015    8       23     4  24    3.1956   485.6    3.854      35.075
2015    8       23     4  31    3.1939   485.4    3.853      35.021
2015    8       23     4  37    3.1922   485.1    3.853      34.968
2015    8       23     4  43    3.1905   484.8    3.854      34.915
2015    8       23     4  49    3.1888   484.6    3.854      34.863
2015    8       23     4  55    3.1871   484.3    3.854      34.810
2015    8       23     5   2    3.1855   484.1    3.854      34.759
2015    8       23     5   8    3.1839   483.8    3.855      34.707
2015    8       23     5  14    3.1823   483.5    3.855      34.656
2015    8       23     5  20    3.1807   483.3    3.855      34.604
2015    8       23     5  27    3.1791   483.0    3.856      34.554
2015    8       23     5  33    3.1775   482.7    3.856      34.503
2015    8       23     5  39    3.1759   482.5    3.857      34.453
2015    8       23     5  45    3.1743   482.2    3.858      34.402
2015    8       23     5  52    3.1728   481.9    3.858      34.352
2015    8       23     5  58    3.1712   481.6    3.859      34.302
2015    8       23     6   4    3.1697   481.4    3.860      34.253
2015    8       23     6  10    3.1682   481.1    3.860      34.203
2015    8       23     6  17    3.1667   480.8    3.861      34.155
2015    8       23     6  23    3.1652   480.5    3.862      34.106
2015    8       23     6  29    3.1637   480.2    3.863      34.057
2015    8       23     6  35    3.1623   479.9    3.864      34.009
2015    8       23     6  42    3.1609   479.7    3.865      33.961
2015    8       23     6  48    3.1595   479.4    3.866      33.913
2015    8       23     6  54    3.1581   479.1    3.867      33.865
2015    8       23     7   0    3.1568   478.8    3.868      33.818
2015    8       23     7   6    3.1555   478.5    3.869      33.771
2015    8       23     7  13    3.1542   478.2    3.870      33.724
2015    8       23     7  19    3.1529   478.0    3.872      33.677
2015    8       23     7  25    3.1517   477.7    3.873      33.631
2015    8       23     7  31    3.1505   477.4    3.875      33.585
2015    8       23     7  38    3.1493   477.1    3.876      33.538
2015    8       23     7  44    3.1482   476.8    3.878      33.493
2015    8       23     7  50    3.1470   476.5    3.879      33.447
2015    8       23     7  56    3.1459   476.2    3.881      33.401
2015    8       23     8   3    3.1448   475.9    3.883      33.355
2015    8       23     8   9    3.1437   475.6    3.884      33.310
2015    8       23     8  15    3.1427   475.3    3.886      33.264
2015    8       23     8  21    3.1417   475.1    3.888      33.219
2015    8       23     8  28    3.1406   474.8    3.890      33.174
2015    8       23     8  34    3.1396   474.5    3.891      33.129
2015    8       23     8  40    3.1387   474.2    3.893      33.083
2015    8       23     8  46    3.1377   473.9    3.895      33.038
2015    8       23     8  52    3.1367   473.6    3.897      32.992
2015    8       23     8  59    3.1358   473.3    3.899      32.947
2015    8       23     9   5    3.1349   473.0    3.900      32.901
2015    8       23     9  11    3.1339   472.7    3.902      32.855
2015    8       23     9  17    3.1330   472.4    3.904      32.809
2015    8       23     9  24    3.1322   472.1    3.906      32.764
2015    8       23     9  30    3.1313   471.8    3.908      32.717
2015    8       23     9  36    3.1304   471.5    3.909      32.671
2015    8       23     9  42    3.1296   471.2    3.911      32.625
2015    8       23     9  49    3.1288   470.9    3.913      32.579
2015    8       23     9  55    3.1279   470.6    3.915      32.532
2015    8       23    10   1    3.1272   470.3    3.916      32.487
2015    8       23    10   7    3.1264   470.0    3.918      32.440
2015    8       23    10  13    3.1257   469.7    3.920      32.395
2015    8       23    10  20    3.1249   469.4    3.922      32.348
2015    8       23    10  26    3.1242   469.1    3.924      32.303
2015    8       23    10  32    3.1236   468.8    3.925      32.257
2015    8       23    10  38    3.1229   468.5    3.927      32.212
2015    8       23    10  45    3.1223   468.2    3.929      32.166
2015    8       23    10  51    3.1217   467.9    3.931      32.121
2015    8       23    10  57    3.1212   467.5    3.933      32.076
2015    8       23    11   3    3.1206   467.2    3.935      32.032
2015    8       23    11  10    3.1201   466.9    3.937      31.987
2015    8       23    11  16    3.1196   466.6    3.939      31.943
2015    8       23    11  22    3.1192   466.3    3.941      31.899
2015    8       23    11  28    3.1187   466.0    3.943      31.855
2015    8       23    11  35    3.1184   465.7    3.945      31.811
2015    8       23    11  41    3.1180   465.4    3.947      31.768
2015    8       23    11  47    3.1177   465.1    3.950      31.725
2015    8       23    11  53    3.1173   464.8    3.952      31.682
2015    8       23    11  59    3.1171   464.4    3.954      31.639
2015    8       23    12   6    3.1168   464.1    3.957      31.597
2015    8       23    12  12    3.1166   463.8    3.959      31.555
2015    8       23    12  18    3.1164   463.5    3.961      31.513
2015    8       23    12  24    3.1162   463.2    3.964      31.470
2015    8       23    12  31    3.1160   462.9    3.966      31.429
2015    8       23    12  37    3.1159   462.6    3.969      31.387
2015    8       23    12  43    3.1158   462.2    3.972      31.345
2015    8       23    12  49    3.1157   461.9    3.974      31.303
2015    8       23    12  56    3.1156   461.6    3.977      31.262
2015    8       23    13   2    3.1156   461.3    3.980      31.221
2015    8       23    13   8    3.1156   461.0    3.983      31.180
2015    8       23    13  14    3.1156   460.6    3.986      31.140
2015    8       23    13  20    3.1157   460.3    3.989      31.099
2015    8       23    13  27    3.1158   460.0    3.992      31.059
2015    8       23    13  33    3.1159   459.6    3.996      31.019
2015    8       23    13  39    3.1161   459.3    3.999      30.980
2015    8       23    13  45    3.1164   459.0    4.002      30.941
2015    8       23    13  52    3.1166   458.6    4.006      30.902
2015    8       23    13  58    3.1170   458.3    4.010      30.864
2015    8       23    14   4    3.1174   458.0    4.014      30.826
2015    8       23    14  10    3.1178   457.7    4.018      30.789
2015    8       23    14  17    3.1183   457.3    4.022      30.752
2015    8       23    14  23    3.1188   457.0    4.026      30.716
2015    8       23    14  29    3.1195   456.6    4.031      30.680
2015    8       23    14  35    3.1201   456.3    4.035      30.645
2015    8       23    14  42    3.1208   456.0    4.040      30.610
2015    8       23    14  48    3.1216   455.7    4.045      30.576
2015    8       23    14  54    3.1225   455.3    4.050      30.543
2015    8       23    15   0    3.1234   455.0    4.055      30.510
2015    8       23    15   7    3.1244   454.7    4.061      30.477
2015    8       23    15  13    3.1254   454.3    4.066      30.446
2015    8       23    15  19    3.1265   454.0    4.072      30.414
2015    8       23    15  25    3.1277   453.7    4.077      30.383
2015    8       23    15  32    3.1289   453.3    4.083      30.352
2015    8       23    15  38    3.1302   453.0    4.089      30.322
2015    8       23    15  44    3.1315   452.7    4.096      30.292
2015    8       23    15  50    3.1329   452.3    4.102      30.263
2015    8       23    15  56    3.1344   452.0    4.109      30.233
2015    8       23    16   3    3.1358   451.7    4.115      30.205
2015    8       23    16   9    3.1374   451.3    4.122      30.176
2015    8       23    16  15    3.1390   451.0    4.128      30.147
2015    8       23    16  21    3.1406   450.7    4.135      30.119
2015    8       23    16  28    3.1423   450.3    4.142      30.091
2015    8       23    16  34    3.1441   450.0    4.150      30.063
2015    8       23    16  40    3.1459   449.7    4.157      30.035
2015    8       23    16  46    3.1477   449.3    4.164      30.008
2015    8       23    16  53    3.1496   449.0    4.172      29.981
2015    8       23    16  59    3.1516   448.7    4.179      29.954
2015    8       23    17   5    3.1536   448.3    4.187      29.928
2015    8       23    17  11    3.1557   448.0    4.195      29.902
2015    8       23    17  17    3.1578   447.7    4.203      29.877
2015    8       23    17  24    3.1600   447.3    4.211      29.852
2015    8       23    17  30    3.1622   447.0    4.219      29.828
2015    8       23    17  36    3.1646   446.7    4.228      29.804
2015    8       23    17  42    3.1669   446.3    4.236      29.782
2015    8       23    17  49    3.1694   446.0    4.245      29.759
2015    8       23    17  55    3.1719   445.7    4.254      29.738
2015    8       23    18   1    3.1746   445.4    4.264      29.717
2015    8       23    18   7    3.1773   445.0    4.273      29.698
2015    8       23    18  14    3.1801   444.7    4.282      29.678
2015    8       23    18  20    3.1829   444.4    4.292      29.661
2015    8       23    18  26    3.1858   444.1    4.302      29.643
2015    8       23    18  32    3.1887   443.8    4.312      29.628
2015    8       23    18  39    3.1918   443.5    4.322      29.613
2015    8       23    18  45    3.1948   443.1    4.332      29.599
2015    8       23    18  51    3.1980   442.8    4.342      29.587
2015    8       23    18  57    3.2011   442.5    4.352      29.575
2015    8       23    19   3    3.2044   442.2    4.363      29.563
2015    8       23    19  10    3.2077   441.9    4.373      29.552
2015    8       23    19  16    3.2111   441.6    4.384      29.542
2015    8       23    19  22    3.2144   441.3    4.394      29.532
2015    8       23    19  28    3.2179   441.0    4.405      29.522
2015    8       23    19  35    3.2214   440.7    4.416      29.512
2015    8       23    19  41    3.2249   440.4    4.427      29.503
2015    8       23    19  47    3.2285   440.1    4.437      29.494
2015    8       23    19  53    3.2322   439.8    4.448      29.486
2015    8       23    20   0    3.2358   439.6    4.459      29.477
2015    8       23    20   6    3.2396   439.3    4.470      29.469
2015    8       23    20  12    3.2434   439.0    4.481      29.461
2015    8       23    20  18    3.2473   438.7    4.493      29.453
2015    8       23    20  25    3.2511   438.4    4.504      29.446
2015    8       23    20  31    3.2551   438.1    4.515      29.438
2015    8       23    20  37    3.2591   437.8    4.526      29.431
2015    8       23    20  43    3.2632   437.5    4.538      29.423
2015    8       23    20  49    3.2673   437.2    4.549      29.416
2015    8       23    20  56    3.2715   437.0    4.561      29.409
2015    8       23    21   2    3.2757   436.7    4.572      29.403
2015    8       23    21   8    3.2801   436.4    4.584      29.396
2015    8       23    21  14    3.2844   436.1    4.596      29.390
2015    8       23    21  21    3.2889   435.8    4.608      29.384
2015    8       23    21  27    3.2933   435.6    4.620      29.379
2015    8       23    21  33    3.2980   435.3    4.632      29.373
2015    8       23    21  39    3.3026   435.0    4.644      29.368
2015    8       23    21  46    3.3073   434.7    4.656      29.364
2015    8       23    21  52    3.3121   434.5    4.669      29.360
2015    8       23    21  58    3.3170   434.2    4.681      29.356
2015    8       23    22   4    3.3219   433.9    4.694      29.353
2015    8       23    22  11    3.3270   433.7    4.706      29.350
2015    8       23    22  17    3.3320   433.4    4.719      29.348
2015    8       23    22  23    3.3372   433.1    4.732      29.346
2015    8       23    22  29    3.3424   432.9    4.745      29.345
2015    8       23    22  36    3.3477   432.6    4.758      29.344
2015    8       23    22  42    3.3529   432.4    4.771      29.344
2015    8       23    22  48    3.3584   432.1    4.785      29.344
2015    8       23    22  54    3.3638   431.9    4.798      29.345
2015    8       23    23   1    3.3693   431.6    4.812      29.346
2015    8       23    23   7    3.3748   431.4    4.825      29.347
2015    8       23    23  13    3.3804   431.1    4.839      29.349
2015    8       23    23  19    3.3860   430.9    4.853      29.352
2015    8       23    23  25    3.3917   430.7    4.867      29.355
2015    8       23    23  32    3.3974   430.4    4.881      29.358
2015    8       23    23  38    3.4032   430.2    4.895      29.362
2015    8       23    23  44    3.4090   430.0    4.909      29.366
2015    8       23    23  50    3.4149   429.8    4.923      29.371
2015    8       23    23  57    3.4208   429.5    4.938      29.376
2015    8       24     0   3    3.4268   429.3    4.952      29.382
2015    8       24     0   9    3.4328   429.1    4.967      29.388
2015    8       24     0  15    3.4389   428.9    4.982      29.395
2015    8       24     0  22    3.4450   428.7    4.996      29.402
2015    8       24     0  28    3.4512   428.4    5.011      29.410
2015    8       24     0  34    3.4574   428.2    5.026      29.418
2015    8       24     0  40    3.4638   428.0    5.042      29.427
2015    8       24     0  46    3.4701   427.8    5.057      29.437
2015    8       24     0  53    3.4766   427.6    5.073      29.447
2015    8       24     0  59    3.4830   427.4    5.088      29.459
2015    8       24     1   5    3.4896   427.2    5.104      29.470
2015    8       24     1  11    3.4962   427.0    5.120      29.483
2015    8       24     1  18    3.5029   426.8    5.136      29.497
2015    8       24     1  24    3.5096   426.6    5.153      29.511
2015    8       24     1  30    3.5165   426.5    5.169      29.526
2015    8       24     1  36    3.5233   426.3    5.186      29.543
2015    8       24     1  43    3.5302   426.1    5.203      29.560
2015    8       24     1  49    3.5371   425.9    5.219      29.579
2015    8       24     1  55    3.5442   425.7    5.236      29.598
2015    8       24     2   1    3.5512   425.6    5.253      29.619
2015    8       24     2   8    3.5584   425.4    5.271      29.640
2015    8       24     2  14    3.5655   425.2    5.288      29.662
2015    8       24     2  20    3.5728   425.1    5.305      29.685
2015    8       24     2  26    3.5800   424.9    5.323      29.708
2015    8       24     2  32    3.5874   424.7    5.341      29.732
2015    8       24     2  39    3.5947   424.6    5.358      29.756
2015    8       24     2  45    3.6022   424.4    5.376      29.781
2015    8       24     2  51    3.6097   424.3    5.394      29.806
2015    8       24     2  57    3.6173   424.1    5.413      29.831
2015    8       24     3   4    3.6250   423.9    5.431      29.858
2015    8       24     3  10    3.6328   423.8    5.450      29.884
2015    8       24     3  16    3.6406   423.6    5.469      29.912
2015    8       24     3  22    3.6486   423.5    5.488      29.939
2015    8       24     3  29    3.6567   423.3    5.508      29.968
2015    8       24     3  35    3.6650   423.2    5.528      29.997
2015    8       24     3  41    3.6732   423.0    5.548      30.026
2015    8       24     3  47    3.6817   422.9    5.568      30.058
2015    8       24     3  54    3.6901   422.8    5.588      30.091
2015    8       24     4   0    3.6988   422.6    5.609      30.127
2015    8       24     4   6    3.7073   422.5    5.629      30.165
2015    8       24     4  12    3.7160   422.4    5.649      30.204
2015    8       24     4  18    3.7246   422.3    5.669      30.245
2015    8       24     4  25    3.7334   422.2    5.690      30.288
2015    8       24     4  31    3.7421   422.1    5.710      30.330
2015    8       24     4  37    3.7509   422.0    5.730      30.373
2015    8       24     4  43    3.7597   421.9    5.750      30.416
2015    8       24     4  50    3.7686   421.8    5.769      30.461
2015    8       24     4  56    3.7774   421.7    5.789      30.505
2015    8       24     5   2    3.7864   421.6    5.808      30.550
2015    8       24     5   8    3.7952   421.5    5.827      30.596
2015    8       24     5  15    3.8042   421.4    5.847      30.642
2015    8       24     5  21    3.8131   421.3    5.865      30.687
2015    8       24     5  27    3.8221   421.3    5.884      30.733
2015    8       24     5  33    3.8309   421.2    5.902      30.777
2015    8       24     5  40    3.8398   421.1    5.920      30.821
2015    8       24     5  46    3.8486   421.0    5.938      30.863
2015    8       24     5  52    3.8576   421.0    5.956      30.906
2015    8       24     5  58    3.8663   420.9    5.974      30.948
2015    8       24     6   5    3.8752   420.8    5.991      30.989
2015    8       24     6  11    3.8839   420.8    6.009      31.029
2015    8       24     6  17    3.8927   420.7    6.026      31.069
2015    8       24     6  23    3.9014   420.6    6.043      31.108
2015    8       24     6  30    3.9101   420.6    6.060      31.147
2015    8       24     6  36    3.9188   420.5    6.076      31.185
2015    8       24     6  42    3.9275   420.5    6.093      31.223
2015    8       24     6  48    3.9361   420.4    6.109      31.260
2015    8       24     6  54    3.9448   420.4    6.126      31.297
2015    8       24     7   1    3.9534   420.3    6.142      31.333
2015    8       24     7   7    3.9621   420.2    6.158      31.369
2015    8       24     7  13    3.9707   420.2    6.174      31.405
2015    8       24     7  19    3.9794   420.1    6.191      31.441
2015    8       24     7  26    3.9880   420.1    6.206      31.476
2015    8       24     7  32    3.9967   420.0    6.222      31.511
2015    8       24     7  38    4.0053   420.0    6.238      31.545
2015    8       24     7  44    4.0140   419.9    6.254      31.580
2015    8       24     7  51    4.0226   419.9    6.270      31.614
2015    8       24     7  57    4.0313   419.8    6.286      31.649
2015    8       24     8   3    4.0400   419.8    6.301      31.683
2015    8       24     8   9    4.0487   419.7    6.317      31.718
2015    8       24     8  15    4.0574   419.7    6.332      31.752
2015    8       24     8  22    4.0662   419.7    6.348      31.787
2015    8       24     8  28    4.0749   419.6    6.364      31.821
2015    8       24     8  34    4.0838   419.6    6.380      31.857
2015    8       24     8  40    4.0926   419.5    6.396      31.892
2015    8       24     8  47    4.1015   419.5    6.412      31.928
2015    8       24     8  53    4.1104   419.5    6.427      31.964
2015    8       24     8  59    4.1194   419.4    6.444      32.001
2015    8       24     9   5    4.1283   419.4    6.460      32.038
2015    8       24     9  12    4.1374   419.4    6.476      32.076
2015    8       24     9  18    4.1465   419.3    6.493      32.115
2015    8       24     9  24    4.1557   419.3    6.510      32.154
2015    8       24     9  30    4.1648   419.3    6.527      32.194
2015    8       24     9  37    4.1742   419.2    6.544      32.236
2015    8       24     9  43    4.1834   419.2    6.562      32.278
2015    8       24     9  49    4.1929   419.2    6.580      32.321
2015    8       24     9  55    4.2024   419.1    6.598      32.365
2015    8       24    10   2    4.2121   419.1    6.617      32.411
2015    8       24    10   8    4.2218   419.1    6.636      32.457
2015    8       24    10  14    4.2318   419.0    6.656      32.506
2015    8       24    10  20    4.2418   419.0    6.677      32.555
2015    8       24    10  26    4.2521   419.0    6.698      32.607
2015    8       24    10  33    4.2625   418.9    6.720      32.660
2015    8       24    10  39    4.2731   418.9    6.742      32.717
2015    8       24    10  45    4.2838   418.9    6.764      32.777
2015    8       24    10  51    4.2947   418.9    6.787      32.842
2015    8       24    10  58    4.3056   418.9    6.810      32.910
2015    8       24    11   4    4.3167   418.9    6.833      32.983
2015    8       24    11  10    4.3277   419.0    6.856      33.059
2015    8       24    11  16    4.3389   419.0    6.879      33.140
2015    8       24    11  23    4.3499   419.0    6.901      33.223
2015    8       24    11  29    4.3610   419.1    6.924      33.308
2015    8       24    11  35    4.3720   419.1    6.946      33.394
2015    8       24    11  41    4.3831   419.1    6.967      33.481
2015    8       24    11  48    4.3941   419.2    6.989      33.568
2015    8       24    11  54    4.4052   419.2    7.010      33.655
2015    8       24    12   0    4.4161   419.3    7.031      33.743
2015    8       24    12   6    4.4271   419.4    7.052      33.833
2015    8       24    12  13    4.4380   419.4    7.072      33.922
2015    8       24    12  19    4.4489   419.5    7.091      34.013
2015    8       24    12  25    4.4597   419.6    7.110      34.103
2015    8       24    12  31    4.4705   419.7    7.129      34.194
2015    8       24    12  37    4.4812   419.8    7.147      34.283
2015    8       24    12  44    4.4918   419.9    7.165      34.372
2015    8       24    12  50    4.5023   420.0    7.181      34.458
2015    8       24    12  56    4.5127   420.1    7.198      34.543
2015    8       24    13   2    4.5229   420.2    7.214      34.625
2015    8       24    13   9    4.5332   420.3    7.229      34.706
2015    8       24    13  15    4.5432   420.4    7.244      34.785
2015    8       24    13  21    4.5532   420.5    7.258      34.863
2015    8       24    13  27    4.5631   420.6    7.272      34.938
2015    8       24    13  34    4.5729   420.6    7.286      35.012
2015    8       24    13  40    4.5826   420.7    7.299      35.083
2015    8       24    13  46    4.5923   420.8    7.311      35.154
2015    8       24    13  52    4.6018   420.9    7.324      35.223
2015    8       24    13  59    4.6113   421.0    7.336      35.291
2015    8       24    14   5    4.6207   421.1    7.347      35.357
2015    8       24    14  11    4.6302   421.2    7.359      35.422
2015    8       24    14  17    4.6394   421.3    7.370      35.485
2015    8       24    14  24    4.6488   421.4    7.381      35.548
2015    8       24    14  30    4.6579   421.5    7.392      35.609
2015    8       24    14  36    4.6672   421.5    7.403      35.669
2015    8       24    14  42    4.6763   421.6    7.413      35.728
2015    8       24    14  48    4.6854   421.7    7.423      35.786
2015    8       24    14  55    4.6944   421.8    7.433      35.843
2015    8       24    15   1    4.7035   421.9    7.443      35.899
2015    8       24    15   7    4.7124   421.9    7.453      35.954
2015    8       24    15  13    4.7215   422.0    7.463      36.009
2015    8       24    15  20    4.7304   422.1    7.472      36.062
2015    8       24    15  26    4.7393   422.2    7.482      36.116
2015    8       24    15  32    4.7482   422.2    7.492      36.168
2015    8       24    15  38    4.7572   422.3    7.502      36.221
2015    8       24    15  45    4.7660   422.4    7.512      36.273
2015    8       24    15  51    4.7750   422.5    7.522      36.325
2015    8       24    15  57    4.7839   422.5    7.533      36.378
2015    8       24    16   3    4.7930   422.6    7.544      36.430
2015    8       24    16   9    4.8020   422.6    7.555      36.483
2015    8       24    16  16    4.8111   422.7    7.567      36.537
2015    8       24    16  22    4.8203   422.8    7.579      36.593
2015    8       24    16  28    4.8296   422.8    7.592      36.649
2015    8       24    16  34    4.8390   422.9    7.605      36.705
2015    8       24    16  41    4.8486   422.9    7.620      36.762
2015    8       24    16  47    4.8583   423.0    7.635      36.823
2015    8       24    16  53    4.8681   423.1    7.650      36.889
2015    8       24    16  59    4.8780   423.1    7.667      36.957
2015    8       24    17   6    4.8881   423.2    7.683      37.030
2015    8       24    17  12    4.8982   423.3    7.700      37.105
2015    8       24    17  18    4.9084   423.4    7.717      37.185
2015    8       24    17  24    4.9185   423.5    7.734      37.266
2015    8       24    17  31    4.9286   423.6    7.750      37.348
2015    8       24    17  37    4.9386   423.7    7.767      37.429
2015    8       24    17  43    4.9485   423.9    7.783      37.513
2015    8       24    17  49    4.9583   424.0    7.798      37.598
2015    8       24    17  56    4.9679   424.1    7.813      37.684
2015    8       24    18   2    4.9772   424.2    7.827      37.772
2015    8       24    18   8    4.9864   424.4    7.841      37.860
2015    8       24    18  14    4.9954   424.5    7.853      37.948
2015    8       24    18  21    5.0042   424.7    7.865      38.036
2015    8       24    18  27    5.0127   424.8    7.876      38.122
2015    8       24    18  33    5.0211   424.9    7.887      38.206
2015    8       24    18  39    5.0293   425.1    7.897      38.288
2015    8       24    18  45    5.0373   425.2    7.907      38.370
2015    8       24    18  52    5.0451   425.4    7.915      38.450
2015    8       24    18  58    5.0528   425.5    7.924      38.530
2015    8       24    19   4    5.0603   425.7    7.931      38.609
2015    8       24    19  10    5.0677   425.8    7.939      38.687
2015    8       24    19  17    5.0749   426.0    7.945      38.764
2015    8       24    19  23    5.0820   426.1    7.951      38.840
2015    8       24    19  29    5.0890   426.3    7.957      38.915
2015    8       24    19  35    5.0958   426.4    7.962      38.989
2015    8       24    19  42    5.1024   426.6    7.967      39.062
2015    8       24    19  48    5.1090   426.7    7.972      39.133
2015    8       24    19  54    5.1154   426.9    7.976      39.203
2015    8       24    20   0    5.1217   427.0    7.980      39.273
2015    8       24    20   7    5.1279   427.2    7.984      39.342
2015    8       24    20  13    5.1340   427.3    7.988      39.410
2015    8       24    20  19    5.1401   427.5    7.991      39.477
2015    8       24    20  25    5.1461   427.6    7.994      39.545
2015    8       24    20  32    5.1520   427.8    7.997      39.612
2015    8       24    20  38    5.1579   427.9    8.001      39.679
2015    8       24    20  44    5.1638   428.1    8.004      39.745
2015    8       24    20  50    5.1697   428.3    8.007      39.813
2015    8       24    20  56    5.1755   428.4    8.010      39.880
2015    8       24    21   3    5.1813   428.6    8.013      39.947
2015    8       24    21   9    5.1871   428.7    8.016      40.015
2015    8       24    21  15    5.1929   428.9    8.019      40.083
2015    8       24    21  21    5.1987   429.1    8.023      40.152
2015    8       24    21  28    5.2046   429.2    8.026      40.221
2015    8       24    21  34    5.2104   429.4    8.030      40.291
2015    8       24    21  40    5.2163   429.6    8.034      40.362
2015    8       24    21  46    5.2222   429.7    8.038      40.433
2015    8       24    21  53    5.2281   429.9    8.042      40.506
2015    8       24    21  59    5.2340   430.1    8.047      40.578
2015    8       24    22   5    5.2399   430.3    8.052      40.653
2015    8       24    22  11    5.2458   430.4    8.057      40.728
2015    8       24    22  18    5.2518   430.6    8.062      40.805
2015    8       24    22  24    5.2578   430.8    8.068      40.882
2015    8       24    22  30    5.2638   431.0    8.075      40.961
2015    8       24    22  36    5.2699   431.2    8.081      41.040
2015    8       24    22  42    5.2761   431.4    8.089      41.121
2015    8       24    22  49    5.2823   431.6    8.096      41.203
2015    8       24    22  55    5.2887   431.8    8.105      41.287
2015    8       24    23   1    5.2952   432.0    8.113      41.372
2015    8       24    23   7    5.3018   432.2    8.123      41.459
2015    8       24    23  14    5.3085   432.4    8.133      41.547
2015    8       24    23  20    5.3155   432.6    8.144      41.638
2015    8       24    23  26    5.3226   432.8    8.156      41.730
2015    8       24    23  32    5.3300   433.0    8.169      41.827
2015    8       24    23  39    5.3377   433.2    8.183      41.925
2015    8       24    23  45    5.3456   433.5    8.198      42.026
2015    8       24    23  51    5.3539   433.7    8.214      42.129
2015    8       24    23  57    5.3626   433.9    8.232      42.235
2015    8       25     0   4    5.3715   434.1    8.250      42.347
2015    8       25     0  10    5.3808   434.4    8.270      42.467
2015    8       25     0  16    5.3903   434.7    8.290      42.591
2015    8       25     0  22    5.4001   435.0    8.311      42.722
2015    8       25     0  28    5.4098   435.3    8.332      42.856
2015    8       25     0  35    5.4197   435.6    8.353      42.996
2015    8       25     0  41    5.4294   435.9    8.373      43.138
2015    8       25     0  47    5.4392   436.2    8.394      43.283
2015    8       25     0  53    5.4488   436.6    8.414      43.426
2015    8       25     1   0    5.4584   436.9    8.433      43.570
2015    8       25     1   6    5.4677   437.2    8.452      43.712
2015    8       25     1  12    5.4770   437.6    8.470      43.855
2015    8       25     1  18    5.4859   437.9    8.487      43.997
2015    8       25     1  25    5.4948   438.3    8.504      44.138
2015    8       25     1  31    5.5034   438.6    8.520      44.276
2015    8       25     1  37    5.5119   439.0    8.536      44.412
2015    8       25     1  43    5.5202   439.3    8.551      44.545
2015    8       25     1  50    5.5283   439.7    8.566      44.678
2015    8       25     1  56    5.5363   440.0    8.580      44.808
2015    8       25     2   2    5.5442   440.3    8.595      44.938
2015    8       25     2   8    5.5520   440.7    8.608      45.066
2015    8       25     2  15    5.5597   441.0    8.622      45.194
2015    8       25     2  21    5.5672   441.3    8.636      45.319
2015    8       25     2  27    5.5748   441.7    8.649      45.445
2015    8       25     2  33    5.5823   442.0    8.662      45.568
2015    8       25     2  40    5.5898   442.3    8.676      45.691
2015    8       25     2  46    5.5973   442.6    8.689      45.811
2015    8       25     2  52    5.6048   443.0    8.703      45.931
2015    8       25     2  58    5.6123   443.3    8.717      46.049
2015    8       25     3   5    5.6198   443.6    8.732      46.167
2015    8       25     3  11    5.6273   443.9    8.746      46.282
2015    8       25     3  17    5.6349   444.2    8.762      46.398
2015    8       25     3  23    5.6425   444.5    8.778      46.511
2015    8       25     3  29    5.6502   444.8    8.796      46.624
2015    8       25     3  36    5.6579   445.2    8.814      46.735
2015    8       25     3  42    5.6657   445.5    8.833      46.847
2015    8       25     3  48    5.6735   445.8    8.854      46.957
2015    8       25     3  54    5.6814   446.1    8.876      47.067
2015    8       25     4   1    5.6892   446.4    8.899      47.176
2015    8       25     4   7    5.6970   446.7    8.924      47.288
2015    8       25     4  13    5.7046   447.0    8.949      47.403
2015    8       25     4  19    5.7120   447.3    8.976      47.525
2015    8       25     4  26    5.7191   447.6    9.002      47.652
2015    8       25     4  32    5.7260   448.0    9.028      47.791
2015    8       25     4  38    5.7326   448.3    9.054      47.939
2015    8       25     4  44    5.7390   448.6    9.080      48.099
2015    8       25     4  51    5.7449   448.9    9.104      48.268
2015    8       25     4  57    5.7507   449.3    9.129      48.450
2015    8       25     5   3    5.7560   449.6    9.153      48.639
2015    8       25     5   9    5.7610   449.9    9.177      48.840
2015    8       25     5  15    5.7656   450.2    9.199      49.047
2015    8       25     5  22    5.7700   450.6    9.221      49.266
2015    8       25     5  28    5.7739   450.9    9.242      49.490
2015    8       25     5  34    5.7775   451.2    9.261      49.724
2015    8       25     5  40    5.7808   451.5    9.279      49.965
2015    8       25     5  47    5.7838   451.8    9.295      50.216
2015    8       25     5  53    5.7865   452.1    9.310      50.471
2015    8       25     5  59    5.7889   452.4    9.323      50.734
2015    8       25     6   5    5.7911   452.7    9.335      50.999
2015    8       25     6  12    5.7931   453.0    9.345      51.269
2015    8       25     6  18    5.7948   453.3    9.354      51.539
2015    8       25     6  24    5.7965   453.6    9.361      51.812
2015    8       25     6  30    5.7979   453.9    9.367      52.084
2015    8       25     6  37    5.7992   454.1    9.372      52.359
2015    8       25     6  43    5.8003   454.4    9.376      52.632
2015    8       25     6  49    5.8013   454.7    9.378      52.908
2015    8       25     6  55    5.8021   454.9    9.380      53.184
2015    8       25     7   1    5.8030   455.2    9.380      53.464
2015    8       25     7   8    5.8037   455.4    9.379      53.743
2015    8       25     7  14    5.8046   455.6    9.377      54.027
2015    8       25     7  20    5.8053   455.8    9.374      54.311
2015    8       25     7  26    5.8063   456.1    9.370      54.603
2015    8       25     7  33    5.8071   456.3    9.366      54.895
2015    8       25     7  39    5.8082   456.5    9.360      55.196
2015    8       25     7  45    5.8092   456.7    9.353      55.498
2015    8       25     7  51    5.8104   456.9    9.345      55.809
2015    8       25     7  58    5.8115   457.1    9.337      56.124
2015    8       25     8   4    5.8129   457.3    9.327      56.449
2015    8       25     8  10    5.8143   457.5    9.317      56.778
2015    8       25     8  16    5.8160   457.6    9.305      57.114
2015    8       25     8  23    5.8177   457.8    9.293      57.450
2015    8       25     8  29    5.8198   458.0    9.280      57.792
2015    8       25     8  35    5.8220   458.2    9.266      58.130
2015    8       25     8  41    5.8246   458.4    9.252      58.470
2015    8       25     8  47    5.8273   458.6    9.236      58.802
2015    8       25     8  54    5.8305   458.8    9.220      59.134
2015    8       25     9   0    5.8338   459.1    9.203      59.457
2015    8       25     9   6    5.8377   459.3    9.186      59.777
2015    8       25     9  12    5.8416   459.5    9.168      60.087
2015    8       25     9  19    5.8462   459.7    9.149      60.392
2015    8       25     9  25    5.8507   460.0    9.130      60.687
2015    8       25     9  31    5.8558   460.2    9.109      60.976
2015    8       25     9  37    5.8609   460.5    9.089      61.256
2015    8       25     9  44    5.8666   460.7    9.068      61.532
2015    8       25     9  50    5.8721   461.0    9.046      61.798
2015    8       25     9  56    5.8781   461.3    9.024      62.062
2015    8       25    10   2    5.8840   461.5    9.002      62.317
2015    8       25    10   9    5.8905   461.8    8.978      62.570
2015    8       25    10  15    5.8968   462.0    8.955      62.816
2015    8       25    10  21    5.9036   462.3    8.930      63.060
2015    8       25    10  27    5.9102   462.6    8.906      63.299
2015    8       25    10  34    5.9173   462.8    8.880      63.539
2015    8       25    10  40    5.9244   463.1    8.853      63.776
2015    8       25    10  46    5.9318   463.3    8.826      64.015
2015    8       25    10  52    5.9393   463.6    8.798      64.252
2015    8       25    10  59    5.9471   463.9    8.769      64.493
2015    8       25    11   5    5.9549   464.2    8.740      64.737
2015    8       25    11  11    5.9632   464.4    8.709      64.985
2015    8       25    11  17    5.9714   464.7    8.678      65.232
2015    8       25    11  24    5.9799   465.0    8.647      65.483
2015    8       25    11  30    5.9884   465.3    8.616      65.731
2015    8       25    11  36    5.9973   465.5    8.584      65.981
2015    8       25    11  42    6.0061   465.8    8.554      66.222
2015    8       25    11  48    6.0152   466.1    8.523      66.459
2015    8       25    11  55    6.0244   466.4    8.493      66.686
2015    8       25    12   1    6.0339   466.7    8.463      66.908
2015    8       25    12   7    6.0434   467.0    8.433      67.118
2015    8       25    12  13    6.0532   467.3    8.403      67.320
2015    8       25    12  20    6.0630   467.6    8.374      67.508
2015    8       25    12  26    6.0731   468.0    8.345      67.688
2015    8       25    12  32    6.0831   468.3    8.317      67.853
2015    8       25    12  38    6.0934   468.6    8.289      68.005
2015    8       25    12  45    6.1038   468.9    8.262      68.144
2015    8       25    12  51    6.1143   469.2    8.234      68.268
2015    8       25    12  57    6.1249   469.5    8.208      68.376
2015    8       25    13   3    6.1356   469.8    8.182      68.471
2015    8       25    13   9    6.1464   470.1    8.156      68.553
2015    8       25    13  16    6.1574   470.4    8.131      68.627
2015    8       25    13  22    6.1684   470.7    8.106      68.694
2015    8       25    13  28    6.1795   471.0    8.081      68.758
2015    8       25    13  34    6.1907   471.3    8.057      68.820
2015    8       25    13  41    6.2018   471.6    8.033      68.883
2015    8       25    13  47    6.2131   471.9    8.010      68.947
2015    8       25    13  53    6.2242   472.3    7.988      69.015
2015    8       25    13  59    6.2355   472.6    7.966      69.082
2015    8       25    14   6    6.2466   472.9    7.945      69.153
2015    8       25    14  12    6.2579   473.2    7.925      69.227
2015    8       25    14  18    6.2691   473.5    7.905      69.305
2015    8       25    14  24    6.2803   473.8    7.886      69.385
2015    8       25    14  31    6.2914   474.1    7.868      69.465
2015    8       25    14  37    6.3026   474.4    7.850      69.544
2015    8       25    14  43    6.3136   474.7    7.833      69.625
2015    8       25    14  49    6.3248   475.0    7.816      69.709
2015    8       25    14  56    6.3360   475.4    7.800      69.800
2015    8       25    15   2    6.3474   475.7    7.784      69.892
2015    8       25    15   8    6.3588   476.1    7.769      69.992
2015    8       25    15  14    6.3702   476.5    7.755      70.100
2015    8       25    15  20    6.3815   476.9    7.741      70.220
2015    8       25    15  27    6.3927   477.3    7.729      70.347
2015    8       25    15  33    6.4036   477.8    7.717      70.473
2015    8       25    15  39    6.4142   478.2    7.706      70.595
2015    8       25    15  45    6.4244   478.7    7.696      70.710
2015    8       25    15  52    6.4342   479.1    7.686      70.808
2015    8       25    15  58    6.4435   479.6    7.677      70.880
2015    8       25    16   4    6.4524   480.1    7.669      70.927
2015    8       25    16  10    6.4608   480.6    7.661      70.952
2015    8       25    16  17    6.4688   481.0    7.653      70.955
2015    8       25    16  23    6.4764   481.5    7.646      70.939
2015    8       25    16  29    6.4837   481.9    7.640      70.908
2015    8       25    16  35    6.4906   482.4    7.633      70.865
2015    8       25    16  42    6.4972   482.8    7.628      70.816
2015    8       25    16  48    6.5035   483.2    7.622      70.759
2015    8       25    16  54    6.5096   483.6    7.617      70.697
2015    8       25    17   0    6.5155   483.9    7.612      70.630
2015    8       25    17   7    6.5213   484.3    7.608      70.563
2015    8       25    17  13    6.5271   484.7    7.605      70.492
2015    8       25    17  19    6.5329   485.0    7.602      70.420
2015    8       25    17  25    6.5387   485.3    7.599      70.346
2015    8       25    17  32    6.5446   485.6    7.597      70.278
2015    8       25    17  38    6.5505   485.9    7.595      70.213
2015    8       25    17  44    6.5566   486.2    7.594      70.156
2015    8       25    17  50    6.5629   486.5    7.594      70.104
2015    8       25    17  56    6.5695   486.8    7.594      70.060
2015    8       25    18   3    6.5763   487.1    7.596      70.031
2015    8       25    18   9    6.5834   487.5    7.598      70.019
2015    8       25    18  15    6.5906   487.8    7.603      70.020
2015    8       25    18  21    6.5979   488.2    7.608      70.029
2015    8       25    18  28    6.6052   488.5    7.616      70.039
2015    8       25    18  34    6.6124   488.8    7.624      70.053
2015    8       25    18  40    6.6195   489.2    7.635      70.071
2015    8       25    18  46    6.6264   489.6    7.645      70.083
2015    8       25    18  53    6.6330   490.1    7.657      70.086
2015    8       25    18  59    6.6393   490.5    7.669      70.082
2015    8       25    19   5    6.6453   491.0    7.680      70.072
2015    8       25    19  11    6.6508   491.4    7.691      70.059
2015    8       25    19  18    6.6559   491.9    7.702      70.037
2015    8       25    19  24    6.6605   492.4    7.711      70.004
2015    8       25    19  30    6.6648   492.8    7.720      69.960
2015    8       25    19  36    6.6687   493.3    7.727      69.910
2015    8       25    19  42    6.6722   493.8    7.733      69.854
2015    8       25    19  49    6.6755   494.2    7.739      69.794
2015    8       25    19  55    6.6783   494.7    7.743      69.728
2015    8       25    20   1    6.6809   495.2    7.746      69.657
2015    8       25    20   7    6.6833   495.6    7.749      69.583
2015    8       25    20  14    6.6854   496.1    7.750      69.507
2015    8       25    20  20    6.6873   496.5    7.751      69.428
2015    8       25    20  26    6.6891   497.0    7.752      69.347
2015    8       25    20  32    6.6905   497.5    7.751      69.263
2015    8       25    20  39    6.6920   497.9    7.751      69.180
2015    8       25    20  45    6.6932   498.4    7.750      69.096
2015    8       25    20  51    6.6944   498.8    7.749      69.014
2015    8       25    20  57    6.6954   499.2    7.747      68.929
2015    8       25    21   4    6.6964   499.7    7.746      68.846
2015    8       25    21  10    6.6971   500.1    7.745      68.763
2015    8       25    21  16    6.6977   500.6    7.744      68.689
2015    8       25    21  22    6.6980   501.0    7.743      68.619
2015    8       25    21  28    6.6982   501.5    7.741      68.555
2015    8       25    21  35    6.6980   502.0    7.739      68.497
2015    8       25    21  41    6.6977   502.5    7.736      68.448
2015    8       25    21  47    6.6971   503.0    7.733      68.404
2015    8       25    21  53    6.6963   503.5    7.729      68.362
2015    8       25    22   0    6.6953   504.0    7.724      68.321
2015    8       25    22   6    6.6941   504.6    7.718      68.281
2015    8       25    22  12    6.6925   505.1    7.712      68.240
2015    8       25    22  18    6.6907   505.6    7.704      68.199
2015    8       25    22  25    6.6885   506.2    7.695      68.156
2015    8       25    22  31    6.6861   506.7    7.686      68.113
2015    8       25    22  37    6.6833   507.3    7.674      68.068
2015    8       25    22  43    6.6802   507.8    7.662      68.020
2015    8       25    22  50    6.6767   508.3    7.649      67.969
2015    8       25    22  56    6.6730   508.8    7.635      67.916
2015    8       25    23   2    6.6691   509.4    7.620      67.862
2015    8       25    23   8    6.6651   509.9    7.605      67.809
2015    8       25    23  15    6.6608   510.4    7.589      67.753
2015    8       25    23  21    6.6567   510.9    7.574      67.701
2015    8       25    23  27    6.6524   511.4    7.557      67.652
2015    8       25    23  33    6.6482   512.0    7.541      67.606
2015    8       25    23  39    6.6438   512.5    7.524      67.563
2015    8       25    23  46    6.6394   513.0    7.508      67.523
2015    8       25    23  52    6.6349   513.6    7.491      67.486
2015    8       25    23  58    6.6304   514.1    7.474      67.454
2015    8       26     0   4    6.6257   514.7    7.456      67.424
2015    8       26     0  11    6.6210   515.2    7.439      67.397
2015    8       26     0  17    6.6161   515.8    7.421      67.373
2015    8       26     0  23    6.6111   516.3    7.403      67.351
2015    8       26     0  29    6.6060   516.9    7.386      67.329
2015    8       26     0  36    6.6010   517.5    7.368      67.309
2015    8       26     0  42    6.5958   518.0    7.349      67.289
2015    8       26     0  48    6.5906   518.6    7.331      67.272
2015    8       26     0  54    6.5854   519.2    7.313      67.254
2015    8       26     1   1    6.5802   519.8    7.294      67.239
2015    8       26     1   7    6.5750   520.4    7.275      67.225
2015    8       26     1  13    6.5697   521.0    7.256      67.213
2015    8       26     1  19    6.5644   521.6    7.236      67.201
2015    8       26     1  26    6.5591   522.2    7.216      67.191
2015    8       26     1  32    6.5537   522.8    7.196      67.180
2015    8       26     1  38    6.5481   523.4    7.174      67.171
2015    8       26     1  44    6.5423   524.0    7.152      67.160
2015    8       26     1  50    6.5365   524.6    7.130      67.147
2015    8       26     1  57    6.5304   525.3    7.107      67.134
2015    8       26     2   3    6.5244   525.9    7.084      67.121
2015    8       26     2   9    6.5181   526.5    7.060      67.107
2015    8       26     2  15    6.5119   527.2    7.036      67.092
2015    8       26     2  22    6.5055   527.8    7.012      67.077
2015    8       26     2  28    6.4991   528.4    6.987      67.064
2015    8       26     2  34    6.4925   529.1    6.962      67.049
2015    8       26     2  40    6.4857   529.7    6.936      67.033
2015    8       26     2  47    6.4785   530.4    6.909      67.011
2015    8       26     2  53    6.4711   531.0    6.881      66.984
2015    8       26     2  59    6.4630   531.7    6.852      66.957
2015    8       26     3   5    6.4546   532.3    6.821      66.915
2015    8       26     3  12    6.4456   532.9    6.789      66.862
2015    8       26     3  18    6.4365   533.5    6.757      66.800
2015    8       26     3  24    6.4271   534.1    6.724      66.732
2015    8       26     3  30    6.4179   534.6    6.692      66.659
2015    8       26     3  36    6.4087   535.1    6.660      66.583
2015    8       26     3  43    6.3999   535.6    6.630      66.514
2015    8       26     3  49    6.3913   536.2    6.599      66.450
2015    8       26     3  55    6.3830   536.7    6.570      66.394
2015    8       26     4   1    6.3747   537.2    6.542      66.342
2015    8       26     4   8    6.3669   537.8    6.514      66.296
2015    8       26     4  14    6.3593   538.3    6.488      66.255
2015    8       26     4  20    6.3520   538.8    6.462      66.222
2015    8       26     4  26    6.3447   539.4    6.437      66.192
2015    8       26     4  33    6.3378   539.9    6.413      66.168
2015    8       26     4  39    6.3309   540.5    6.389      66.147
2015    8       26     4  45    6.3242   541.0    6.366      66.129
2015    8       26     4  51    6.3175   541.6    6.343      66.113
2015    8       26     4  58    6.3110   542.2    6.321      66.100
2015    8       26     5   4    6.3045   542.8    6.299      66.088
2015    8       26     5  10    6.2980   543.3    6.277      66.076
2015    8       26     5  16    6.2915   543.9    6.255      66.066
2015    8       26     5  22    6.2850   544.5    6.233      66.055
2015    8       26     5  29    6.2783   545.1    6.211      66.045
2015    8       26     5  35    6.2717   545.6    6.189      66.034
2015    8       26     5  41    6.2650   546.2    6.166      66.022
2015    8       26     5  47    6.2583   546.8    6.144      66.009
2015    8       26     5  54    6.2514   547.4    6.122      65.994
2015    8       26     6   0    6.2445   547.9    6.099      65.977
2015    8       26     6   6    6.2374   548.5    6.077      65.959
2015    8       26     6  12    6.2303   549.1    6.054      65.939
2015    8       26     6  19    6.2230   549.6    6.031      65.916
2015    8       26     6  25    6.2156   550.2    6.008      65.893
2015    8       26     6  31    6.2081   550.7    5.984      65.868
2015    8       26     6  37    6.2005   551.3    5.961      65.841
2015    8       26     6  44    6.1927   551.8    5.937      65.812
2015    8       26     6  50    6.1851   552.4    5.914      65.782
2015    8       26     6  56    6.1773   552.9    5.890      65.751
2015    8       26     7   2    6.1695   553.4    5.866      65.718
2015    8       26     7   9    6.1617   553.9    5.841      65.681
2015    8       26     7  15    6.1538   554.5    5.817      65.645
2015    8       26     7  21    6.1457   555.0    5.791      65.602
2015    8       26     7  27    6.1377   555.5    5.766      65.554
2015    8       26     7  34    6.1296   556.0    5.740      65.499
2015    8       26     7  40    6.1216   556.4    5.715      65.441
2015    8       26     7  46    6.1137   556.9    5.691      65.375
2015    8       26     7  52    6.1060   557.2    5.667      65.311
2015    8       26     7  58    6.0986   557.6    5.644      65.248
2015    8       26     8   5    6.0914   558.0    5.622      65.188
2015    8       26     8  11    6.0844   558.4    5.601      65.130
2015    8       26     8  17    6.0778   558.7    5.581      65.075
2015    8       26     8  23    6.0713   559.1    5.561      65.023
2015    8       26     8  30    6.0651   559.4    5.543      64.978
2015    8       26     8  36    6.0591   559.8    5.525      64.934
2015    8       26     8  42    6.0534   560.1    5.509      64.895
2015    8       26     8  48    6.0478   560.4    5.493      64.859
2015    8       26     8  55    6.0424   560.8    5.478      64.829
2015    8       26     9   1    6.0370   561.1    5.463      64.803
2015    8       26     9   7    6.0319   561.4    5.449      64.783
2015    8       26     9  13    6.0267   561.8    5.435      64.766
2015    8       26     9  19    6.0216   562.2    5.422      64.753
2015    8       26     9  26    6.0166   562.5    5.408      64.741
2015    8       26     9  32    6.0116   562.9    5.395      64.730
2015    8       26     9  38    6.0065   563.3    5.382      64.719
2015    8       26     9  44    6.0015   563.7    5.368      64.708
2015    8       26     9  51    5.9964   564.0    5.355      64.696
2015    8       26     9  57    5.9912   564.4    5.342      64.684
2015    8       26    10   3    5.9859   564.8    5.328      64.671
2015    8       26    10   9    5.9806   565.2    5.314      64.657
2015    8       26    10  16    5.9751   565.6    5.301      64.642
2015    8       26    10  22    5.9696   565.9    5.287      64.627
2015    8       26    10  28    5.9640   566.3    5.273      64.609
2015    8       26    10  34    5.9583   566.7    5.259      64.589
2015    8       26    10  41    5.9524   567.0    5.245      64.569
2015    8       26    10  47    5.9465   567.4    5.230      64.548
2015    8       26    10  53    5.9403   567.8    5.215      64.520
2015    8       26    10  59    5.9340   568.1    5.200      64.487
2015    8       26    11   6    5.9274   568.5    5.184      64.451
2015    8       26    11  12    5.9209   568.8    5.169      64.413
2015    8       26    11  18    5.9141   569.2    5.154      64.370
2015    8       26    11  24    5.9075   569.5    5.139      64.331
2015    8       26    11  30    5.9009   569.8    5.125      64.291
2015    8       26    11  37    5.8945   570.1    5.111      64.252
2015    8       26    11  43    5.8881   570.4    5.097      64.212
2015    8       26    11  49    5.8819   570.7    5.084      64.173
2015    8       26    11  55    5.8757   571.0    5.071      64.135
2015    8       26    12   2    5.8698   571.3    5.058      64.097
2015    8       26    12   8    5.8639   571.5    5.046      64.059
2015    8       26    12  14    5.8583   571.8    5.034      64.023
2015    8       26    12  20    5.8528   572.0    5.023      63.987
2015    8       26    12  27    5.8475   572.2    5.012      63.950
2015    8       26    12  33    5.8423   572.4    5.001      63.914
2015    8       26    12  39    5.8373   572.6    4.991      63.882
2015    8       26    12  45    5.8323   572.8    4.982      63.851
2015    8       26    12  51    5.8275   573.0    4.973      63.827
2015    8       26    12  58    5.8227   573.2    4.964      63.809
2015    8       26    13   4    5.8179   573.4    4.955      63.798
2015    8       26    13  10    5.8132   573.7    4.947      63.789
2015    8       26    13  16    5.8085   573.9    4.939      63.783
2015    8       26    13  23    5.8038   574.2    4.931      63.780
2015    8       26    13  29    5.7991   574.4    4.923      63.776
2015    8       26    13  35    5.7943   574.7    4.915      63.769
2015    8       26    13  41    5.7896   574.9    4.908      63.762
2015    8       26    13  48    5.7847   575.1    4.900      63.754
2015    8       26    13  54    5.7799   575.4    4.892      63.746
2015    8       26    14   0    5.7749   575.6    4.884      63.736
2015    8       26    14   6    5.7698   575.9    4.876      63.728
2015    8       26    14  13    5.7645   576.2    4.867      63.718
2015    8       26    14  19    5.7592   576.4    4.858      63.706
2015    8       26    14  25    5.7537   576.7    4.848      63.690
2015    8       26    14  31    5.7482   577.0    4.839      63.672
2015    8       26    14  38    5.7426   577.2    4.829      63.651
2015    8       26    14  44    5.7371   577.5    4.820      63.625
2015    8       26    14  50    5.7317   577.7    4.810      63.595
2015    8       26    14  56    5.7264   577.9    4.801      63.566
2015    8       26    15   3    5.7213   578.1    4.792      63.537
2015    8       26    15   9    5.7163   578.2    4.783      63.507
2015    8       26    15  15    5.7114   578.4    4.775      63.475
2015    8       26    15  21    5.7067   578.6    4.766      63.445
2015    8       26    15  27    5.7021   578.7    4.758      63.415
2015    8       26    15  34    5.6977   578.9    4.750      63.389
2015    8       26    15  40    5.6933   579.1    4.742      63.364
2015    8       26    15  46    5.6890   579.3    4.734      63.344
2015    8       26    15  52    5.6847   579.5    4.726      63.327
2015    8       26    15  59    5.6806   579.8    4.719      63.315
2015    8       26    16   5    5.6764   580.0    4.712      63.305
2015    8       26    16  11    5.6724   580.2    4.705      63.297
2015    8       26    16  17    5.6683   580.5    4.698      63.289
2015    8       26    16  24    5.6642   580.7    4.691      63.281
2015    8       26    16  30    5.6600   580.9    4.685      63.272
2015    8       26    16  36    5.6558   581.1    4.678      63.261
2015    8       26    16  42    5.6516   581.3    4.671      63.250
2015    8       26    16  48    5.6473   581.6    4.664      63.238
2015    8       26    16  55    5.6430   581.8    4.657      63.226
2015    8       26    17   1    5.6387   582.0    4.651      63.214
2015    8       26    17   7    5.6345   582.2    4.644      63.201
2015    8       26    17  13    5.6302   582.4    4.637      63.188
2015    8       26    17  20    5.6259   582.6    4.630      63.174
2015    8       26    17  26    5.6217   582.8    4.624      63.160
2015    8       26    17  32    5.6175   583.0    4.617      63.146
2015    8       26    17  38    5.6133   583.2    4.611      63.132
2015    8       26    17  45    5.6090   583.4    4.604      63.117
2015    8       26    17  51    5.6049   583.5    4.598      63.103
2015    8       26    17  57    5.6007   583.7    4.591      63.089
2015    8       26    18   3    5.5965   583.9    4.585      63.074
2015    8       26    18  10    5.5924   584.1    4.579      63.058
2015    8       26    18  16    5.5883   584.3    4.572      63.043
2015    8       26    18  22    5.5842   584.4    4.566      63.029
2015    8       26    18  28    5.5802   584.6    4.560      63.015
2015    8       26    18  34    5.5761   584.8    4.554      63.002
2015    8       26    18  41    5.5722   585.0    4.548      62.990
2015    8       26    18  47    5.5682   585.2    4.542      62.978
2015    8       26    18  53    5.5643   585.4    4.535      62.966
2015    8       26    18  59    5.5603   585.5    4.529      62.955
2015    8       26    19   6    5.5564   585.7    4.523      62.944
2015    8       26    19  12    5.5525   585.9    4.517      62.932
2015    8       26    19  18    5.5487   586.1    4.511      62.919
2015    8       26    19  24    5.5448   586.3    4.504      62.906
2015    8       26    19  31    5.5409   586.5    4.498      62.893
2015    8       26    19  37    5.5370   586.6    4.492      62.880
2015    8       26    19  43    5.5332   586.8    4.485      62.866
2015    8       26    19  49    5.5293   587.0    4.479      62.852
2015    8       26    19  56    5.5254   587.2    4.473      62.838
2015    8       26    20   2    5.5215   587.4    4.467      62.823
2015    8       26    20   8    5.5176   587.5    4.460      62.809
2015    8       26    20  14    5.5137   587.7    4.454      62.793
2015    8       26    20  20    5.5099   587.9    4.448      62.778
2015    8       26    20  27    5.5060   588.1    4.442      62.763
2015    8       26    20  33    5.5021   588.2    4.436      62.748
2015    8       26    20  39    5.4982   588.4    4.430      62.732
2015    8       26    20  45    5.4944   588.6    4.424      62.716
2015    8       26    20  52    5.4905   588.7    4.418      62.700
2015    8       26    20  58    5.4867   588.9    4.412      62.685
2015    8       26    21   4    5.4828   589.1    4.406      62.669
2015    8       26    21  10    5.4790   589.2    4.400      62.654
2015    8       26    21  17    5.4752   589.4    4.394      62.638
2015    8       26    21  23    5.4714   589.5    4.389      62.623
2015    8       26    21  29    5.4676   589.7    4.383      62.607
2015    8       26    21  35    5.4638   589.9    4.378      62.592
2015    8       26    21  42    5.4601   590.0    4.372      62.577
2015    8       26    21  48    5.4563   590.2    4.367      62.562
2015    8       26    21  54    5.4525   590.3    4.362      62.547
2015    8       26    22   0    5.4488   590.5    4.356      62.532
2015    8       26    22   7    5.4451   590.6    4.351      62.517
2015    8       26    22  13    5.4414   590.8    4.346      62.503
2015    8       26    22  19    5.4376   590.9    4.341      62.488
2015    8       26    22  25    5.4339   591.1    4.336      62.474
2015    8       26    22  31    5.4302   591.2    4.331      62.460
2015    8       26    22  38    5.4265   591.4    4.326      62.446
2015    8       26    22  44    5.4227   591.5    4.321      62.432
2015    8       26    22  50    5.4190   591.6    4.316      62.419
2015    8       26    22  56    5.4153   591.8    4.311      62.405
2015    8       26    23   3    5.4116   591.9    4.306      62.391
2015    8       26    23   9    5.4078   592.1    4.301      62.377
2015    8       26    23  15    5.4041   592.2    4.296      62.364
2015    8       26    23  21    5.4004   592.4    4.291      62.350
2015    8       26    23  28    5.3967   592.5    4.287      62.337
2015    8       26    23  34    5.3929   592.6    4.282      62.322
2015    8       26    23  40    5.3892   592.8    4.277      62.309
2015    8       26    23  46    5.3854   592.9    4.272      62.294
2015    8       26    23  52    5.3817   593.1    4.267      62.280
2015    8       26    23  59    5.3780   593.2    4.263      62.266
2015    8       27     0   5    5.3742   593.3    4.258      62.251
2015    8       27     0  11    5.3705   593.5    4.253      62.236
2015    8       27     0  17    5.3667   593.6    4.248      62.221
2015    8       27     0  24    5.3629   593.7    4.243      62.205
2015    8       27     0  30    5.3592   593.9    4.239      62.190
2015    8       27     0  36    5.3554   594.0    4.234      62.174
2015    8       27     0  42    5.3517   594.1    4.229      62.158
2015    8       27     0  49    5.3479   594.2    4.224      62.141
2015    8       27     0  55    5.3442   594.4    4.219      62.125
2015    8       27     1   1    5.3404   594.5    4.215      62.107
2015    8       27     1   7    5.3366   594.6    4.210      62.090
2015    8       27     1  14    5.3328   594.8    4.205      62.072
2015    8       27     1  20    5.3291   594.9    4.200      62.054
2015    8       27     1  26    5.3253   595.0    4.195      62.035
2015    8       27     1  32    5.3215   595.1    4.190      62.017
2015    8       27     1  38    5.3177   595.2    4.185      61.997
2015    8       27     1  45    5.3140   595.4    4.181      61.977
2015    8       27     1  51    5.3102   595.5    4.176      61.957
2015    8       27     1  57    5.3064   595.6    4.171      61.936
2015    8       27     2   3    5.3026   595.7    4.166      61.915
2015    8       27     2  10    5.2989   595.8    4.161      61.893
2015    8       27     2  16    5.2951   595.9    4.156      61.871
2015    8       27     2  22    5.2914   596.0    4.151      61.849
2015    8       27     2  28    5.2876   596.1    4.146      61.826
2015    8       27     2  35    5.2839   596.3    4.142      61.803
2015    8       27     2  41    5.2801   596.4    4.137      61.780
2015    8       27     2  47    5.2764   596.5    4.132      61.757
2015    8       27     2  53    5.2727   596.6    4.127      61.733
2015    8       27     3   0    5.2690   596.7    4.122      61.709
2015    8       27     3   6    5.2652   596.8    4.117      61.685
2015    8       27     3  12    5.2616   596.9    4.113      61.661
2015    8       27     3  18    5.2579   597.0    4.108      61.636
2015    8       27     3  24    5.2542   597.1    4.103      61.612
2015    8       27     3  31    5.2505   597.2    4.099      61.588
2015    8       27     3  37    5.2469   597.3    4.094      61.564
2015    8       27     3  43    5.2432   597.4    4.090      61.540
2015    8       27     3  49    5.2396   597.5    4.085      61.516
2015    8       27     3  56    5.2360   597.6    4.081      61.492
2015    8       27     4   2    5.2324   597.7    4.076      61.469
2015    8       27     4   8    5.2288   597.8    4.072      61.446
2015    8       27     4  14    5.2252   597.9    4.068      61.423
2015    8       27     4  21    5.2217   598.0    4.064      61.400
2015    8       27     4  27    5.2181   598.1    4.060      61.378
2015    8       27     4  33    5.2146   598.2    4.055      61.355
2015    8       27     4  39    5.2110   598.2    4.051      61.334
2015    8       27     4  46    5.2075   598.3    4.048      61.312
2015    8       27     4  52    5.2040   598.4    4.044      61.291
2015    8       27     4  58    5.2005   598.5    4.040      61.269
2015    8       27     5   4    5.1970   598.6    4.036      61.249
2015    8       27     5  11    5.1935   598.7    4.032      61.228
2015    8       27     5  17    5.1900   598.8    4.029      61.208
2015    8       27     5  23    5.1865   598.9    4.025      61.188
2015    8       27     5  29    5.1830   598.9    4.021      61.168
2015    8       27     5  35    5.1795   599.0    4.018      61.148
2015    8       27     5  42    5.1761   599.1    4.014      61.129
2015    8       27     5  48    5.1726   599.2    4.011      61.110
2015    8       27     5  54    5.1691   599.3    4.007      61.092
2015    8       27     6   0    5.1656   599.4    4.004      61.073
2015    8       27     6   7    5.1622   599.4    4.001      61.055
2015    8       27     6  13    5.1587   599.5    3.997      61.037
2015    8       27     6  19    5.1553   599.6    3.994      61.020
2015    8       27     6  25    5.1518   599.7    3.991      61.002
2015    8       27     6  32    5.1484   599.7    3.987      60.985
2015    8       27     6  38    5.1450   599.8    3.984      60.967
2015    8       27     6  44    5.1416   599.9    3.981      60.950
2015    8       27     6  50    5.1382   600.0    3.978      60.933
2015    8       27     6  56    5.1348   600.0    3.975      60.916
2015    8       27     7   3    5.1313   600.1    3.971      60.899
2015    8       27     7   9    5.1279   600.2    3.968      60.883
2015    8       27     7  15    5.1245   600.3    3.965      60.865
2015    8       27     7  21    5.1211   600.3    3.962      60.848
2015    8       27     7  28    5.1177   600.4    3.958      60.830
2015    8       27     7  34    5.1143   600.5    3.955      60.812
2015    8       27     7  40    5.1108   600.6    3.952      60.794
2015    8       27     7  46    5.1074   600.6    3.948      60.775
2015    8       27     7  53    5.1040   600.7    3.945      60.755
2015    8       27     7  59    5.1006   600.8    3.941      60.736
2015    8       27     8   5    5.0971   600.8    3.938      60.716
2015    8       27     8  11    5.0937   600.9    3.934      60.695
2015    8       27     8  18    5.0903   601.0    3.931      60.674
2015    8       27     8  24    5.0869   601.0    3.927      60.653
2015    8       27     8  30    5.0834   601.1    3.923      60.630
2015    8       27     8  36    5.0800   601.2    3.920      60.608
2015    8       27     8  42    5.0766   601.2    3.916      60.584
2015    8       27     8  49    5.0732   601.3    3.913      60.561
2015    8       27     8  55    5.0698   601.3    3.909      60.537
2015    8       27     9   1    5.0664   601.4    3.905      60.513
2015    8       27     9   7    5.0630   601.5    3.901      60.488
2015    8       27     9  14    5.0597   601.5    3.898      60.463
2015    8       27     9  20    5.0563   601.6    3.894      60.437
2015    8       27     9  26    5.0530   601.6    3.890      60.412
2015    8       27     9  32    5.0496   601.7    3.887      60.386
2015    8       27     9  39    5.0463   601.7    3.883      60.361
2015    8       27     9  45    5.0430   601.8    3.880      60.335
2015    8       27     9  51    5.0397   601.9    3.876      60.309
2015    8       27     9  57    5.0364   601.9    3.873      60.283
2015    8       27    10   3    5.0332   602.0    3.869      60.258
2015    8       27    10  10    5.0299   602.0    3.866      60.232
2015    8       27    10  16    5.0267   602.1    3.862      60.207
2015    8       27    10  22    5.0235   602.1    3.859      60.181
2015    8       27    10  28    5.0203   602.2    3.856      60.156
2015    8       27    10  35    5.0171   602.2    3.853      60.131
2015    8       27    10  41    5.0140   602.2    3.850      60.107
2015    8       27    10  47    5.0108   602.3    3.847      60.082
2015    8       27    10  53    5.0077   602.3    3.844      60.058
2015    8       27    11   0    5.0046   602.4    3.841      60.034
2015    8       27    11   6    5.0016   602.4    3.838      60.011
2015    8       27    11  12    4.9985   602.5    3.835      59.988
2015    8       27    11  18    4.9955   602.5    3.832      59.966
2015    8       27    11  25    4.9925   602.6    3.830      59.944
2015    8       27    11  31    4.9895   602.6    3.827      59.922
2015    8       27    11  37    4.9865   602.6    3.824      59.901
2015    8       27    11  43    4.9836   602.7    3.822      59.880
2015    8       27    11  50    4.9806   602.7    3.820      59.860
2015    8       27    11  56    4.9777   602.8    3.817      59.840
2015    8       27    12   2    4.9748   602.8    3.815      59.820
2015    8       27    12   8    4.9718   602.8    3.813      59.801
2015    8       27    12  14    4.9689   602.9    3.810      59.782
2015    8       27    12  21    4.9660   602.9    3.808      59.765
2015    8       27    12  27    4.9631   603.0    3.806      59.747
2015    8       27    12  33    4.9602   603.0    3.804      59.730
2015    8       27    12  39    4.9573   603.0    3.802      59.714
2015    8       27    12  46    4.9544   603.1    3.799      59.697
2015    8       27    12  52    4.9515   603.1    3.797      59.681
2015    8       27    12  58    4.9486   603.1    3.795      59.665
2015    8       27    13   4    4.9457   603.2    3.793      59.649
2015    8       27    13  11    4.9428   603.2    3.791      59.633
2015    8       27    13  17    4.9400   603.2    3.789      59.617
2015    8       27    13  23    4.9371   603.3    3.786      59.601
2015    8       27    13  29    4.9343   603.3    3.784      59.584
2015    8       27    13  35    4.9315   603.3    3.782      59.569
2015    8       27    13  42    4.9286   603.4    3.780      59.552
2015    8       27    13  48    4.9258   603.4    3.778      59.536
2015    8       27    13  54    4.9230   603.4    3.776      59.519
2015    8       27    14   0    4.9202   603.5    3.774      59.502
2015    8       27    14   7    4.9174   603.5    3.772      59.485
2015    8       27    14  13    4.9146   603.5    3.770      59.469
2015    8       27    14  19    4.9118   603.5    3.767      59.451
2015    8       27    14  25    4.9091   603.6    3.765      59.435
2015    8       27    14  32    4.9063   603.6    3.763      59.417
2015    8       27    14  38    4.9035   603.6    3.761      59.401
2015    8       27    14  44    4.9007   603.7    3.758      59.383
2015    8       27    14  50    4.8979   603.7    3.756      59.366
2015    8       27    14  57    4.8952   603.7    3.753      59.348
2015    8       27    15   3    4.8924   603.7    3.751      59.329
2015    8       27    15   9    4.8896   603.8    3.749      59.310
2015    8       27    15  15    4.8869   603.8    3.746      59.291
2015    8       27    15  21    4.8841   603.8    3.743      59.270
2015    8       27    15  28    4.8814   603.8    3.741      59.250
2015    8       27    15  34    4.8786   603.9    3.738      59.229
2015    8       27    15  40    4.8759   603.9    3.735      59.207
2015    8       27    15  46    4.8731   603.9    3.733      59.185
2015    8       27    15  53    4.8704   603.9    3.730      59.163
2015    8       27    15  59    4.8677   603.9    3.727      59.140
2015    8       27    16   5    4.8651   604.0    3.725      59.117
2015    8       27    16  11    4.8624   604.0    3.722      59.093
2015    8       27    16  18    4.8597   604.0    3.719      59.070
2015    8       27    16  24    4.8570   604.0    3.717      59.046
2015    8       27    16  30    4.8544   604.0    3.714      59.022
2015    8       27    16  36    4.8518   604.0    3.711      58.998
2015    8       27    16  42    4.8492   604.1    3.709      58.974
2015    8       27    16  49    4.8465   604.1    3.706      58.950
2015    8       27    16  55    4.8440   604.1    3.704      58.926
2015    8       27    17   1    4.8414   604.1    3.701      58.901
2015    8       27    17   7    4.8389   604.1    3.699      58.878
2015    8       27    17  14    4.8363   604.1    3.696      58.854
2015    8       27    17  20    4.8338   604.1    3.694      58.831
2015    8       27    17  26    4.8313   604.1    3.692      58.808
2015    8       27    17  32    4.8288   604.2    3.689      58.785
2015    8       27    17  39    4.8263   604.2    3.687      58.763
2015    8       27    17  45    4.8239   604.2    3.685      58.741
2015    8       27    17  51    4.8214   604.2    3.683      58.719
2015    8       27    17  57    4.8190   604.2    3.681      58.698
2015    8       27    18   4    4.8166   604.2    3.679      58.678
2015    8       27    18  10    4.8143   604.2    3.678      58.658
2015    8       27    18  16    4.8119   604.2    3.676      58.638
2015    8       27    18  22    4.8096   604.2    3.674      58.620
2015    8       27    18  29    4.8073   604.2    3.673      58.601
2015    8       27    18  35    4.8050   604.2    3.671      58.584
2015    8       27    18  41    4.8027   604.2    3.670      58.567
2015    8       27    18  47    4.8005   604.3    3.668      58.550
2015    8       27    18  53    4.7982   604.3    3.667      58.534
2015    8       27    19   0    4.7960   604.3    3.666      58.519
2015    8       27    19   6    4.7937   604.3    3.664      58.503
2015    8       27    19  12    4.7915   604.3    3.663      58.489
2015    8       27    19  18    4.7892   604.3    3.662      58.474
2015    8       27    19  25    4.7870   604.3    3.661      58.460
2015    8       27    19  31    4.7847   604.3    3.660      58.447
2015    8       27    19  37    4.7824   604.3    3.659      58.434
2015    8       27    19  43    4.7802   604.4    3.658      58.421
2015    8       27    19  50    4.7779   604.4    3.656      58.409
2015    8       27    19  56    4.7757   604.4    3.655      58.397
2015    8       27    20   2    4.7734   604.4    3.654      58.386
2015    8       27    20   8    4.7712   604.4    3.653      58.375
2015    8       27    20  15    4.7689   604.4    3.652      58.365
2015    8       27    20  21    4.7667   604.4    3.651      58.354
2015    8       27    20  27    4.7645   604.4    3.649      58.343
2015    8       27    20  33    4.7622   604.4    3.648      58.332
2015    8       27    20  39    4.7600   604.4    3.647      58.321
2015    8       27    20  46    4.7578   604.4    3.646      58.310
2015    8       27    20  52    4.7556   604.4    3.644      58.299
2015    8       27    20  58    4.7534   604.4    3.643      58.287
2015    8       27    21   4    4.7512   604.4    3.642      58.275
2015    8       27    21  11    4.7491   604.5    3.640      58.262
2015    8       27    21  17    4.7469   604.5    3.639      58.250
2015    8       27    21  23    4.7448   604.5    3.638      58.237
2015    8       27    21  29    4.7426   604.5    3.636      58.225
2015    8       27    21  36    4.7405   604.5    3.635      58.213
2015    8       27    21  42    4.7384   604.5    3.634      58.200
2015    8       27    21  48    4.7363   604.5    3.632      58.188
2015    8       27    21  54    4.7341   604.5    3.631      58.176
2015    8       27    22   1    4.7320   604.5    3.629      58.163
2015    8       27    22   7    4.7300   604.5    3.628      58.150
2015    8       27    22  13    4.7279   604.5    3.626      58.136
2015    8       27    22  19    4.7258   604.5    3.624      58.123
2015    8       27    22  25    4.7237   604.5    3.623      58.108
2015    8       27    22  32    4.7216   604.5    3.621      58.093
2015    8       27    22  38    4.7195   604.5    3.619      58.077
2015    8       27    22  44    4.7174   604.5    3.617      58.060
2015    8       27    22  50    4.7153   604.5    3.615      58.043
2015    8       27    22  57    4.7133   604.5    3.613      58.025
2015    8       27    23   3    4.7112   604.5    3.611      58.006
2015    8       27    23   9    4.7091   604.5    3.609      57.987
2015    8       27    23  15    4.7071   604.5    3.607      57.968
2015    8       27    23  22    4.7050   604.5    3.605      57.948
2015    8       27    23  28    4.7030   604.5    3.603      57.927
2015    8       27    23  34    4.7009   604.5    3.601      57.906
2015    8       27    23  40    4.6989   604.5    3.599      57.884
2015    8       27    23  46    4.6968   604.5    3.596      57.862
2015    8       27    23  53    4.6948   604.5    3.594      57.840
2015    8       27    23  59    4.6928   604.4    3.592      57.818
2015    8       28     0   5    4.6907   604.4    3.590      57.795
2015    8       28     0  11    4.6887   604.4    3.588      57.772
2015    8       28     0  18    4.6867   604.4    3.586      57.749
2015    8       28     0  24    4.6847   604.4    3.584      57.726
2015    8       28     0  30    4.6827   604.4    3.582      57.702
2015    8       28     0  36    4.6807   604.4    3.580      57.679
2015    8       28     0  43    4.6788   604.4    3.578      57.656
2015    8       28     0  49    4.6768   604.4    3.576      57.633
2015    8       28     0  55    4.6748   604.4    3.574      57.610
2015    8       28     1   1    4.6729   604.3    3.572      57.588
2015    8       28     1   8    4.6710   604.3    3.570      57.566
2015    8       28     1  14    4.6690   604.3    3.569      57.544
2015    8       28     1  20    4.6671   604.3    3.567      57.523
2015    8       28     1  26    4.6652   604.3    3.565      57.503
2015    8       28     1  32    4.6633   604.3    3.564      57.482
2015    8       28     1  39    4.6615   604.3    3.563      57.463
2015    8       28     1  45    4.6596   604.2    3.561      57.444
2015    8       28     1  51    4.6578   604.2    3.560      57.426
2015    8       28     1  57    4.6560   604.2    3.559      57.409
2015    8       28     2   4    4.6542   604.2    3.558      57.392
2015    8       28     2  10    4.6523   604.2    3.557      57.376
2015    8       28     2  16    4.6506   604.2    3.556      57.361
2015    8       28     2  22    4.6488   604.2    3.555      57.346
2015    8       28     2  29    4.6470   604.2    3.554      57.332
2015    8       28     2  35    4.6452   604.1    3.553      57.319
2015    8       28     2  41    4.6434   604.1    3.553      57.306
2015    8       28     2  47    4.6417   604.1    3.552      57.294
2015    8       28     2  54    4.6399   604.1    3.552      57.283
2015    8       28     3   0    4.6381   604.1    3.551      57.273
2015    8       28     3   6    4.6364   604.1    3.551      57.263
2015    8       28     3  12    4.6346   604.1    3.551      57.255
2015    8       28     3  18    4.6329   604.1    3.550      57.247
2015    8       28     3  25    4.6312   604.1    3.550      57.240
2015    8       28     3  31    4.6295   604.1    3.550      57.234
2015    8       28     3  37    4.6278   604.0    3.550      57.229
2015    8       28     3  43    4.6261   604.0    3.549      57.224
2015    8       28     3  50    4.6244   604.0    3.549      57.221
2015    8       28     3  56    4.6228   604.0    3.549      57.219
2015    8       28     4   2    4.6211   604.0    3.549      57.219
2015    8       28     4   8    4.6194   604.0    3.549      57.219
2015    8       28     4  15    4.6178   604.0    3.548      57.219
2015    8       28     4  21    4.6161   604.0    3.548      57.219
2015    8       28     4  27    4.6145   604.0    3.548      57.218
2015    8       28     4  33    4.6128   604.0    3.547      57.218
2015    8       28     4  40    4.6112   604.0    3.547      57.217
2015    8       28     4  46    4.6096   604.0    3.547      57.215
2015    8       28     4  52    4.6080   604.0    3.546      57.213
2015    8       28     4  58    4.6064   604.0    3.546      57.210
2015    8       28     5   4    4.6048   604.0    3.545      57.207
2015    8       28     5  11    4.6032   604.0    3.544      57.203
2015    8       28     5  17    4.6015   604.0    3.544      57.199
2015    8       28     5  23    4.5999   604.0    3.543      57.194
2015    8       28     5  29    4.5983   603.9    3.542      57.188
2015    8       28     5  36    4.5967   603.9    3.541      57.181
2015    8       28     5  42    4.5951   603.9    3.540      57.173
2015    8       28     5  48    4.5934   603.9    3.539      57.165
2015    8       28     5  54    4.5918   603.9    3.538      57.155
2015    8       28     6   1    4.5901   603.9    3.537      57.145
2015    8       28     6   7    4.5885   603.9    3.535      57.134
2015    8       28     6  13    4.5868   603.9    3.534      57.122
2015    8       28     6  19    4.5852   603.9    3.533      57.109
2015    8       28     6  25    4.5835   603.9    3.531      57.096
2015    8       28     6  32    4.5818   603.9    3.530      57.082
2015    8       28     6  38    4.5801   603.9    3.528      57.067
2015    8       28     6  44    4.5785   603.9    3.526      57.051
2015    8       28     6  50    4.5768   603.9    3.525      57.035
2015    8       28     6  57    4.5751   603.9    3.523      57.017
2015    8       28     7   3    4.5733   603.9    3.521      57.000
2015    8       28     7   9    4.5716   603.9    3.519      56.981
2015    8       28     7  15    4.5699   603.8    3.517      56.961
2015    8       28     7  22    4.5682   603.8    3.515      56.941
2015    8       28     7  28    4.5665   603.8    3.513      56.920
2015    8       28     7  34    4.5647   603.8    3.511      56.899
2015    8       28     7  40    4.5630   603.8    3.509      56.877
2015    8       28     7  47    4.5613   603.8    3.507      56.855
2015    8       28     7  53    4.5595   603.8    3.505      56.832
2015    8       28     7  59    4.5578   603.8    3.503      56.808
2015    8       28     8   5    4.5561   603.7    3.501      56.785
2015    8       28     8  11    4.5543   603.7    3.499      56.760
2015    8       28     8  18    4.5526   603.7    3.497      56.736
2015    8       28     8  24    4.5508   603.7    3.495      56.712
2015    8       28     8  30    4.5491   603.7    3.493      56.687
2015    8       28     8  36    4.5474   603.6    3.491      56.663
2015    8       28     8  43    4.5457   603.6    3.489      56.639
2015    8       28     8  49    4.5440   603.6    3.487      56.615
2015    8       28     8  55    4.5423   603.6    3.485      56.592
2015    8       28     9   1    4.5406   603.5    3.484      56.568
2015    8       28     9   8    4.5390   603.5    3.482      56.546
2015    8       28     9  14    4.5373   603.5    3.480      56.524
2015    8       28     9  20    4.5357   603.5    3.479      56.503
2015    8       28     9  26    4.5341   603.4    3.478      56.482
2015    8       28     9  33    4.5325   603.4    3.477      56.463
2015    8       28     9  39    4.5309   603.4    3.475      56.444
2015    8       28     9  45    4.5293   603.4    3.475      56.427
2015    8       28     9  51    4.5278   603.3    3.474      56.410
2015    8       28     9  57    4.5262   603.3    3.473      56.394
2015    8       28    10   4    4.5247   603.3    3.472      56.379
2015    8       28    10  10    4.5232   603.3    3.472      56.365
2015    8       28    10  16    4.5217   603.2    3.471      56.352
2015    8       28    10  22    4.5203   603.2    3.471      56.341
2015    8       28    10  29    4.5188   603.2    3.471      56.330
2015    8       28    10  35    4.5174   603.1    3.471      56.321
2015    8       28    10  41    4.5160   603.1    3.471      56.312
2015    8       28    10  47    4.5146   603.1    3.471      56.305
2015    8       28    10  54    4.5133   603.1    3.471      56.300
2015    8       28    11   0    4.5119   603.0    3.472      56.298
2015    8       28    11   6    4.5106   603.0    3.472      56.297
2015    8       28    11  12    4.5092   603.0    3.473      56.297
2015    8       28    11  19    4.5079   603.0    3.473      56.299
2015    8       28    11  25    4.5066   603.0    3.474      56.302
2015    8       28    11  31    4.5053   602.9    3.474      56.306
2015    8       28    11  37    4.5040   602.9    3.475      56.313
2015    8       28    11  44    4.5027   602.9    3.476      56.319
2015    8       28    11  50    4.5014   602.9    3.476      56.327
2015    8       28    11  56    4.5001   602.9    3.477      56.335
2015    8       28    12   2    4.4989   602.9    3.477      56.342
2015    8       28    12   8    4.4975   602.9    3.477      56.348
2015    8       28    12  15    4.4962   602.8    3.477      56.354
2015    8       28    12  21    4.4949   602.8    3.477      56.358
2015    8       28    12  27    4.4935   602.8    3.477      56.362
2015    8       28    12  33    4.4922   602.8    3.477      56.364
2015    8       28    12  40    4.4908   602.8    3.477      56.365
2015    8       28    12  46    4.4894   602.8    3.477      56.365
2015    8       28    12  52    4.4880   602.8    3.476      56.364
2015    8       28    12  58    4.4866   602.8    3.476      56.361
2015    8       28    13   4    4.4851   602.8    3.475      56.358
2015    8       28    13  11    4.4837   602.8    3.474      56.353
2015    8       28    13  17    4.4823   602.8    3.473      56.348
2015    8       28    13  23    4.4808   602.8    3.473      56.341
2015    8       28    13  29    4.4793   602.8    3.472      56.334
2015    8       28    13  36    4.4778   602.7    3.471      56.325
2015    8       28    13  42    4.4764   602.7    3.469      56.316
2015    8       28    13  48    4.4748   602.7    3.468      56.306
2015    8       28    13  54    4.4733   602.7    3.467      56.296
2015    8       28    14   1    4.4718   602.7    3.466      56.285
2015    8       28    14   7    4.4703   602.7    3.464      56.273
2015    8       28    14  13    4.4687   602.7    3.463      56.260
2015    8       28    14  19    4.4672   602.7    3.461      56.246
2015    8       28    14  26    4.4656   602.7    3.460      56.232
2015    8       28    14  32    4.4640   602.6    3.458      56.217
2015    8       28    14  38    4.4624   602.6    3.457      56.201
2015    8       28    14  44    4.4609   602.6    3.455      56.185
2015    8       28    14  51    4.4592   602.6    3.453      56.169
2015    8       28    14  57    4.4576   602.6    3.452      56.152
2015    8       28    15   3    4.4560   602.6    3.450      56.134
2015    8       28    15   9    4.4544   602.6    3.448      56.116
2015    8       28    15  15    4.4527   602.5    3.446      56.097
2015    8       28    15  22    4.4511   602.5    3.444      56.078
2015    8       28    15  28    4.4494   602.5    3.442      56.058
2015    8       28    15  34    4.4477   602.5    3.440      56.038
2015    8       28    15  40    4.4460   602.5    3.438      56.017
2015    8       28    15  47    4.4444   602.5    3.436      55.995
2015    8       28    15  53    4.4427   602.4    3.434      55.973
2015    8       28    15  59    4.4410   602.4    3.432      55.951
2015    8       28    16   5    4.4393   602.4    3.430      55.929
2015    8       28    16  12    4.4377   602.3    3.429      55.906
2015    8       28    16  18    4.4360   602.3    3.427      55.883
2015    8       28    16  24    4.4344   602.3    3.425      55.861
2015    8       28    16  30    4.4327   602.3    3.423      55.839
2015    8       28    16  36    4.4311   602.2    3.422      55.818
2015    8       28    16  43    4.4295   602.2    3.420      55.796
2015    8       28    16  49    4.4280   602.2    3.419      55.776
2015    8       28    16  55    4.4264   602.1    3.418      55.756
2015    8       28    17   1    4.4249   602.1    3.417      55.738
2015    8       28    17   8    4.4234   602.1    3.416      55.720
2015    8       28    17  14    4.4220   602.0    3.415      55.703
2015    8       28    17  20    4.4206   602.0    3.414      55.687
2015    8       28    17  26    4.4192   602.0    3.413      55.673
2015    8       28    17  33    4.4178   601.9    3.413      55.659
2015    8       28    17  39    4.4165   601.9    3.413      55.647
2015    8       28    17  45    4.4152   601.9    3.412      55.635
2015    8       28    17  51    4.4139   601.9    3.412      55.625
2015    8       28    17  58    4.4126   601.8    3.412      55.615
2015    8       28    18   4    4.4113   601.8    3.412      55.606
2015    8       28    18  10    4.4100   601.8    3.413      55.598
2015    8       28    18  16    4.4087   601.7    3.413      55.591
2015    8       28    18  23    4.4074   601.7    3.413      55.585
2015    8       28    18  29    4.4061   601.7    3.414      55.579
2015    8       28    18  35    4.4048   601.6    3.414      55.575
2015    8       28    18  41    4.4036   601.6    3.415      55.572
2015    8       28    18  47    4.4023   601.6    3.415      55.571
2015    8       28    18  54    4.4010   601.5    3.416      55.571
2015    8       28    19   0    4.3998   601.5    3.416      55.572
2015    8       28    19   6    4.3985   601.5    3.417      55.573
2015    8       28    19  12    4.3972   601.4    3.417      55.574
2015    8       28    19  19    4.3959   601.4    3.417      55.575
2015    8       28    19  25    4.3946   601.4    3.418      55.575
2015    8       28    19  31    4.3934   601.4    3.418      55.574
2015    8       28    19  37    4.3921   601.3    3.418      55.573
2015    8       28    19  43    4.3908   601.3    3.418      55.572
2015    8       28    19  50    4.3895   601.3    3.418      55.571
2015    8       28    19  56    4.3883   601.2    3.419      55.570
2015    8       28    20   2    4.3870   601.2    3.418      55.569
2015    8       28    20   8    4.3857   601.2    3.418      55.569
2015    8       28    20  15    4.3845   601.2    3.418      55.568
2015    8       28    20  21    4.3832   601.2    3.418      55.567
2015    8       28    20  27    4.3819   601.1    3.417      55.565
2015    8       28    20  33    4.3806   601.1    3.417      55.563
2015    8       28    20  40    4.3793   601.1    3.416      55.559
2015    8       28    20  46    4.3780   601.1    3.416      55.555
2015    8       28    20  52    4.3766   601.1    3.415      55.550
2015    8       28    20  58    4.3753   601.0    3.414      55.545
2015    8       28    21   5    4.3739   601.0    3.413      55.538
2015    8       28    21  11    4.3725   601.0    3.413      55.531
2015    8       28    21  17    4.3711   601.0    3.412      55.523
2015    8       28    21  23    4.3697   601.0    3.411      55.515
2015    8       28    21  30    4.3683   600.9    3.410      55.506
2015    8       28    21  36    4.3669   600.9    3.408      55.496
2015    8       28    21  42    4.3655   600.9    3.407      55.486
2015    8       28    21  48    4.3641   600.9    3.406      55.476
2015    8       28    21  54    4.3626   600.9    3.405      55.464
2015    8       28    22   1    4.3612   600.8    3.404      55.453
2015    8       28    22   7    4.3597   600.8    3.403      55.442
2015    8       28    22  13    4.3582   600.8    3.401      55.431
2015    8       28    22  19    4.3566   600.8    3.400      55.420
2015    8       28    22  26    4.3551   600.7    3.399      55.409
2015    8       28    22  32    4.3535   600.7    3.397      55.397
2015    8       28    22  38    4.3520   600.7    3.396      55.384
2015    8       28    22  44    4.3504   600.7    3.394      55.371
2015    8       28    22  51    4.3488   600.6    3.393      55.357
2015    8       28    22  57    4.3472   600.6    3.391      55.342
2015    8       28    23   3    4.3456   600.6    3.389      55.326
2015    8       28    23   9    4.3440   600.6    3.388      55.309
2015    8       28    23  15    4.3424   600.5    3.386      55.291
2015    8       28    23  22    4.3408   600.5    3.384      55.273
2015    8       28    23  28    4.3392   600.4    3.382      55.254
2015    8       28    23  34    4.3375   600.4    3.381      55.235
2015    8       28    23  40    4.3359   600.4    3.379      55.216
2015    8       28    23  47    4.3343   600.3    3.378      55.196
2015    8       28    23  53    4.3327   600.3    3.376      55.176
2015    8       28    23  59    4.3312   600.3    3.375      55.157
2015    8       29     0   5    4.3297   600.2    3.373      55.138
2015    8       29     0  12    4.3282   600.2    3.372      55.120
2015    8       29     0  18    4.3267   600.1    3.371      55.103
2015    8       29     0  24    4.3253   600.1    3.370      55.086
2015    8       29     0  30    4.3239   600.1    3.369      55.071
2015    8       29     0  37    4.3225   600.0    3.369      55.056
2015    8       29     0  43    4.3212   600.0    3.368      55.043
2015    8       29     0  49    4.3199   600.0    3.368      55.030
2015    8       29     0  55    4.3186   599.9    3.368      55.019
2015    8       29     1   2    4.3174   599.9    3.367      55.009
2015    8       29     1   8    4.3161   599.9    3.367      54.999
2015    8       29     1  14    4.3148   599.8    3.367      54.990
2015    8       29     1  20    4.3135   599.8    3.367      54.982
2015    8       29     1  26    4.3122   599.8    3.368      54.974
2015    8       29     1  33    4.3109   599.8    3.368      54.966
2015    8       29     1  39    4.3095   599.7    3.368      54.958
2015    8       29     1  45    4.3081   599.7    3.368      54.951
2015    8       29     1  51    4.3067   599.7    3.368      54.943
2015    8       29     1  58    4.3053   599.6    3.368      54.936
2015    8       29     2   4    4.3038   599.6    3.368      54.928
2015    8       29     2  10    4.3024   599.6    3.368      54.920
2015    8       29     2  16    4.3009   599.5    3.368      54.912
2015    8       29     2  23    4.2995   599.5    3.368      54.903
2015    8       29     2  29    4.2980   599.4    3.367      54.894
2015    8       29     2  35    4.2965   599.4    3.367      54.885
2015    8       29     2  41    4.2951   599.4    3.367      54.875
2015    8       29     2  47    4.2937   599.3    3.367      54.865
2015    8       29     2  54    4.2923   599.3    3.367      54.855
2015    8       29     3   0    4.2909   599.2    3.367      54.846
2015    8       29     3   6    4.2896   599.2    3.366      54.837
2015    8       29     3  12    4.2883   599.1    3.366      54.828
2015    8       29     3  19    4.2870   599.1    3.366      54.821
2015    8       29     3  25    4.2858   599.0    3.366      54.815
2015    8       29     3  31    4.2846   599.0    3.366      54.810
2015    8       29     3  37    4.2834   599.0    3.366      54.806
2015    8       29     3  44    4.2822   598.9    3.366      54.801
2015    8       29     3  50    4.2810   598.9    3.366      54.797
2015    8       29     3  56    4.2799   598.9    3.365      54.793
2015    8       29     4   2    4.2787   598.8    3.365      54.789
2015    8       29     4   9    4.2775   598.8    3.365      54.786
2015    8       29     4  15    4.2763   598.8    3.364      54.782
2015    8       29     4  21    4.2751   598.8    3.364      54.779
2015    8       29     4  27    4.2739   598.7    3.364      54.775
2015    8       29     4  33    4.2727   598.7    3.363      54.771
2015    8       29     4  40    4.2715   598.7    3.363      54.767
2015    8       29     4  46    4.2702   598.6    3.362      54.762
2015    8       29     4  52    4.2690   598.6    3.362      54.757
2015    8       29     4  58    4.2677   598.6    3.361      54.752
2015    8       29     5   5    4.2664   598.6    3.361      54.748
2015    8       29     5  11    4.2651   598.5    3.360      54.743
2015    8       29     5  17    4.2637   598.5    3.360      54.739
2015    8       29     5  23    4.2624   598.5    3.359      54.734
2015    8       29     5  30    4.2610   598.4    3.358      54.729
2015    8       29     5  36    4.2596   598.4    3.357      54.723
2015    8       29     5  42    4.2582   598.4    3.356      54.716
2015    8       29     5  48    4.2568   598.4    3.355      54.709
2015    8       29     5  54    4.2554   598.3    3.354      54.700
2015    8       29     6   1    4.2539   598.3    3.353      54.691
2015    8       29     6   7    4.2525   598.3    3.352      54.681
2015    8       29     6  13    4.2510   598.2    3.350      54.670
2015    8       29     6  19    4.2496   598.2    3.349      54.658
2015    8       29     6  26    4.2481   598.2    3.348      54.644
2015    8       29     6  32    4.2466   598.1    3.346      54.631
2015    8       29     6  38    4.2451   598.1    3.345      54.615
2015    8       29     6  44    4.2436   598.1    3.344      54.600
2015    8       29     6  51    4.2421   598.0    3.342      54.583
2015    8       29     6  57    4.2407   598.0    3.341      54.566
2015    8       29     7   3    4.2392   598.0    3.339      54.549
2015    8       29     7   9    4.2377   597.9    3.338      54.531
2015    8       29     7  16    4.2362   597.9    3.337      54.512
2015    8       29     7  22    4.2348   597.8    3.335      54.493
2015    8       29     7  28    4.2333   597.8    3.334      54.474
2015    8       29     7  34    4.2319   597.8    3.333      54.456
2015    8       29     7  41    4.2305   597.7    3.332      54.437
2015    8       29     7  47    4.2290   597.7    3.330      54.419
2015    8       29     7  53    4.2276   597.6    3.329      54.400
2015    8       29     7  59    4.2263   597.6    3.328      54.382
2015    8       29     8   5    4.2249   597.6    3.328      54.365
2015    8       29     8  12    4.2236   597.5    3.327      54.348
2015    8       29     8  18    4.2222   597.5    3.326      54.331
2015    8       29     8  24    4.2209   597.4    3.325      54.315
2015    8       29     8  30    4.2196   597.4    3.325      54.300
2015    8       29     8  37    4.2183   597.4    3.324      54.285
2015    8       29     8  43    4.2170   597.3    3.324      54.270
2015    8       29     8  49    4.2156   597.3    3.323      54.256
2015    8       29     8  55    4.2143   597.3    3.323      54.242
2015    8       29     9   2    4.2129   597.2    3.323      54.228
2015    8       29     9   8    4.2116   597.2    3.322      54.216
2015    8       29     9  14    4.2103   597.1    3.322      54.204
2015    8       29     9  20    4.2089   597.1    3.321      54.192
2015    8       29     9  26    4.2076   597.1    3.321      54.181
2015    8       29     9  33    4.2062   597.0    3.321      54.171
2015    8       29     9  39    4.2049   597.0    3.321      54.161
2015    8       29     9  45    4.2036   596.9    3.320      54.151
2015    8       29     9  51    4.2024   596.9    3.320      54.141
2015    8       29     9  58    4.2011   596.8    3.320      54.132
2015    8       29    10   4    4.1999   596.8    3.320      54.123
2015    8       29    10  10    4.1987   596.8    3.319      54.114
2015    8       29    10  16    4.1975   596.7    3.319      54.106
2015    8       29    10  23    4.1963   596.7    3.319      54.098
2015    8       29    10  29    4.1952   596.6    3.319      54.090
2015    8       29    10  35    4.1941   596.6    3.319      54.082
2015    8       29    10  41    4.1930   596.6    3.319      54.075
2015    8       29    10  48    4.1919   596.5    3.319      54.069
2015    8       29    10  54    4.1908   596.5    3.319      54.063
2015    8       29    11   0    4.1898   596.4    3.319      54.057
2015    8       29    11   6    4.1887   596.4    3.319      54.053
2015    8       29    11  12    4.1877   596.4    3.319      54.049
2015    8       29    11  19    4.1866   596.3    3.319      54.045
2015    8       29    11  25    4.1856   596.3    3.319      54.042
2015    8       29    11  31    4.1845   596.3    3.319      54.039
2015    8       29    11  37    4.1834   596.2    3.319      54.036
2015    8       29    11  44    4.1823   596.2    3.319      54.033
2015    8       29    11  50    4.1812   596.2    3.319      54.030
2015    8       29    11  56    4.1801   596.2    3.319      54.027
2015    8       29    12   2    4.1790   596.1    3.318      54.024
2015    8       29    12   9    4.1779   596.1    3.318      54.022
2015    8       29    12  15    4.1767   596.1    3.318      54.019
2015    8       29    12  21    4.1756   596.1    3.318      54.017
2015    8       29    12  27    4.1744   596.0    3.317      54.014
2015    8       29    12  33    4.1732   596.0    3.317      54.012
2015    8       29    12  40    4.1720   596.0    3.316      54.008
2015    8       29    12  46    4.1708   596.0    3.315      54.004
2015    8       29    12  52    4.1695   595.9    3.315      53.999
2015    8       29    12  58    4.1683   595.9    3.314      53.993
2015    8       29    13   5    4.1670   595.9    3.313      53.987
2015    8       29    13  11    4.1658   595.9    3.312      53.980
2015    8       29    13  17    4.1646   595.9    3.312      53.972
2015    8       29    13  23    4.1633   595.8    3.311      53.964
2015    8       29    13  30    4.1620   595.8    3.310      53.955
2015    8       29    13  36    4.1608   595.8    3.309      53.946
2015    8       29    13  42    4.1595   595.8    3.308      53.935
2015    8       29    13  48    4.1582   595.7    3.307      53.924
2015    8       29    13  55    4.1569   595.7    3.306      53.912
2015    8       29    14   1    4.1557   595.7    3.304      53.900
2015    8       29    14   7    4.1544   595.7    3.303      53.887
2015    8       29    14  13    4.1531   595.6    3.302      53.874
2015    8       29    14  19    4.1518   595.6    3.301      53.860
2015    8       29    14  26    4.1505   595.6    3.300      53.846
2015    8       29    14  32    4.1493   595.6    3.299      53.830
2015    8       29    14  38    4.1480   595.5    3.297      53.815
2015    8       29    14  44    4.1467   595.5    3.296      53.799
2015    8       29    14  51    4.1454   595.5    3.295      53.783
2015    8       29    14  57    4.1441   595.5    3.294      53.766
2015    8       29    15   3    4.1429   595.4    3.292      53.749
2015    8       29    15   9    4.1416   595.4    3.291      53.731
2015    8       29    15  16    4.1404   595.4    3.290      53.714
2015    8       29    15  22    4.1391   595.3    3.289      53.697
2015    8       29    15  28    4.1379   595.3    3.288      53.680
2015    8       29    15  34    4.1366   595.2    3.287      53.662
2015    8       29    15  41    4.1354   595.2    3.286      53.645
2015    8       29    15  47    4.1342   595.2    3.285      53.629
2015    8       29    15  53    4.1330   595.1    3.284      53.612
2015    8       29    15  59    4.1318   595.1    3.283      53.596
2015    8       29    16   5    4.1306   595.1    3.282      53.581
2015    8       29    16  12    4.1295   595.0    3.282      53.567
2015    8       29    16  18    4.1284   595.0    3.281      53.553
2015    8       29    16  24    4.1273   594.9    3.281      53.540
2015    8       29    16  30    4.1262   594.9    3.280      53.528
2015    8       29    16  37    4.1251   594.9    3.280      53.516
2015    8       29    16  43    4.1241   594.8    3.280      53.506
2015    8       29    16  49    4.1231   594.8    3.279      53.495
2015    8       29    16  55    4.1221   594.8    3.279      53.486
2015    8       29    17   2    4.1211   594.7    3.279      53.478
2015    8       29    17   8    4.1201   594.7    3.279      53.470
2015    8       29    17  14    4.1192   594.7    3.279      53.463
2015    8       29    17  20    4.1182   594.6    3.279      53.456
2015    8       29    17  27    4.1173   594.6    3.279      53.450
2015    8       29    17  33    4.1164   594.6    3.279      53.444
2015    8       29    17  39    4.1155   594.6    3.279      53.439
2015    8       29    17  45    4.1146   594.5    3.280      53.434
2015    8       29    17  51    4.1136   594.5    3.280      53.430
2015    8       29    17  58    4.1127   594.5    3.280      53.427
2015    8       29    18   4    4.1117   594.5    3.280      53.424
2015    8       29    18  10    4.1107   594.4    3.280      53.422
2015    8       29    18  16    4.1097   594.4    3.280      53.420
2015    8       29    18  23    4.1087   594.4    3.280      53.418
2015    8       29    18  29    4.1077   594.4    3.280      53.416
2015    8       29    18  35    4.1067   594.4    3.279      53.413
2015    8       29    18  41    4.1057   594.3    3.279      53.410
2015    8       29    18  48    4.1047   594.3    3.279      53.407
2015    8       29    18  54    4.1036   594.3    3.279      53.403
2015    8       29    19   0    4.1026   594.3    3.278      53.399
2015    8       29    19   6    4.1015   594.3    3.278      53.394
2015    8       29    19  12    4.1005   594.2    3.277      53.389
2015    8       29    19  19    4.0994   594.2    3.277      53.384
2015    8       29    19  25    4.0984   594.2    3.276      53.379
2015    8       29    19  31    4.0973   594.2    3.276      53.373
2015    8       29    19  37    4.0963   594.2    3.275      53.367
2015    8       29    19  44    4.0952   594.1    3.274      53.360
2015    8       29    19  50    4.0941   594.1    3.274      53.353
2015    8       29    19  56    4.0931   594.1    3.273      53.346
2015    8       29    20   2    4.0920   594.1    3.272      53.338
2015    8       29    20   9    4.0909   594.1    3.271      53.331
2015    8       29    20  15    4.0899   594.0    3.271      53.323
2015    8       29    20  21    4.0888   594.0    3.270      53.314
2015    8       29    20  27    4.0878   594.0    3.269      53.306
2015    8       29    20  34    4.0867   594.0    3.268      53.298
2015    8       29    20  40    4.0857   594.0    3.267      53.290
2015    8       29    20  46    4.0847   594.0    3.266      53.281
2015    8       29    20  52    4.0836   593.9    3.265      53.273
2015    8       29    20  58    4.0826   593.9    3.265      53.264
2015    8       29    21   5    4.0816   593.9    3.264      53.256
2015    8       29    21  11    4.0806   593.9    3.263      53.248
2015    8       29    21  17    4.0796   593.9    3.262      53.240
2015    8       29    21  23    4.0786   593.8    3.261      53.232
2015    8       29    21  30    4.0776   593.8    3.261      53.224
2015    8       29    21  36    4.0766   593.8    3.260      53.216
2015    8       29    21  42    4.0757   593.8    3.259      53.209
2015    8       29    21  48    4.0747   593.8    3.258      53.201
2015    8       29    21  55    4.0737   593.8    3.258      53.194
2015    8       29    22   1    4.0728   593.7    3.257      53.187
2015    8       29    22   7    4.0718   593.7    3.257      53.179
2015    8       29    22  13    4.0708   593.7    3.256      53.172
2015    8       29    22  20    4.0698   593.7    3.255      53.165
2015    8       29    22  26    4.0689   593.7    3.255      53.158
2015    8       29    22  32    4.0679   593.7    3.254      53.151
2015    8       29    22  38    4.0669   593.6    3.254      53.145
2015    8       29    22  44    4.0659   593.6    3.253      53.138
2015    8       29    22  51    4.0649   593.6    3.253      53.131
2015    8       29    22  57    4.0640   593.6    3.253      53.124
2015    8       29    23   3    4.0630   593.6    3.252      53.117
2015    8       29    23   9    4.0620   593.6    3.252      53.111
2015    8       29    23  16    4.0610   593.5    3.251      53.105
2015    8       29    23  22    4.0600   593.5    3.251      53.099
2015    8       29    23  28    4.0590   593.5    3.251      53.093
2015    8       29    23  34    4.0580   593.5    3.250      53.087
2015    8       29    23  41    4.0571   593.5    3.250      53.081
2015    8       29    23  47    4.0561   593.4    3.250      53.075
2015    8       29    23  53    4.0551   593.4    3.249      53.069
2015    8       29    23  59    4.0541   593.4    3.249      53.063
2015    8       30     0   6    4.0531   593.4    3.249      53.057
2015    8       30     0  12    4.0522   593.4    3.248      53.051
2015    8       30     0  18    4.0512   593.4    3.248      53.044
2015    8       30     0  24    4.0502   593.3    3.248      53.038
2015    8       30     0  30    4.0492   593.3    3.247      53.031
2015    8       30     0  37    4.0482   593.3    3.247      53.025
2015    8       30     0  43    4.0472   593.3    3.246      53.017
2015    8       30     0  49    4.0462   593.3    3.246      53.010
2015    8       30     0  55    4.0452   593.3    3.246      53.003
2015    8       30     1   2    4.0442   593.2    3.245      52.995
2015    8       30     1   8    4.0432   593.2    3.245      52.988
2015    8       30     1  14    4.0422   593.2    3.244      52.980
2015    8       30     1  20    4.0412   593.2    3.243      52.972
2015    8       30     1  27    4.0401   593.2    3.243      52.964
2015    8       30     1  33    4.0391   593.2    3.242      52.956
2015    8       30     1  39    4.0381   593.1    3.242      52.948
2015    8       30     1  45    4.0371   593.1    3.241      52.940
2015    8       30     1  51    4.0360   593.1    3.240      52.931
2015    8       30     1  58    4.0350   593.1    3.239      52.923
2015    8       30     2   4    4.0340   593.1    3.239      52.914
2015    8       30     2  10    4.0329   593.0    3.238      52.905
2015    8       30     2  16    4.0319   593.0    3.237      52.897
2015    8       30     2  23    4.0309   593.0    3.236      52.888
2015    8       30     2  29    4.0298   593.0    3.235      52.879
2015    8       30     2  35    4.0288   593.0    3.234      52.870
2015    8       30     2  41    4.0278   593.0    3.234      52.862
2015    8       30     2  48    4.0268   592.9    3.233      52.853
2015    8       30     2  54    4.0258   592.9    3.232      52.845
2015    8       30     3   0    4.0248   592.9    3.231      52.836
2015    8       30     3   6    4.0238   592.9    3.230      52.829
2015    8       30     3  13    4.0228   592.9    3.229      52.821
2015    8       30     3  19    4.0218   592.8    3.229      52.814
2015    8       30     3  25    4.0208   592.8    3.228      52.807
2015    8       30     3  31    4.0199   592.8    3.227      52.800
2015    8       30     3  37    4.0189   592.8    3.226      52.794
2015    8       30     3  44    4.0180   592.8    3.226      52.789
2015    8       30     3  50    4.0171   592.7    3.225      52.784
2015    8       30     3  56    4.0162   592.7    3.225      52.779
2015    8       30     4   2    4.0153   592.7    3.224      52.775
2015    8       30     4   9    4.0145   592.7    3.224      52.772
2015    8       30     4  15    4.0136   592.7    3.223      52.769
2015    8       30     4  21    4.0128   592.6    3.223      52.767
2015    8       30     4  27    4.0119   592.6    3.223      52.765
2015    8       30     4  34    4.0111   592.6    3.223      52.764
2015    8       30     4  40    4.0103   592.6    3.223      52.762
2015    8       30     4  46    4.0095   592.6    3.222      52.762
2015    8       30     4  52    4.0086   592.6    3.222      52.761
2015    8       30     4  59    4.0078   592.5    3.222      52.761
2015    8       30     5   5    4.0070   592.5    3.222      52.762
2015    8       30     5  11    4.0061   592.5    3.222      52.762
2015    8       30     5  17    4.0053   592.5    3.222      52.763
2015    8       30     5  23    4.0044   592.5    3.223      52.763
2015    8       30     5  30    4.0035   592.5    3.223      52.764
2015    8       30     5  36    4.0026   592.5    3.223      52.764
2015    8       30     5  42    4.0017   592.5    3.223      52.764
2015    8       30     5  48    4.0008   592.4    3.223      52.765
2015    8       30     5  55    3.9999   592.4    3.223      52.765
2015    8       30     6   1    3.9989   592.4    3.223      52.765
2015    8       30     6   7    3.9980   592.4    3.223      52.765
2015    8       30     6  13    3.9971   592.4    3.223      52.765
2015    8       30     6  20    3.9961   592.4    3.223      52.764
2015    8       30     6  26    3.9952   592.4    3.223      52.763
2015    8       30     6  32    3.9942   592.4    3.223      52.762
2015    8       30     6  38    3.9932   592.3    3.223      52.760
2015    8       30     6  45    3.9923   592.3    3.223      52.758
2015    8       30     6  51    3.9913   592.3    3.223      52.755
2015    8       30     6  57    3.9903   592.3    3.223      52.752
2015    8       30     7   3    3.9893   592.3    3.222      52.749
2015    8       30     7   9    3.9884   592.3    3.222      52.745
2015    8       30     7  16    3.9874   592.2    3.222      52.741
2015    8       30     7  22    3.9864   592.2    3.222      52.736
2015    8       30     7  28    3.9854   592.2    3.221      52.731
2015    8       30     7  34    3.9844   592.2    3.221      52.726
2015    8       30     7  41    3.9834   592.2    3.221      52.720
2015    8       30     7  47    3.9823   592.1    3.220      52.714
2015    8       30     7  53    3.9813   592.1    3.220      52.707
2015    8       30     7  59    3.9803   592.1    3.219      52.700
2015    8       30     8   6    3.9793   592.1    3.219      52.693
2015    8       30     8  12    3.9783   592.1    3.218      52.685
2015    8       30     8  18    3.9772   592.0    3.218      52.677
2015    8       30     8  24    3.9762   592.0    3.217      52.669
2015    8       30     8  30    3.9752   592.0    3.216      52.660
2015    8       30     8  37    3.9741   592.0    3.216      52.652
2015    8       30     8  43    3.9731   592.0    3.215      52.643
2015    8       30     8  49    3.9720   591.9    3.214      52.634
2015    8       30     8  55    3.9710   591.9    3.214      52.625
2015    8       30     9   2    3.9699   591.9    3.213      52.615
2015    8       30     9   8    3.9689   591.9    3.212      52.606
2015    8       30     9  14    3.9678   591.8    3.211      52.596
2015    8       30     9  20    3.9667   591.8    3.211      52.587
2015    8       30     9  27    3.9657   591.8    3.210      52.577
2015    8       30     9  33    3.9646   591.8    3.209      52.568
2015    8       30     9  39    3.9635   591.7    3.208      52.558
2015    8       30     9  45    3.9625   591.7    3.208      52.549
2015    8       30     9  52    3.9614   591.7    3.207      52.540
2015    8       30     9  58    3.9604   591.7    3.206      52.531
2015    8       30    10   4    3.9593   591.6    3.205      52.522
2015    8       30    10  10    3.9582   591.6    3.205      52.514
2015    8       30    10  16    3.9572   591.6    3.204      52.505
2015    8       30    10  23    3.9562   591.6    3.203      52.498
2015    8       30    10  29    3.9551   591.5    3.203      52.490
2015    8       30    10  35    3.9541   591.5    3.202      52.483
2015    8       30    10  41    3.9531   591.5    3.202      52.477
2015    8       30    10  48    3.9521   591.5    3.201      52.471
2015    8       30    10  54    3.9511   591.4    3.201      52.466
2015    8       30    11   0    3.9501   591.4    3.200      52.461
2015    8       30    11   6    3.9491   591.4    3.200      52.456
2015    8       30    11  13    3.9482   591.3    3.200      52.453
2015    8       30    11  19    3.9472   591.3    3.199      52.449
2015    8       30    11  25    3.9463   591.3    3.199      52.446
2015    8       30    11  31    3.9453   591.3    3.199      52.444
2015    8       30    11  37    3.9444   591.3    3.199      52.442
2015    8       30    11  44    3.9435   591.2    3.199      52.440
2015    8       30    11  50    3.9426   591.2    3.199      52.439
2015    8       30    11  56    3.9417   591.2    3.199      52.438
2015    8       30    12   2    3.9408   591.2    3.199      52.438
2015    8       30    12   9    3.9399   591.1    3.199      52.438
2015    8       30    12  15    3.9390   591.1    3.199      52.438
2015    8       30    12  21    3.9381   591.1    3.199      52.438
2015    8       30    12  27    3.9372   591.1    3.199      52.439
2015    8       30    12  34    3.9363   591.1    3.199      52.439
2015    8       30    12  40    3.9354   591.0    3.200      52.440
2015    8       30    12  46    3.9344   591.0    3.200      52.441
2015    8       30    12  52    3.9335   591.0    3.200      52.442
2015    8       30    12  59    3.9326   591.0    3.200      52.442
2015    8       30    13   5    3.9317   591.0    3.201      52.443
2015    8       30    13  11    3.9307   590.9    3.201      52.444
2015    8       30    13  17    3.9298   590.9    3.201      52.444
2015    8       30    13  24    3.9289   590.9    3.201      52.444
2015    8       30    13  30    3.9279   590.9    3.202      52.445
2015    8       30    13  36    3.9270   590.9    3.202      52.444
2015    8       30    13  42    3.9260   590.9    3.202      52.444
2015    8       30    13  48    3.9251   590.8    3.202      52.444
2015    8       30    13  55    3.9241   590.8    3.202      52.443
2015    8       30    14   1    3.9231   590.8    3.203      52.441
2015    8       30    14   7    3.9222   590.8    3.203      52.440
2015    8       30    14  13    3.9212   590.8    3.203      52.438
2015    8       30    14  20    3.9202   590.7    3.203      52.436
2015    8       30    14  26    3.9192   590.7    3.203      52.434
2015    8       30    14  32    3.9183   590.7    3.203      52.431
2015    8       30    14  38    3.9173   590.7    3.203      52.428
2015    8       30    14  45    3.9163   590.6    3.203      52.425
2015    8       30    14  51    3.9153   590.6    3.203      52.421
2015    8       30    14  57    3.9144   590.6    3.203      52.418
2015    8       30    15   3    3.9133   590.6    3.203      52.414
2015    8       30    15   9    3.9123   590.6    3.203      52.410
2015    8       30    15  16    3.9113   590.5    3.203      52.405
2015    8       30    15  22    3.9103   590.5    3.203      52.401
2015    8       30    15  28    3.9093   590.5    3.203      52.396
2015    8       30    15  34    3.9082   590.5    3.202      52.391
2015    8       30    15  41    3.9072   590.4    3.202      52.386
2015    8       30    15  47    3.9061   590.4    3.202      52.381
2015    8       30    15  53    3.9051   590.4    3.202      52.375
2015    8       30    15  59    3.9040   590.4    3.202      52.370
2015    8       30    16   6    3.9029   590.3    3.202      52.364
2015    8       30    16  12    3.9018   590.3    3.202      52.359
2015    8       30    16  18    3.9007   590.3    3.201      52.353
2015    8       30    16  24    3.8996   590.3    3.201      52.348
2015    8       30    16  31    3.8985   590.2    3.201      52.342
2015    8       30    16  37    3.8974   590.2    3.201      52.336
2015    8       30    16  43    3.8962   590.2    3.201      52.330
2015    8       30    16  49    3.8951   590.2    3.200      52.324
2015    8       30    16  55    3.8939   590.1    3.200      52.318
2015    8       30    17   2    3.8927   590.1    3.200      52.312
2015    8       30    17   8    3.8915   590.1    3.200      52.305
2015    8       30    17  14    3.8904   590.0    3.199      52.299
2015    8       30    17  20    3.8891   590.0    3.199      52.293
2015    8       30    17  27    3.8879   590.0    3.199      52.286
2015    8       30    17  33    3.8867   590.0    3.198      52.280
2015    8       30    17  39    3.8855   589.9    3.198      52.273
2015    8       30    17  45    3.8843   589.9    3.198      52.266
2015    8       30    17  52    3.8830   589.9    3.197      52.259
2015    8       30    17  58    3.8818   589.8    3.197      52.252
2015    8       30    18   4    3.8805   589.8    3.197      52.245
2015    8       30    18  10    3.8793   589.8    3.196      52.237
2015    8       30    18  16    3.8780   589.7    3.196      52.230
2015    8       30    18  23    3.8768   589.7    3.196      52.222
2015    8       30    18  29    3.8755   589.7    3.195      52.215
2015    8       30    18  35    3.8742   589.6    3.195      52.207
2015    8       30    18  41    3.8730   589.6    3.194      52.199
2015    8       30    18  48    3.8717   589.6    3.194      52.191
2015    8       30    18  54    3.8705   589.5    3.193      52.183
2015    8       30    19   0    3.8692   589.5    3.193      52.175
2015    8       30    19   6    3.8680   589.5    3.193      52.167
2015    8       30    19  13    3.8667   589.4    3.192      52.159
2015    8       30    19  19    3.8655   589.4    3.192      52.151
2015    8       30    19  25    3.8642   589.4    3.191      52.143
2015    8       30    19  31    3.8630   589.3    3.191      52.135
2015    8       30    19  38    3.8618   589.3    3.190      52.127
2015    8       30    19  44    3.8606   589.3    3.190      52.119
2015    8       30    19  50    3.8593   589.2    3.190      52.111
2015    8       30    19  56    3.8581   589.2    3.189      52.103
2015    8       30    20   3    3.8569   589.2    3.189      52.095
2015    8       30    20   9    3.8557   589.1    3.188      52.087
2015    8       30    20  15    3.8545   589.1    3.188      52.079
2015    8       30    20  21    3.8533   589.1    3.188      52.071
2015    8       30    20  27    3.8521   589.0    3.187      52.063
2015    8       30    20  34    3.8510   589.0    3.187      52.056
2015    8       30    20  40    3.8498   588.9    3.187      52.047
2015    8       30    20  46    3.8486   588.9    3.186      52.040
2015    8       30    20  52    3.8474   588.9    3.186      52.032
2015    8       30    20  59    3.8463   588.8    3.186      52.025
2015    8       30    21   5    3.8451   588.8    3.186      52.017
2015    8       30    21  11    3.8439   588.8    3.185      52.009
2015    8       30    21  17    3.8427   588.7    3.185      52.002
2015    8       30    21  24    3.8415   588.7    3.185      51.994
2015    8       30    21  30    3.8404   588.7    3.185      51.986
2015    8       30    21  36    3.8392   588.6    3.185      51.979
2015    8       30    21  42    3.8380   588.6    3.184      51.971
2015    8       30    21  48    3.8368   588.6    3.184      51.964
2015    8       30    21  55    3.8356   588.5    3.184      51.956
2015    8       30    22   1    3.8345   588.5    3.184      51.949
2015    8       30    22   7    3.8333   588.5    3.184      51.942
2015    8       30    22  13    3.8321   588.4    3.184      51.935
2015    8       30    22  20    3.8309   588.4    3.184      51.927
2015    8       30    22  26    3.8296   588.3    3.184      51.920
2015    8       30    22  32    3.8284   588.3    3.184      51.913
2015    8       30    22  38    3.8272   588.3    3.184      51.906
2015    8       30    22  45    3.8259   588.2    3.184      51.899
2015    8       30    22  51    3.8246   588.2    3.184      51.892
2015    8       30    22  57    3.8233   588.2    3.184      51.885
2015    8       30    23   3    3.8220   588.1    3.184      51.879
2015    8       30    23  10    3.8206   588.1    3.184      51.872
2015    8       30    23  16    3.8193   588.0    3.184      51.865
2015    8       30    23  22    3.8179   588.0    3.184      51.858
2015    8       30    23  28    3.8166   588.0    3.184      51.852
2015    8       30    23  34    3.8152   587.9    3.184      51.845
2015    8       30    23  41    3.8138   587.9    3.184      51.839
2015    8       30    23  47    3.8123   587.9    3.185      51.832
2015    8       30    23  53    3.8109   587.8    3.185      51.826
2015    8       30    23  59    3.8094   587.8    3.185      51.819
2015    8       31     0   6    3.8080   587.7    3.185      51.812
