year    month   day   hour  minute  B_enl V_enl   n_enl       T_enl
[year] [month] [day] [hour][minute] [nT]  [km/s]  [cm-3]      [kK]
2015    8       27     0   6    4.8247   399.5   10.550      37.945
2015    8       27     0  13    4.8364   399.8   10.555      38.042
2015    8       27     0  21    4.8482   400.1   10.561      38.143
2015    8       27     0  29    4.8600   400.4   10.569      38.244
2015    8       27     0  36    4.8719   400.7   10.577      38.349
2015    8       27     0  44    4.8839   401.0   10.587      38.457
2015    8       27     0  52    4.8961   401.3   10.598      38.570
2015    8       27     0  59    4.9082   401.6   10.610      38.685
2015    8       27     1   7    4.9205   401.9   10.624      38.804
2015    8       27     1  15    4.9328   402.2   10.639      38.924
2015    8       27     1  22    4.9451   402.5   10.655      39.051
2015    8       27     1  30    4.9575   402.8   10.671      39.180
2015    8       27     1  38    4.9699   403.2   10.688      39.313
2015    8       27     1  45    4.9823   403.5   10.705      39.446
2015    8       27     1  53    4.9947   403.8   10.721      39.583
2015    8       27     2   1    5.0071   404.2   10.737      39.722
2015    8       27     2   8    5.0195   404.6   10.753      39.861
2015    8       27     2  16    5.0317   404.9   10.767      39.998
2015    8       27     2  24    5.0439   405.3   10.782      40.135
2015    8       27     2  31    5.0558   405.6   10.796      40.269
2015    8       27     2  39    5.0677   406.0   10.810      40.405
2015    8       27     2  47    5.0794   406.4   10.823      40.540
2015    8       27     2  55    5.0912   406.7   10.837      40.677
2015    8       27     3   2    5.1029   407.1   10.851      40.812
2015    8       27     3  10    5.1146   407.5   10.866      40.950
2015    8       27     3  18    5.1265   407.9   10.881      41.090
2015    8       27     3  25    5.1386   408.3   10.897      41.234
2015    8       27     3  33    5.1508   408.6   10.915      41.382
2015    8       27     3  41    5.1634   409.0   10.935      41.531
2015    8       27     3  48    5.1764   409.4   10.957      41.680
2015    8       27     3  56    5.1899   409.8   10.981      41.846
2015    8       27     4   4    5.2039   410.2   11.005      42.021
2015    8       27     4  11    5.2183   410.7   11.030      42.208
2015    8       27     4  19    5.2327   411.2   11.055      42.402
2015    8       27     4  27    5.2474   411.7   11.077      42.608
2015    8       27     4  35    5.2618   412.3   11.098      42.820
2015    8       27     4  42    5.2760   412.9   11.116      43.030
2015    8       27     4  50    5.2895   413.5   11.132      43.233
2015    8       27     4  58    5.3026   414.1   11.144      43.433
2015    8       27     5   5    5.3150   414.7   11.153      43.626
2015    8       27     5  13    5.3269   415.3   11.158      43.815
2015    8       27     5  21    5.3379   415.9   11.160      43.997
2015    8       27     5  28    5.3482   416.6   11.158      44.172
2015    8       27     5  36    5.3579   417.2   11.152      44.339
2015    8       27     5  44    5.3670   417.9   11.145      44.502
2015    8       27     5  51    5.3754   418.5   11.134      44.657
2015    8       27     5  59    5.3835   419.1   11.122      44.808
2015    8       27     6   7    5.3911   419.7   11.107      44.953
2015    8       27     6  15    5.3984   420.3   11.091      45.095
2015    8       27     6  22    5.4054   420.9   11.074      45.232
2015    8       27     6  30    5.4122   421.5   11.057      45.367
2015    8       27     6  38    5.4188   422.1   11.038      45.497
2015    8       27     6  45    5.4253   422.6   11.019      45.626
2015    8       27     6  53    5.4316   423.2   10.999      45.751
2015    8       27     7   1    5.4379   423.8   10.978      45.874
2015    8       27     7   8    5.4441   424.3   10.958      45.994
2015    8       27     7  16    5.4503   424.9   10.936      46.112
2015    8       27     7  24    5.4564   425.4   10.914      46.227
2015    8       27     7  31    5.4625   426.0   10.892      46.340
2015    8       27     7  39    5.4684   426.5   10.869      46.450
2015    8       27     7  47    5.4743   427.1   10.846      46.559
2015    8       27     7  54    5.4801   427.7   10.822      46.666
2015    8       27     8   2    5.4856   428.3   10.797      46.771
2015    8       27     8  10    5.4909   428.8   10.772      46.872
2015    8       27     8  17    5.4960   429.4   10.746      46.969
2015    8       27     8  25    5.5008   430.0   10.719      47.064
2015    8       27     8  33    5.5051   430.6   10.691      47.151
2015    8       27     8  40    5.5091   431.2   10.663      47.231
2015    8       27     8  48    5.5129   431.8   10.632      47.312
2015    8       27     8  56    5.5164   432.5   10.600      47.394
2015    8       27     9   4    5.5195   433.1   10.567      47.471
2015    8       27     9  11    5.5222   433.7   10.535      47.544
2015    8       27     9  19    5.5247   434.4   10.502      47.616
2015    8       27     9  27    5.5271   434.9   10.470      47.683
2015    8       27     9  34    5.5292   435.5   10.440      47.739
2015    8       27     9  42    5.5314   435.9   10.412      47.789
2015    8       27     9  50    5.5338   436.4   10.386      47.838
2015    8       27     9  57    5.5366   436.8   10.364      47.885
2015    8       27    10   5    5.5396   437.1   10.345      47.932
2015    8       27    10  13    5.5430   437.4   10.330      47.986
2015    8       27    10  20    5.5469   437.8   10.317      48.050
2015    8       27    10  28    5.5513   438.1   10.308      48.127
2015    8       27    10  36    5.5566   438.5   10.303      48.222
2015    8       27    10  43    5.5627   438.9   10.303      48.334
2015    8       27    10  51    5.5697   439.3   10.309      48.471
2015    8       27    10  59    5.5775   439.8   10.319      48.628
2015    8       27    11   7    5.5861   440.3   10.333      48.814
2015    8       27    11  14    5.5950   440.8   10.350      49.021
2015    8       27    11  22    5.6039   441.5   10.366      49.250
2015    8       27    11  30    5.6126   442.1   10.382      49.484
2015    8       27    11  37    5.6209   442.8   10.395      49.725
2015    8       27    11  45    5.6287   443.5   10.406      49.965
2015    8       27    11  53    5.6357   444.2   10.413      50.199
2015    8       27    12   0    5.6420   444.9   10.418      50.423
2015    8       27    12   8    5.6476   445.6   10.420      50.641
2015    8       27    12  16    5.6524   446.3   10.418      50.849
2015    8       27    12  23    5.6565   447.0   10.412      51.054
2015    8       27    12  31    5.6599   447.8   10.403      51.249
2015    8       27    12  39    5.6626   448.5   10.391      51.438
2015    8       27    12  46    5.6647   449.3   10.375      51.619
2015    8       27    12  54    5.6662   450.0   10.358      51.794
2015    8       27    13   2    5.6673   450.8   10.338      51.962
2015    8       27    13  10    5.6681   451.5   10.317      52.127
2015    8       27    13  17    5.6685   452.3   10.295      52.286
2015    8       27    13  25    5.6687   453.0   10.271      52.441
2015    8       27    13  33    5.6688   453.7   10.247      52.592
2015    8       27    13  40    5.6687   454.5   10.222      52.740
2015    8       27    13  48    5.6685   455.2   10.197      52.884
2015    8       27    13  56    5.6683   455.9   10.171      53.026
2015    8       27    14   3    5.6681   456.6   10.144      53.166
2015    8       27    14  11    5.6678   457.3   10.117      53.305
2015    8       27    14  19    5.6675   458.0   10.090      53.440
2015    8       27    14  26    5.6671   458.7   10.062      53.574
2015    8       27    14  34    5.6667   459.4   10.033      53.704
2015    8       27    14  42    5.6662   460.1   10.003      53.832
2015    8       27    14  49    5.6657   460.9    9.973      53.955
2015    8       27    14  57    5.6649   461.6    9.942      54.074
2015    8       27    15   5    5.6640   462.4    9.910      54.189
2015    8       27    15  13    5.6628   463.2    9.876      54.302
2015    8       27    15  20    5.6613   464.0    9.841      54.408
2015    8       27    15  28    5.6595   464.8    9.805      54.512
2015    8       27    15  36    5.6574   465.7    9.767      54.611
2015    8       27    15  43    5.6550   466.5    9.727      54.709
2015    8       27    15  51    5.6520   467.4    9.685      54.792
2015    8       27    15  59    5.6487   468.2    9.644      54.861
2015    8       27    16   6    5.6452   468.9    9.604      54.919
2015    8       27    16  14    5.6414   469.6    9.564      54.970
2015    8       27    16  22    5.6377   470.2    9.525      55.012
2015    8       27    16  29    5.6341   470.9    9.488      55.054
2015    8       27    16  37    5.6307   471.5    9.452      55.108
2015    8       27    16  45    5.6274   472.2    9.417      55.178
2015    8       27    16  52    5.6245   472.9    9.382      55.259
2015    8       27    17   0    5.6217   473.7    9.348      55.348
2015    8       27    17   8    5.6189   474.5    9.315      55.456
2015    8       27    17  15    5.6158   475.5    9.281      55.587
2015    8       27    17  23    5.6122   476.4    9.246      55.720
2015    8       27    17  31    5.6074   477.3    9.209      55.853
2015    8       27    17  38    5.6019   478.3    9.171      55.986
2015    8       27    17  46    5.5955   479.2    9.130      56.115
2015    8       27    17  54    5.5886   480.1    9.088      56.232
2015    8       27    18   2    5.5810   480.9    9.047      56.337
2015    8       27    18   9    5.5734   481.7    9.006      56.439
2015    8       27    18  17    5.5655   482.5    8.965      56.541
2015    8       27    18  25    5.5577   483.3    8.925      56.641
2015    8       27    18  32    5.5497   484.0    8.886      56.740
2015    8       27    18  40    5.5419   484.8    8.848      56.839
2015    8       27    18  48    5.5339   485.6    8.810      56.939
2015    8       27    18  55    5.5263   486.3    8.774      57.041
2015    8       27    19   3    5.5184   487.1    8.738      57.145
2015    8       27    19  11    5.5108   487.9    8.703      57.251
2015    8       27    19  18    5.5029   488.6    8.668      57.358
2015    8       27    19  26    5.4952   489.4    8.634      57.464
2015    8       27    19  34    5.4872   490.2    8.599      57.572
2015    8       27    19  41    5.4793   491.0    8.566      57.679
2015    8       27    19  49    5.4711   491.8    8.532      57.786
2015    8       27    19  57    5.4630   492.6    8.498      57.893
2015    8       27    20   5    5.4546   493.4    8.465      58.000
2015    8       27    20  12    5.4462   494.2    8.431      58.105
2015    8       27    20  20    5.4374   495.0    8.397      58.209
2015    8       27    20  28    5.4285   495.8    8.363      58.311
2015    8       27    20  35    5.4191   496.6    8.327      58.409
2015    8       27    20  43    5.4096   497.3    8.292      58.500
2015    8       27    20  51    5.3997   498.1    8.256      58.585
2015    8       27    20  58    5.3898   498.8    8.221      58.663
2015    8       27    21   6    5.3795   499.6    8.186      58.738
2015    8       27    21  14    5.3694   500.3    8.152      58.811
2015    8       27    21  21    5.3590   501.1    8.117      58.886
2015    8       27    21  29    5.3488   501.8    8.083      58.959
2015    8       27    21  37    5.3383   502.5    8.049      59.033
2015    8       27    21  44    5.3280   503.3    8.015      59.107
2015    8       27    21  52    5.3173   504.0    7.981      59.181
2015    8       27    22   0    5.3068   504.7    7.948      59.252
2015    8       27    22   8    5.2960   505.5    7.913      59.323
2015    8       27    22  15    5.2853   506.2    7.880      59.392
2015    8       27    22  23    5.2745   507.0    7.846      59.460
2015    8       27    22  31    5.2639   507.7    7.812      59.528
2015    8       27    22  38    5.2531   508.5    7.779      59.594
2015    8       27    22  46    5.2425   509.3    7.745      59.661
2015    8       27    22  54    5.2318   510.0    7.711      59.728
2015    8       27    23   1    5.2212   510.8    7.678      59.793
2015    8       27    23   9    5.2102   511.6    7.644      59.854
2015    8       27    23  17    5.1993   512.4    7.610      59.913
2015    8       27    23  24    5.1880   513.2    7.574      59.971
2015    8       27    23  32    5.1765   514.1    7.538      60.025
2015    8       27    23  40    5.1645   514.9    7.500      60.070
2015    8       27    23  47    5.1521   515.8    7.462      60.111
2015    8       27    23  55    5.1392   516.7    7.423      60.152
2015    8       28     0   3    5.1261   517.6    7.383      60.189
2015    8       28     0  10    5.1123   518.5    7.342      60.223
2015    8       28     0  18    5.0983   519.4    7.300      60.254
2015    8       28     0  26    5.0838   520.4    7.256      60.288
2015    8       28     0  33    5.0687   521.3    7.211      60.315
2015    8       28     0  41    5.0530   522.3    7.163      60.324
2015    8       28     0  49    5.0370   523.2    7.115      60.320
2015    8       28     0  57    5.0207   524.1    7.067      60.306
2015    8       28     1   4    5.0047   524.9    7.019      60.287
2015    8       28     1  12    4.9886   525.7    6.973      60.256
2015    8       28     1  20    4.9731   526.4    6.930      60.227
2015    8       28     1  27    4.9579   527.1    6.888      60.206
2015    8       28     1  35    4.9433   527.9    6.848      60.191
2015    8       28     1  43    4.9288   528.6    6.809      60.182
2015    8       28     1  50    4.9149   529.3    6.773      60.179
2015    8       28     1  58    4.9010   530.0    6.738      60.178
2015    8       28     2   6    4.8876   530.7    6.704      60.184
2015    8       28     2  13    4.8742   531.4    6.671      60.195
2015    8       28     2  21    4.8612   532.1    6.640      60.210
2015    8       28     2  29    4.8481   532.7    6.609      60.227
2015    8       28     2  37    4.8352   533.4    6.579      60.245
2015    8       28     2  44    4.8221   534.1    6.548      60.264
2015    8       28     2  52    4.8092   534.8    6.519      60.284
2015    8       28     3   0    4.7962   535.5    6.489      60.304
2015    8       28     3   7    4.7832   536.1    6.459      60.323
2015    8       28     3  15    4.7700   536.8    6.429      60.342
2015    8       28     3  23    4.7568   537.5    6.399      60.359
2015    8       28     3  30    4.7433   538.2    6.368      60.373
2015    8       28     3  38    4.7296   538.9    6.336      60.383
2015    8       28     3  46    4.7156   539.6    6.303      60.389
2015    8       28     3  53    4.7015   540.3    6.270      60.385
2015    8       28     4   1    4.6870   540.9    6.236      60.364
2015    8       28     4   9    4.6726   541.5    6.202      60.331
2015    8       28     4  17    4.6580   542.1    6.169      60.286
2015    8       28     4  24    4.6436   542.6    6.137      60.234
2015    8       28     4  32    4.6292   543.1    6.105      60.182
2015    8       28     4  40    4.6152   543.7    6.075      60.134
2015    8       28     4  47    4.6011   544.2    6.045      60.088
2015    8       28     4  55    4.5874   544.7    6.017      60.045
2015    8       28     5   3    4.5737   545.3    5.989      60.005
2015    8       28     5  10    4.5603   545.8    5.962      59.969
2015    8       28     5  18    4.5469   546.3    5.936      59.937
2015    8       28     5  26    4.5337   546.9    5.910      59.910
2015    8       28     5  33    4.5205   547.4    5.885      59.884
2015    8       28     5  41    4.5076   547.9    5.860      59.862
2015    8       28     5  49    4.4945   548.5    5.835      59.842
2015    8       28     5  56    4.4817   549.0    5.811      59.825
2015    8       28     6   4    4.4688   549.6    5.787      59.810
2015    8       28     6  12    4.4561   550.1    5.763      59.798
2015    8       28     6  19    4.4432   550.7    5.739      59.786
2015    8       28     6  27    4.4303   551.2    5.715      59.773
2015    8       28     6  35    4.4173   551.8    5.691      59.756
2015    8       28     6  42    4.4042   552.4    5.666      59.737
2015    8       28     6  50    4.3907   553.0    5.640      59.714
2015    8       28     6  58    4.3772   553.5    5.614      59.680
2015    8       28     7   6    4.3632   554.1    5.587      59.635
2015    8       28     7  13    4.3492   554.6    5.560      59.581
2015    8       28     7  21    4.3349   555.0    5.533      59.518
2015    8       28     7  29    4.3207   555.5    5.507      59.449
2015    8       28     7  36    4.3065   556.0    5.481      59.380
2015    8       28     7  44    4.2924   556.4    5.455      59.312
2015    8       28     7  52    4.2785   556.9    5.430      59.243
2015    8       28     7  59    4.2649   557.4    5.405      59.175
2015    8       28     8   7    4.2514   557.8    5.380      59.104
2015    8       28     8  15    4.2382   558.3    5.356      59.035
2015    8       28     8  22    4.2252   558.7    5.333      58.966
2015    8       28     8  30    4.2125   559.1    5.310      58.898
2015    8       28     8  38    4.2001   559.5    5.288      58.830
2015    8       28     8  45    4.1880   559.8    5.268      58.765
2015    8       28     8  53    4.1764   560.2    5.247      58.701
2015    8       28     9   1    4.1650   560.5    5.228      58.641
2015    8       28     9   8    4.1539   560.9    5.210      58.586
2015    8       28     9  16    4.1431   561.2    5.192      58.538
2015    8       28     9  24    4.1326   561.6    5.175      58.496
2015    8       28     9  31    4.1222   562.0    5.158      58.458
2015    8       28     9  39    4.1120   562.4    5.142      58.419
2015    8       28     9  47    4.1019   562.7    5.126      58.379
2015    8       28     9  54    4.0918   563.1    5.109      58.334
2015    8       28    10   2    4.0818   563.4    5.094      58.289
2015    8       28    10  10    4.0717   563.7    5.078      58.243
2015    8       28    10  17    4.0617   564.1    5.062      58.196
2015    8       28    10  25    4.0517   564.4    5.045      58.150
2015    8       28    10  33    4.0416   564.7    5.029      58.104
2015    8       28    10  40    4.0314   565.1    5.012      58.056
2015    8       28    10  48    4.0211   565.4    4.995      58.007
2015    8       28    10  56    4.0108   565.8    4.977      57.952
2015    8       28    11   3    4.0005   566.1    4.960      57.892
2015    8       28    11  11    3.9903   566.4    4.942      57.822
2015    8       28    11  19    3.9802   566.6    4.925      57.745
2015    8       28    11  26    3.9702   566.8    4.907      57.664
2015    8       28    11  34    3.9604   567.1    4.891      57.581
2015    8       28    11  42    3.9508   567.3    4.874      57.497
2015    8       28    11  49    3.9414   567.5    4.859      57.413
2015    8       28    11  57    3.9321   567.6    4.843      57.330
2015    8       28    12   5    3.9231   567.8    4.828      57.251
2015    8       28    12  12    3.9142   568.1    4.813      57.175
2015    8       28    12  20    3.9055   568.3    4.799      57.103
2015    8       28    12  28    3.8969   568.5    4.785      57.033
2015    8       28    12  35    3.8885   568.7    4.772      56.967
2015    8       28    12  43    3.8803   569.0    4.758      56.901
2015    8       28    12  51    3.8721   569.2    4.745      56.836
2015    8       28    12  59    3.8640   569.4    4.732      56.770
2015    8       28    13   6    3.8560   569.6    4.720      56.705
2015    8       28    13  14    3.8481   569.8    4.707      56.640
2015    8       28    13  22    3.8402   570.0    4.695      56.576
2015    8       28    13  29    3.8324   570.2    4.682      56.512
2015    8       28    13  37    3.8247   570.3    4.670      56.449
2015    8       28    13  45    3.8171   570.5    4.658      56.383
2015    8       28    13  52    3.8095   570.7    4.647      56.319
2015    8       28    14   0    3.8018   570.8    4.635      56.253
2015    8       28    14   8    3.7943   571.0    4.623      56.188
2015    8       28    14  15    3.7867   571.1    4.612      56.123
2015    8       28    14  23    3.7791   571.3    4.601      56.057
2015    8       28    14  31    3.7716   571.5    4.589      55.991
2015    8       28    14  38    3.7640   571.6    4.578      55.925
2015    8       28    14  46    3.7565   571.8    4.567      55.859
2015    8       28    14  54    3.7489   571.9    4.556      55.794
2015    8       28    15   1    3.7414   572.1    4.545      55.730
2015    8       28    15   9    3.7340   572.2    4.534      55.665
2015    8       28    15  17    3.7265   572.4    4.523      55.601
2015    8       28    15  24    3.7191   572.6    4.512      55.538
2015    8       28    15  32    3.7118   572.7    4.501      55.475
2015    8       28    15  40    3.7045   572.9    4.490      55.413
2015    8       28    15  48    3.6973   573.1    4.480      55.349
2015    8       28    15  55    3.6902   573.2    4.469      55.287
2015    8       28    16   3    3.6832   573.3    4.459      55.223
2015    8       28    16  11    3.6763   573.4    4.449      55.160
2015    8       28    16  18    3.6695   573.5    4.440      55.099
2015    8       28    16  26    3.6628   573.6    4.431      55.040
2015    8       28    16  34    3.6561   573.7    4.422      54.987
2015    8       28    16  41    3.6496   573.9    4.413      54.940
2015    8       28    16  49    3.6430   574.1    4.405      54.895
2015    8       28    16  57    3.6365   574.3    4.396      54.851
2015    8       28    17   4    3.6300   574.4    4.388      54.801
2015    8       28    17  12    3.6235   574.6    4.379      54.748
2015    8       28    17  20    3.6170   574.7    4.370      54.691
2015    8       28    17  27    3.6104   574.8    4.362      54.633
2015    8       28    17  35    3.6037   575.0    4.352      54.574
2015    8       28    17  43    3.5971   575.1    4.343      54.517
2015    8       28    17  50    3.5905   575.2    4.334      54.460
2015    8       28    17  58    3.5838   575.4    4.325      54.402
2015    8       28    18   6    3.5771   575.6    4.315      54.341
2015    8       28    18  13    3.5705   575.7    4.305      54.278
2015    8       28    18  21    3.5638   575.9    4.296      54.211
2015    8       28    18  29    3.5573   576.0    4.286      54.142
2015    8       28    18  36    3.5508   576.1    4.276      54.072
2015    8       28    18  44    3.5444   576.2    4.267      54.002
2015    8       28    18  52    3.5381   576.3    4.258      53.933
2015    8       28    18  59    3.5320   576.3    4.249      53.864
2015    8       28    19   7    3.5259   576.4    4.241      53.794
2015    8       28    19  15    3.5199   576.4    4.232      53.727
2015    8       28    19  22    3.5140   576.5    4.224      53.661
2015    8       28    19  30    3.5082   576.6    4.216      53.599
2015    8       28    19  38    3.5023   576.7    4.208      53.538
2015    8       28    19  45    3.4966   576.8    4.200      53.481
2015    8       28    19  53    3.4908   576.9    4.192      53.423
2015    8       28    20   1    3.4852   577.0    4.184      53.366
2015    8       28    20   8    3.4794   577.1    4.176      53.305
2015    8       28    20  16    3.4737   577.2    4.168      53.243
2015    8       28    20  24    3.4680   577.3    4.160      53.179
2015    8       28    20  31    3.4623   577.4    4.152      53.115
2015    8       28    20  39    3.4565   577.5    4.143      53.050
2015    8       28    20  47    3.4509   577.5    4.135      52.984
2015    8       28    20  55    3.4452   577.6    4.127      52.918
2015    8       28    21   2    3.4396   577.7    4.119      52.851
2015    8       28    21  10    3.4341   577.7    4.111      52.784
2015    8       28    21  18    3.4285   577.8    4.103      52.718
2015    8       28    21  25    3.4230   577.9    4.095      52.652
2015    8       28    21  33    3.4176   577.9    4.087      52.588
2015    8       28    21  41    3.4122   578.0    4.080      52.524
2015    8       28    21  48    3.4068   578.0    4.072      52.462
2015    8       28    21  56    3.4014   578.1    4.064      52.399
2015    8       28    22   4    3.3960   578.1    4.057      52.338
2015    8       28    22  11    3.3907   578.2    4.050      52.276
2015    8       28    22  19    3.3854   578.2    4.043      52.216
2015    8       28    22  27    3.3801   578.3    4.035      52.155
2015    8       28    22  34    3.3749   578.3    4.029      52.094
2015    8       28    22  42    3.3696   578.4    4.022      52.034
2015    8       28    22  50    3.3645   578.4    4.015      51.974
2015    8       28    22  57    3.3593   578.4    4.008      51.913
2015    8       28    23   5    3.3541   578.4    4.002      51.854
2015    8       28    23  13    3.3490   578.5    3.995      51.794
2015    8       28    23  20    3.3439   578.5    3.989      51.736
2015    8       28    23  28    3.3389   578.5    3.983      51.677
2015    8       28    23  36    3.3339   578.5    3.977      51.620
2015    8       28    23  44    3.3289   578.5    3.971      51.562
2015    8       28    23  51    3.3239   578.5    3.965      51.505
2015    8       28    23  59    3.3189   578.5    3.960      51.447
2015    8       29     0   7    3.3140   578.5    3.954      51.390
2015    8       29     0  14    3.3090   578.5    3.949      51.333
2015    8       29     0  22    3.3042   578.5    3.943      51.276
2015    8       29     0  30    3.2993   578.5    3.938      51.218
2015    8       29     0  37    3.2944   578.5    3.933      51.161
2015    8       29     0  45    3.2896   578.5    3.927      51.103
2015    8       29     0  53    3.2848   578.5    3.922      51.045
2015    8       29     1   0    3.2800   578.5    3.917      50.987
2015    8       29     1   8    3.2753   578.5    3.912      50.929
2015    8       29     1  16    3.2706   578.5    3.907      50.870
2015    8       29     1  23    3.2659   578.4    3.902      50.811
2015    8       29     1  31    3.2612   578.4    3.897      50.752
2015    8       29     1  39    3.2567   578.4    3.892      50.693
2015    8       29     1  46    3.2521   578.4    3.887      50.633
2015    8       29     1  54    3.2475   578.4    3.882      50.574
2015    8       29     2   2    3.2430   578.4    3.877      50.514
2015    8       29     2   9    3.2386   578.3    3.872      50.455
2015    8       29     2  17    3.2341   578.3    3.867      50.394
2015    8       29     2  25    3.2298   578.3    3.863      50.335
2015    8       29     2  32    3.2254   578.2    3.858      50.275
2015    8       29     2  40    3.2210   578.2    3.853      50.215
2015    8       29     2  48    3.2167   578.2    3.848      50.155
2015    8       29     2  55    3.2124   578.2    3.844      50.096
2015    8       29     3   3    3.2082   578.1    3.839      50.036
2015    8       29     3  11    3.2040   578.1    3.835      49.978
2015    8       29     3  18    3.1997   578.0    3.830      49.919
2015    8       29     3  26    3.1956   578.0    3.826      49.861
2015    8       29     3  34    3.1914   578.0    3.821      49.803
2015    8       29     3  41    3.1873   577.9    3.817      49.746
2015    8       29     3  49    3.1833   577.9    3.812      49.688
2015    8       29     3  57    3.1792   577.8    3.808      49.632
2015    8       29     4   4    3.1752   577.8    3.804      49.576
2015    8       29     4  12    3.1713   577.7    3.800      49.521
2015    8       29     4  20    3.1673   577.7    3.796      49.466
2015    8       29     4  27    3.1634   577.6    3.791      49.411
2015    8       29     4  35    3.1595   577.6    3.787      49.357
2015    8       29     4  43    3.1557   577.5    3.783      49.303
2015    8       29     4  51    3.1518   577.5    3.779      49.250
2015    8       29     4  58    3.1480   577.4    3.775      49.197
2015    8       29     5   6    3.1442   577.4    3.772      49.144
2015    8       29     5  14    3.1404   577.3    3.768      49.091
2015    8       29     5  21    3.1366   577.3    3.764      49.038
2015    8       29     5  29    3.1328   577.2    3.760      48.986
2015    8       29     5  37    3.1291   577.1    3.756      48.933
2015    8       29     5  44    3.1253   577.1    3.752      48.881
2015    8       29     5  52    3.1216   577.0    3.749      48.828
2015    8       29     6   0    3.1178   577.0    3.745      48.775
2015    8       29     6   7    3.1141   576.9    3.741      48.722
2015    8       29     6  15    3.1104   576.8    3.737      48.670
2015    8       29     6  23    3.1067   576.8    3.734      48.617
2015    8       29     6  30    3.1031   576.7    3.730      48.564
2015    8       29     6  38    3.0994   576.6    3.726      48.510
2015    8       29     6  46    3.0958   576.5    3.723      48.458
2015    8       29     6  53    3.0921   576.5    3.719      48.404
2015    8       29     7   1    3.0885   576.4    3.716      48.351
2015    8       29     7   9    3.0850   576.3    3.712      48.297
2015    8       29     7  16    3.0814   576.2    3.709      48.244
2015    8       29     7  24    3.0779   576.2    3.705      48.191
2015    8       29     7  32    3.0743   576.1    3.702      48.138
2015    8       29     7  40    3.0708   576.0    3.698      48.084
2015    8       29     7  47    3.0674   575.9    3.695      48.031
2015    8       29     7  55    3.0639   575.8    3.692      47.977
2015    8       29     8   2    3.0605   575.8    3.689      47.924
2015    8       29     8  10    3.0571   575.7    3.685      47.870
2015    8       29     8  18    3.0537   575.6    3.682      47.817
2015    8       29     8  26    3.0503   575.5    3.679      47.763
2015    8       29     8  33    3.0470   575.4    3.676      47.710
2015    8       29     8  41    3.0436   575.3    3.673      47.656
2015    8       29     8  49    3.0403   575.2    3.670      47.602
2015    8       29     8  56    3.0370   575.1    3.667      47.547
2015    8       29     9   4    3.0338   575.0    3.664      47.493
2015    8       29     9  12    3.0305   574.9    3.661      47.438
2015    8       29     9  19    3.0273   574.8    3.658      47.383
2015    8       29     9  27    3.0241   574.7    3.655      47.327
2015    8       29     9  35    3.0209   574.6    3.652      47.272
2015    8       29     9  42    3.0177   574.5    3.649      47.217
2015    8       29     9  50    3.0146   574.4    3.646      47.162
2015    8       29     9  58    3.0114   574.3    3.643      47.107
2015    8       29    10   5    3.0084   574.2    3.640      47.053
2015    8       29    10  13    3.0053   574.1    3.637      46.998
2015    8       29    10  21    3.0023   574.0    3.635      46.945
2015    8       29    10  28    2.9993   573.9    3.632      46.891
2015    8       29    10  36    2.9963   573.8    3.630      46.839
2015    8       29    10  44    2.9934   573.6    3.627      46.787
2015    8       29    10  51    2.9905   573.5    3.625      46.737
2015    8       29    10  59    2.9876   573.4    3.623      46.687
2015    8       29    11   7    2.9848   573.3    3.621      46.638
2015    8       29    11  14    2.9820   573.2    3.619      46.590
2015    8       29    11  22    2.9792   573.1    3.617      46.543
2015    8       29    11  30    2.9765   572.9    3.615      46.496
2015    8       29    11  37    2.9738   572.8    3.614      46.452
2015    8       29    11  45    2.9711   572.7    3.612      46.407
2015    8       29    11  53    2.9685   572.6    3.611      46.364
2015    8       29    12   0    2.9658   572.5    3.610      46.321
2015    8       29    12   8    2.9632   572.4    3.608      46.280
2015    8       29    12  16    2.9606   572.2    3.607      46.238
2015    8       29    12  23    2.9580   572.1    3.606      46.198
2015    8       29    12  31    2.9554   572.0    3.605      46.157
2015    8       29    12  39    2.9528   571.9    3.604      46.119
2015    8       29    12  46    2.9501   571.8    3.603      46.080
2015    8       29    12  54    2.9475   571.6    3.602      46.042
2015    8       29    13   2    2.9448   571.5    3.601      46.003
2015    8       29    13   9    2.9421   571.4    3.600      45.965
2015    8       29    13  17    2.9394   571.3    3.598      45.926
2015    8       29    13  25    2.9368   571.2    3.597      45.887
2015    8       29    13  33    2.9341   571.1    3.596      45.847
2015    8       29    13  40    2.9314   571.0    3.594      45.807
2015    8       29    13  48    2.9287   570.8    3.593      45.766
2015    8       29    13  56    2.9261   570.7    3.592      45.725
2015    8       29    14   3    2.9234   570.6    3.590      45.683
2015    8       29    14  11    2.9208   570.5    3.589      45.642
2015    8       29    14  19    2.9182   570.3    3.588      45.600
2015    8       29    14  26    2.9156   570.2    3.586      45.558
2015    8       29    14  34    2.9130   570.1    3.585      45.515
2015    8       29    14  42    2.9105   570.0    3.583      45.473
2015    8       29    14  49    2.9080   569.9    3.582      45.429
2015    8       29    14  57    2.9055   569.7    3.581      45.387
2015    8       29    15   5    2.9030   569.6    3.579      45.343
2015    8       29    15  12    2.9006   569.5    3.578      45.300
2015    8       29    15  20    2.8981   569.4    3.576      45.257
2015    8       29    15  28    2.8958   569.2    3.575      45.214
2015    8       29    15  35    2.8934   569.1    3.574      45.171
2015    8       29    15  43    2.8910   569.0    3.572      45.128
2015    8       29    15  51    2.8886   568.8    3.570      45.083
2015    8       29    15  58    2.8863   568.7    3.569      45.039
2015    8       29    16   6    2.8839   568.6    3.567      44.993
2015    8       29    16  14    2.8816   568.5    3.565      44.947
2015    8       29    16  21    2.8793   568.3    3.563      44.901
2015    8       29    16  29    2.8770   568.2    3.561      44.853
2015    8       29    16  37    2.8747   568.0    3.559      44.805
2015    8       29    16  44    2.8724   567.9    3.557      44.757
2015    8       29    16  52    2.8701   567.8    3.555      44.708
2015    8       29    17   0    2.8679   567.6    3.553      44.659
2015    8       29    17   7    2.8657   567.5    3.551      44.609
2015    8       29    17  15    2.8634   567.4    3.549      44.559
2015    8       29    17  23    2.8613   567.2    3.547      44.509
2015    8       29    17  30    2.8591   567.1    3.545      44.459
2015    8       29    17  38    2.8569   566.9    3.543      44.408
2015    8       29    17  46    2.8548   566.8    3.541      44.359
2015    8       29    17  53    2.8527   566.6    3.539      44.309
2015    8       29    18   1    2.8506   566.5    3.537      44.259
2015    8       29    18   9    2.8485   566.3    3.535      44.210
2015    8       29    18  16    2.8465   566.2    3.533      44.161
2015    8       29    18  24    2.8445   566.0    3.532      44.113
2015    8       29    18  32    2.8424   565.9    3.530      44.065
2015    8       29    18  40    2.8404   565.7    3.529      44.017
2015    8       29    18  47    2.8385   565.6    3.527      43.971
2015    8       29    18  55    2.8365   565.4    3.526      43.924
2015    8       29    19   3    2.8345   565.3    3.525      43.878
2015    8       29    19  10    2.8326   565.1    3.523      43.833
2015    8       29    19  18    2.8306   565.0    3.522      43.788
2015    8       29    19  26    2.8287   564.8    3.521      43.743
2015    8       29    19  33    2.8268   564.7    3.520      43.700
2015    8       29    19  41    2.8248   564.5    3.519      43.656
2015    8       29    19  49    2.8229   564.3    3.519      43.613
2015    8       29    19  56    2.8209   564.2    3.518      43.571
2015    8       29    20   4    2.8189   564.0    3.517      43.530
2015    8       29    20  12    2.8169   563.9    3.516      43.489
2015    8       29    20  19    2.8149   563.7    3.515      43.448
2015    8       29    20  27    2.8129   563.6    3.515      43.407
2015    8       29    20  35    2.8109   563.4    3.514      43.367
2015    8       29    20  42    2.8088   563.3    3.513      43.327
2015    8       29    20  50    2.8068   563.1    3.513      43.287
2015    8       29    20  58    2.8048   562.9    3.512      43.247
2015    8       29    21   5    2.8028   562.8    3.511      43.207
2015    8       29    21  13    2.8008   562.6    3.511      43.168
2015    8       29    21  21    2.7988   562.5    3.511      43.130
2015    8       29    21  29    2.7968   562.3    3.510      43.092
2015    8       29    21  36    2.7949   562.2    3.510      43.055
2015    8       29    21  44    2.7930   562.0    3.510      43.018
2015    8       29    21  52    2.7911   561.8    3.510      42.983
2015    8       29    21  59    2.7892   561.7    3.510      42.947
2015    8       29    22   7    2.7873   561.5    3.510      42.913
2015    8       29    22  15    2.7855   561.4    3.510      42.880
2015    8       29    22  22    2.7837   561.2    3.511      42.848
2015    8       29    22  30    2.7820   561.1    3.511      42.816
2015    8       29    22  38    2.7803   560.9    3.512      42.786
2015    8       29    22  45    2.7786   560.7    3.513      42.757
2015    8       29    22  53    2.7769   560.6    3.514      42.730
2015    8       29    23   1    2.7753   560.4    3.514      42.702
2015    8       29    23   8    2.7736   560.3    3.515      42.675
2015    8       29    23  16    2.7719   560.1    3.515      42.646
2015    8       29    23  24    2.7703   560.0    3.516      42.617
2015    8       29    23  31    2.7686   559.8    3.516      42.587
2015    8       29    23  39    2.7670   559.7    3.516      42.556
2015    8       29    23  47    2.7654   559.5    3.516      42.525
2015    8       29    23  54    2.7638   559.3    3.516      42.492
2015    8       30     0   2    2.7622   559.2    3.516      42.459
2015    8       30     0  10    2.7606   559.0    3.516      42.425
2015    8       30     0  17    2.7590   558.9    3.516      42.390
2015    8       30     0  25    2.7575   558.7    3.516      42.356
2015    8       30     0  33    2.7559   558.6    3.516      42.320
2015    8       30     0  40    2.7544   558.4    3.516      42.285
2015    8       30     0  48    2.7528   558.2    3.515      42.248
2015    8       30     0  56    2.7512   558.1    3.515      42.211
2015    8       30     1   3    2.7496   557.9    3.514      42.173
2015    8       30     1  11    2.7481   557.8    3.513      42.134
2015    8       30     1  19    2.7465   557.6    3.513      42.094
2015    8       30     1  26    2.7449   557.5    3.512      42.053
2015    8       30     1  34    2.7433   557.3    3.510      42.011
2015    8       30     1  42    2.7416   557.2    3.509      41.969
2015    8       30     1  49    2.7400   557.0    3.508      41.925
2015    8       30     1  57    2.7384   556.8    3.507      41.881
2015    8       30     2   5    2.7367   556.7    3.506      41.836
2015    8       30     2  12    2.7351   556.5    3.504      41.791
2015    8       30     2  20    2.7334   556.4    3.503      41.745
2015    8       30     2  28    2.7318   556.2    3.501      41.698
2015    8       30     2  35    2.7301   556.0    3.500      41.651
2015    8       30     2  43    2.7285   555.9    3.498      41.604
2015    8       30     2  51    2.7268   555.7    3.497      41.556
2015    8       30     2  58    2.7251   555.5    3.495      41.508
2015    8       30     3   6    2.7234   555.4    3.493      41.459
2015    8       30     3  14    2.7217   555.2    3.492      41.410
2015    8       30     3  22    2.7200   555.0    3.490      41.361
2015    8       30     3  29    2.7183   554.9    3.488      41.313
2015    8       30     3  37    2.7166   554.7    3.487      41.263
2015    8       30     3  45    2.7149   554.5    3.485      41.214
2015    8       30     3  52    2.7132   554.3    3.483      41.165
2015    8       30     4   0    2.7115   554.2    3.482      41.116
2015    8       30     4   8    2.7098   554.0    3.480      41.067
2015    8       30     4  15    2.7081   553.8    3.479      41.019
2015    8       30     4  23    2.7064   553.6    3.477      40.971
2015    8       30     4  31    2.7047   553.4    3.476      40.924
2015    8       30     4  38    2.7030   553.3    3.475      40.877
2015    8       30     4  46    2.7014   553.1    3.474      40.831
2015    8       30     4  54    2.6997   552.9    3.473      40.785
2015    8       30     5   1    2.6980   552.7    3.472      40.741
2015    8       30     5   9    2.6964   552.5    3.471      40.697
2015    8       30     5  17    2.6948   552.3    3.470      40.655
2015    8       30     5  24    2.6932   552.1    3.470      40.614
2015    8       30     5  32    2.6917   552.0    3.470      40.574
2015    8       30     5  40    2.6901   551.8    3.469      40.536
2015    8       30     5  47    2.6886   551.6    3.470      40.499
2015    8       30     5  55    2.6872   551.4    3.470      40.464
2015    8       30     6   3    2.6858   551.2    3.470      40.432
2015    8       30     6  10    2.6843   551.0    3.471      40.401
2015    8       30     6  18    2.6830   550.8    3.472      40.371
2015    8       30     6  26    2.6816   550.6    3.473      40.343
2015    8       30     6  33    2.6802   550.5    3.474      40.315
2015    8       30     6  41    2.6789   550.3    3.475      40.288
2015    8       30     6  49    2.6777   550.1    3.477      40.263
2015    8       30     6  56    2.6764   549.9    3.478      40.238
2015    8       30     7   4    2.6753   549.7    3.480      40.214
2015    8       30     7  12    2.6741   549.5    3.482      40.191
2015    8       30     7  19    2.6731   549.3    3.485      40.172
2015    8       30     7  27    2.6720   549.2    3.487      40.152
2015    8       30     7  35    2.6710   549.0    3.490      40.134
2015    8       30     7  42    2.6699   548.8    3.492      40.117
2015    8       30     7  50    2.6689   548.6    3.494      40.099
2015    8       30     7  58    2.6678   548.5    3.496      40.080
2015    8       30     8   5    2.6667   548.3    3.498      40.061
2015    8       30     8  13    2.6656   548.2    3.500      40.040
2015    8       30     8  21    2.6644   548.0    3.501      40.018
2015    8       30     8  29    2.6633   547.9    3.502      39.994
2015    8       30     8  36    2.6621   547.7    3.503      39.969
2015    8       30     8  44    2.6608   547.5    3.504      39.942
2015    8       30     8  51    2.6595   547.4    3.505      39.914
2015    8       30     8  59    2.6582   547.2    3.505      39.884
2015    8       30     9   7    2.6569   547.1    3.506      39.853
2015    8       30     9  15    2.6556   546.9    3.506      39.821
2015    8       30     9  22    2.6542   546.8    3.506      39.788
2015    8       30     9  30    2.6528   546.6    3.506      39.753
2015    8       30     9  38    2.6513   546.4    3.506      39.717
2015    8       30     9  45    2.6499   546.3    3.505      39.680
2015    8       30     9  53    2.6485   546.1    3.505      39.642
2015    8       30    10   1    2.6470   545.9    3.504      39.603
2015    8       30    10   8    2.6455   545.8    3.503      39.564
2015    8       30    10  16    2.6440   545.6    3.502      39.523
2015    8       30    10  24    2.6426   545.4    3.501      39.481
2015    8       30    10  31    2.6411   545.3    3.500      39.439
2015    8       30    10  39    2.6396   545.1    3.499      39.396
2015    8       30    10  47    2.6381   544.9    3.498      39.352
2015    8       30    10  54    2.6366   544.7    3.497      39.308
2015    8       30    11   2    2.6351   544.6    3.495      39.263
2015    8       30    11  10    2.6336   544.4    3.494      39.217
2015    8       30    11  17    2.6321   544.2    3.493      39.171
2015    8       30    11  25    2.6306   544.0    3.491      39.125
2015    8       30    11  33    2.6291   543.8    3.490      39.078
2015    8       30    11  40    2.6276   543.6    3.488      39.032
2015    8       30    11  48    2.6261   543.4    3.487      38.984
2015    8       30    11  56    2.6247   543.2    3.485      38.937
2015    8       30    12   4    2.6233   543.1    3.484      38.889
2015    8       30    12  11    2.6218   542.9    3.482      38.843
2015    8       30    12  19    2.6204   542.7    3.481      38.796
2015    8       30    12  27    2.6190   542.5    3.479      38.750
2015    8       30    12  34    2.6176   542.3    3.478      38.703
2015    8       30    12  42    2.6162   542.1    3.476      38.657
2015    8       30    12  50    2.6148   541.9    3.475      38.611
2015    8       30    12  57    2.6134   541.7    3.474      38.566
2015    8       30    13   5    2.6121   541.5    3.473      38.520
2015    8       30    13  13    2.6107   541.3    3.471      38.475
2015    8       30    13  20    2.6094   541.1    3.470      38.431
2015    8       30    13  28    2.6081   540.9    3.469      38.388
2015    8       30    13  36    2.6068   540.7    3.469      38.345
2015    8       30    13  43    2.6055   540.5    3.468      38.304
2015    8       30    13  51    2.6043   540.3    3.468      38.263
2015    8       30    13  59    2.6031   540.0    3.468      38.225
2015    8       30    14   6    2.6019   539.8    3.468      38.188
2015    8       30    14  14    2.6008   539.6    3.468      38.153
2015    8       30    14  22    2.5997   539.4    3.469      38.119
2015    8       30    14  29    2.5987   539.2    3.470      38.089
2015    8       30    14  37    2.5978   539.0    3.471      38.061
2015    8       30    14  45    2.5968   538.8    3.473      38.035
2015    8       30    14  52    2.5959   538.6    3.475      38.011
2015    8       30    15   0    2.5950   538.4    3.476      37.989
2015    8       30    15   8    2.5940   538.2    3.478      37.967
2015    8       30    15  15    2.5931   538.0    3.480      37.944
2015    8       30    15  23    2.5922   537.9    3.482      37.922
2015    8       30    15  31    2.5912   537.7    3.484      37.900
2015    8       30    15  38    2.5903   537.5    3.486      37.877
2015    8       30    15  46    2.5893   537.3    3.488      37.854
2015    8       30    15  54    2.5883   537.1    3.490      37.831
2015    8       30    16   1    2.5873   537.0    3.492      37.808
2015    8       30    16   9    2.5863   536.8    3.494      37.784
2015    8       30    16  17    2.5853   536.6    3.496      37.760
2015    8       30    16  24    2.5842   536.4    3.498      37.735
2015    8       30    16  32    2.5831   536.2    3.499      37.710
2015    8       30    16  40    2.5821   536.0    3.501      37.684
2015    8       30    16  47    2.5810   535.9    3.502      37.658
2015    8       30    16  55    2.5798   535.7    3.504      37.630
2015    8       30    17   3    2.5787   535.5    3.505      37.602
2015    8       30    17  10    2.5776   535.3    3.506      37.572
2015    8       30    17  18    2.5765   535.1    3.507      37.542
2015    8       30    17  26    2.5753   534.9    3.508      37.511
2015    8       30    17  33    2.5742   534.7    3.509      37.480
2015    8       30    17  41    2.5731   534.5    3.509      37.448
2015    8       30    17  49    2.5720   534.3    3.510      37.416
2015    8       30    17  57    2.5708   534.1    3.511      37.383
2015    8       30    18   4    2.5697   533.9    3.511      37.350
2015    8       30    18  12    2.5686   533.7    3.512      37.316
2015    8       30    18  20    2.5675   533.6    3.512      37.283
2015    8       30    18  27    2.5664   533.4    3.512      37.248
2015    8       30    18  35    2.5653   533.2    3.513      37.215
2015    8       30    18  43    2.5642   533.0    3.513      37.180
2015    8       30    18  50    2.5632   532.8    3.513      37.146
2015    8       30    18  58    2.5621   532.6    3.513      37.112
2015    8       30    19   6    2.5611   532.4    3.513      37.078
2015    8       30    19  13    2.5601   532.2    3.513      37.043
2015    8       30    19  21    2.5590   532.0    3.513      37.009
2015    8       30    19  29    2.5580   531.8    3.513      36.975
2015    8       30    19  36    2.5570   531.7    3.513      36.941
2015    8       30    19  44    2.5560   531.5    3.513      36.907
2015    8       30    19  52    2.5550   531.3    3.513      36.872
2015    8       30    19  59    2.5540   531.1    3.512      36.837
2015    8       30    20   7    2.5530   530.9    3.512      36.802
2015    8       30    20  15    2.5520   530.7    3.512      36.766
2015    8       30    20  22    2.5509   530.5    3.511      36.730
2015    8       30    20  30    2.5499   530.4    3.511      36.693
2015    8       30    20  38    2.5489   530.2    3.510      36.656
2015    8       30    20  45    2.5478   530.0    3.510      36.618
2015    8       30    20  53    2.5467   529.8    3.509      36.581
2015    8       30    21   1    2.5457   529.6    3.508      36.543
2015    8       30    21   8    2.5446   529.4    3.508      36.505
2015    8       30    21  16    2.5435   529.2    3.507      36.466
2015    8       30    21  24    2.5424   529.0    3.506      36.428
2015    8       30    21  31    2.5414   528.7    3.506      36.390
2015    8       30    21  39    2.5403   528.5    3.505      36.352
2015    8       30    21  47    2.5392   528.3    3.505      36.314
2015    8       30    21  54    2.5382   528.1    3.504      36.277
2015    8       30    22   2    2.5371   527.9    3.504      36.239
2015    8       30    22  10    2.5361   527.7    3.504      36.203
2015    8       30    22  17    2.5351   527.5    3.504      36.166
2015    8       30    22  25    2.5341   527.3    3.504      36.130
2015    8       30    22  33    2.5331   527.1    3.504      36.095
2015    8       30    22  40    2.5321   526.9    3.504      36.060
2015    8       30    22  48    2.5311   526.7    3.504      36.026
2015    8       30    22  56    2.5302   526.4    3.505      35.992
2015    8       30    23   3    2.5293   526.2    3.506      35.959
2015    8       30    23  11    2.5283   526.0    3.507      35.926
2015    8       30    23  19    2.5274   525.8    3.508      35.894
2015    8       30    23  26    2.5265   525.6    3.509      35.863
2015    8       30    23  34    2.5257   525.4    3.510      35.832
2015    8       30    23  42    2.5248   525.2    3.511      35.803
2015    8       30    23  49    2.5240   525.0    3.513      35.773
2015    8       30    23  57    2.5232   524.7    3.514      35.744
2015    8       31     0   5    2.5224   524.5    3.515      35.715
2015    8       31     0  12    2.5216   524.3    3.517      35.686
2015    8       31     0  20    2.5208   524.1    3.518      35.657
2015    8       31     0  28    2.5201   523.9    3.520      35.629
2015    8       31     0  36    2.5194   523.7    3.521      35.601
2015    8       31     0  43    2.5186   523.5    3.523      35.573
2015    8       31     0  51    2.5179   523.3    3.524      35.545
2015    8       31     0  59    2.5172   523.1    3.526      35.518
2015    8       31     1   6    2.5165   522.9    3.528      35.490
2015    8       31     1  14    2.5158   522.7    3.530      35.464
2015    8       31     1  22    2.5151   522.5    3.531      35.437
2015    8       31     1  29    2.5145   522.3    3.533      35.411
2015    8       31     1  37    2.5138   522.1    3.535      35.384
2015    8       31     1  45    2.5131   521.9    3.536      35.358
2015    8       31     1  52    2.5124   521.7    3.538      35.332
2015    8       31     2   0    2.5116   521.5    3.540      35.306
2015    8       31     2   8    2.5109   521.3    3.541      35.280
2015    8       31     2  15    2.5102   521.1    3.543      35.254
2015    8       31     2  23    2.5094   520.9    3.544      35.228
2015    8       31     2  31    2.5086   520.7    3.546      35.202
2015    8       31     2  38    2.5079   520.5    3.547      35.176
2015    8       31     2  46    2.5071   520.3    3.549      35.150
2015    8       31     2  54    2.5064   520.1    3.550      35.123
2015    8       31     3   1    2.5056   519.9    3.551      35.097
2015    8       31     3   9    2.5048   519.7    3.552      35.071
2015    8       31     3  17    2.5041   519.5    3.554      35.045
2015    8       31     3  24    2.5033   519.3    3.555      35.018
2015    8       31     3  32    2.5026   519.2    3.556      34.992
2015    8       31     3  40    2.5018   519.0    3.557      34.965
2015    8       31     3  47    2.5011   518.8    3.558      34.938
2015    8       31     3  55    2.5003   518.6    3.559      34.911
2015    8       31     4   3    2.4995   518.4    3.560      34.885
2015    8       31     4  10    2.4987   518.2    3.561      34.858
2015    8       31     4  18    2.4979   518.0    3.562      34.831
2015    8       31     4  26    2.4971   517.8    3.563      34.804
2015    8       31     4  33    2.4963   517.6    3.564      34.778
2015    8       31     4  41    2.4955   517.4    3.564      34.750
2015    8       31     4  49    2.4947   517.2    3.565      34.723
2015    8       31     4  56    2.4939   517.0    3.566      34.694
2015    8       31     5   4    2.4931   516.8    3.566      34.666
2015    8       31     5  12    2.4922   516.6    3.567      34.637
2015    8       31     5  19    2.4914   516.4    3.567      34.608
2015    8       31     5  27    2.4906   516.2    3.567      34.578
2015    8       31     5  35    2.4898   516.0    3.567      34.548
2015    8       31     5  43    2.4890   515.8    3.568      34.517
2015    8       31     5  50    2.4882   515.6    3.568      34.486
2015    8       31     5  58    2.4873   515.4    3.568      34.454
2015    8       31     6   5    2.4865   515.2    3.568      34.422
2015    8       31     6  13    2.4857   515.0    3.568      34.390
2015    8       31     6  21    2.4849   514.8    3.568      34.357
2015    8       31     6  29    2.4841   514.6    3.568      34.324
2015    8       31     6  36    2.4833   514.3    3.568      34.291
2015    8       31     6  44    2.4825   514.1    3.567      34.258
2015    8       31     6  52    2.4817   513.9    3.567      34.225
2015    8       31     6  59    2.4810   513.7    3.567      34.191
2015    8       31     7   7    2.4802   513.5    3.568      34.159
2015    8       31     7  15    2.4795   513.3    3.568      34.126
2015    8       31     7  22    2.4788   513.1    3.568      34.094
2015    8       31     7  30    2.4781   512.9    3.568      34.062
2015    8       31     7  38    2.4774   512.7    3.569      34.031
2015    8       31     7  45    2.4768   512.5    3.569      33.999
2015    8       31     7  53    2.4761   512.3    3.570      33.969
2015    8       31     8   1    2.4755   512.1    3.570      33.938
2015    8       31     8   8    2.4749   511.9    3.571      33.909
2015    8       31     8  16    2.4742   511.6    3.572      33.880
2015    8       31     8  24    2.4736   511.4    3.573      33.851
2015    8       31     8  31    2.4730   511.2    3.574      33.822
2015    8       31     8  39    2.4724   511.0    3.575      33.794
2015    8       31     8  47    2.4718   510.8    3.576      33.766
2015    8       31     8  54    2.4712   510.6    3.577      33.738
2015    8       31     9   2    2.4706   510.4    3.579      33.711
2015    8       31     9  10    2.4701   510.2    3.580      33.684
2015    8       31     9  17    2.4695   510.0    3.582      33.657
2015    8       31     9  25    2.4689   509.8    3.583      33.632
2015    8       31     9  33    2.4683   509.6    3.585      33.607
2015    8       31     9  40    2.4677   509.3    3.587      33.584
2015    8       31     9  48    2.4671   509.1    3.589      33.560
2015    8       31     9  56    2.4665   508.9    3.590      33.538
2015    8       31    10   4    2.4659   508.7    3.592      33.516
2015    8       31    10  11    2.4654   508.5    3.594      33.494
2015    8       31    10  19    2.4648   508.3    3.596      33.472
2015    8       31    10  27    2.4643   508.1    3.598      33.450
2015    8       31    10  34    2.4638   507.9    3.600      33.429
2015    8       31    10  42    2.4633   507.7    3.602      33.408
2015    8       31    10  50    2.4628   507.4    3.604      33.387
2015    8       31    10  57    2.4624   507.2    3.607      33.367
2015    8       31    11   5    2.4619   507.0    3.609      33.346
2015    8       31    11  13    2.4615   506.8    3.611      33.327
2015    8       31    11  20    2.4611   506.6    3.614      33.306
2015    8       31    11  28    2.4607   506.5    3.616      33.286
2015    8       31    11  36    2.4603   506.3    3.619      33.266
2015    8       31    11  43    2.4598   506.1    3.621      33.246
2015    8       31    11  51    2.4594   505.9    3.624      33.226
2015    8       31    11  59    2.4589   505.7    3.626      33.206
2015    8       31    12   6    2.4584   505.5    3.628      33.187
2015    8       31    12  14    2.4580   505.3    3.630      33.166
2015    8       31    12  22    2.4575   505.1    3.632      33.146
2015    8       31    12  29    2.4570   504.9    3.634      33.125
2015    8       31    12  37    2.4565   504.7    3.636      33.103
2015    8       31    12  45    2.4560   504.5    3.638      33.082
2015    8       31    12  52    2.4555   504.3    3.640      33.060
2015    8       31    13   0    2.4550   504.1    3.642      33.038
2015    8       31    13   8    2.4545   503.9    3.643      33.016
2015    8       31    13  15    2.4540   503.7    3.645      32.993
2015    8       31    13  23    2.4535   503.5    3.646      32.970
2015    8       31    13  31    2.4529   503.3    3.648      32.947
2015    8       31    13  38    2.4524   503.1    3.649      32.923
2015    8       31    13  46    2.4519   502.9    3.651      32.899
2015    8       31    13  54    2.4514   502.7    3.652      32.874
2015    8       31    14   1    2.4509   502.5    3.653      32.850
2015    8       31    14   9    2.4503   502.3    3.654      32.825
2015    8       31    14  17    2.4498   502.1    3.655      32.799
2015    8       31    14  24    2.4493   501.9    3.656      32.773
2015    8       31    14  32    2.4487   501.7    3.657      32.747
2015    8       31    14  40    2.4482   501.4    3.658      32.720
2015    8       31    14  47    2.4477   501.2    3.659      32.694
2015    8       31    14  55    2.4471   501.0    3.660      32.667
2015    8       31    15   3    2.4466   500.8    3.661      32.641
2015    8       31    15  10    2.4461   500.6    3.662      32.614
2015    8       31    15  18    2.4457   500.4    3.663      32.588
2015    8       31    15  26    2.4452   500.2    3.664      32.562
2015    8       31    15  33    2.4448   500.0    3.666      32.537
2015    8       31    15  41    2.4444   499.8    3.667      32.512
2015    8       31    15  49    2.4440   499.6    3.668      32.488
2015    8       31    15  56    2.4436   499.4    3.670      32.465
2015    8       31    16   4    2.4433   499.2    3.672      32.443
2015    8       31    16  12    2.4430   498.9    3.673      32.422
2015    8       31    16  19    2.4427   498.8    3.675      32.402
2015    8       31    16  27    2.4425   498.6    3.677      32.382
2015    8       31    16  35    2.4422   498.4    3.679      32.363
2015    8       31    16  43    2.4420   498.2    3.682      32.345
2015    8       31    16  50    2.4418   498.0    3.684      32.327
2015    8       31    16  58    2.4415   497.8    3.686      32.309
2015    8       31    17   6    2.4412   497.6    3.689      32.292
2015    8       31    17  13    2.4409   497.4    3.691      32.275
2015    8       31    17  21    2.4406   497.2    3.693      32.258
2015    8       31    17  29    2.4402   497.0    3.696      32.242
2015    8       31    17  36    2.4399   496.8    3.698      32.225
2015    8       31    17  44    2.4395   496.6    3.700      32.208
2015    8       31    17  52    2.4391   496.4    3.702      32.191
2015    8       31    17  59    2.4387   496.2    3.704      32.173
2015    8       31    18   7    2.4384   496.0    3.706      32.155
2015    8       31    18  15    2.4380   495.8    3.708      32.138
2015    8       31    18  22    2.4377   495.6    3.710      32.120
2015    8       31    18  30    2.4373   495.4    3.713      32.102
2015    8       31    18  38    2.4370   495.2    3.715      32.085
2015    8       31    18  45    2.4367   495.0    3.717      32.067
2015    8       31    18  53    2.4364   494.8    3.719      32.051
2015    8       31    19   1    2.4362   494.6    3.722      32.034
2015    8       31    19   8    2.4360   494.4    3.724      32.018
2015    8       31    19  16    2.4358   494.2    3.727      32.002
2015    8       31    19  24    2.4356   494.0    3.729      31.987
2015    8       31    19  31    2.4354   493.8    3.732      31.972
2015    8       31    19  39    2.4352   493.6    3.735      31.958
2015    8       31    19  47    2.4351   493.4    3.737      31.943
2015    8       31    19  54    2.4350   493.2    3.740      31.929
2015    8       31    20   2    2.4348   493.0    3.743      31.916
2015    8       31    20  10    2.4347   492.8    3.746      31.902
2015    8       31    20  17    2.4346   492.6    3.748      31.888
2015    8       31    20  25    2.4344   492.4    3.751      31.875
2015    8       31    20  33    2.4343   492.3    3.754      31.861
2015    8       31    20  40    2.4341   492.1    3.756      31.848
2015    8       31    20  48    2.4339   491.9    3.759      31.833
2015    8       31    20  56    2.4337   491.7    3.762      31.819
2015    8       31    21   3    2.4335   491.5    3.764      31.805
2015    8       31    21  11    2.4333   491.4    3.767      31.790
2015    8       31    21  19    2.4331   491.2    3.769      31.775
2015    8       31    21  26    2.4329   491.0    3.771      31.760
2015    8       31    21  34    2.4327   490.8    3.774      31.744
2015    8       31    21  42    2.4325   490.6    3.776      31.728
2015    8       31    21  49    2.4323   490.5    3.778      31.712
2015    8       31    21  57    2.4320   490.3    3.780      31.695
2015    8       31    22   5    2.4318   490.1    3.782      31.678
2015    8       31    22  12    2.4315   489.9    3.784      31.661
2015    8       31    22  20    2.4312   489.7    3.786      31.643
2015    8       31    22  28    2.4310   489.6    3.788      31.625
2015    8       31    22  35    2.4307   489.4    3.790      31.606
2015    8       31    22  43    2.4304   489.2    3.792      31.587
2015    8       31    22  51    2.4300   489.0    3.793      31.568
2015    8       31    22  58    2.4297   488.8    3.795      31.548
2015    8       31    23   6    2.4294   488.7    3.797      31.528
2015    8       31    23  14    2.4290   488.5    3.798      31.508
2015    8       31    23  22    2.4287   488.3    3.800      31.488
2015    8       31    23  29    2.4283   488.1    3.801      31.467
2015    8       31    23  37    2.4279   487.9    3.803      31.446
2015    8       31    23  45    2.4275   487.8    3.804      31.425
2015    8       31    23  52    2.4272   487.6    3.806      31.404
2015    9        1     0   0    2.4268   487.4    3.807      31.383
2015    9        1     0   8    2.4264   487.2    3.809      31.362
2015    9        1     0  15    2.4260   487.0    3.810      31.341
2015    9        1     0  23    2.4256   486.8    3.812      31.320
2015    9        1     0  31    2.4253   486.7    3.813      31.299
2015    9        1     0  38    2.4249   486.5    3.815      31.278
2015    9        1     0  46    2.4245   486.3    3.817      31.258
2015    9        1     0  54    2.4242   486.1    3.818      31.237
2015    9        1     1   1    2.4238   485.9    3.820      31.217
2015    9        1     1   9    2.4235   485.7    3.822      31.197
2015    9        1     1  17    2.4232   485.5    3.823      31.177
2015    9        1     1  24    2.4228   485.3    3.825      31.157
2015    9        1     1  32    2.4225   485.2    3.827      31.138
2015    9        1     1  40    2.4222   485.0    3.829      31.119
2015    9        1     1  47    2.4219   484.8    3.831      31.100
2015    9        1     1  55    2.4215   484.6    3.833      31.081
2015    9        1     2   3    2.4212   484.4    3.835      31.063
2015    9        1     2  10    2.4209   484.2    3.837      31.045
2015    9        1     2  18    2.4206   484.0    3.839      31.027
2015    9        1     2  26    2.4203   483.8    3.842      31.009
2015    9        1     2  33    2.4200   483.7    3.844      30.992
2015    9        1     2  41    2.4198   483.5    3.846      30.974
2015    9        1     2  49    2.4195   483.3    3.848      30.958
2015    9        1     2  56    2.4192   483.1    3.851      30.941
2015    9        1     3   4    2.4189   482.9    3.853      30.924
2015    9        1     3  12    2.4186   482.7    3.855      30.908
2015    9        1     3  19    2.4184   482.5    3.858      30.892
2015    9        1     3  27    2.4181   482.4    3.860      30.876
2015    9        1     3  35    2.4179   482.2    3.863      30.860
2015    9        1     3  42    2.4176   482.0    3.865      30.845
2015    9        1     3  50    2.4173   481.8    3.868      30.829
2015    9        1     3  58    2.4171   481.6    3.870      30.814
2015    9        1     4   5    2.4168   481.4    3.873      30.799
2015    9        1     4  13    2.4166   481.3    3.876      30.784
2015    9        1     4  21    2.4163   481.1    3.878      30.769
2015    9        1     4  28    2.4161   480.9    3.881      30.754
2015    9        1     4  36    2.4158   480.7    3.884      30.739
2015    9        1     4  44    2.4156   480.5    3.886      30.724
2015    9        1     4  51    2.4154   480.4    3.889      30.710
2015    9        1     4  59    2.4151   480.2    3.892      30.696
2015    9        1     5   7    2.4149   480.0    3.894      30.681
2015    9        1     5  14    2.4146   479.8    3.897      30.667
2015    9        1     5  22    2.4144   479.7    3.900      30.653
2015    9        1     5  30    2.4141   479.5    3.903      30.639
2015    9        1     5  37    2.4139   479.3    3.906      30.625
2015    9        1     5  45    2.4136   479.1    3.908      30.611
2015    9        1     5  53    2.4134   479.0    3.911      30.597
2015    9        1     6   0    2.4131   478.8    3.914      30.583
2015    9        1     6   8    2.4128   478.6    3.917      30.569
2015    9        1     6  16    2.4125   478.4    3.920      30.555
2015    9        1     6  23    2.4122   478.3    3.922      30.542
2015    9        1     6  31    2.4119   478.1    3.925      30.528
2015    9        1     6  39    2.4116   477.9    3.928      30.514
2015    9        1     6  47    2.4113   477.8    3.930      30.499
2015    9        1     6  54    2.4109   477.6    3.933      30.485
2015    9        1     7   2    2.4106   477.4    3.936      30.470
2015    9        1     7  10    2.4102   477.2    3.938      30.456
2015    9        1     7  17    2.4098   477.1    3.941      30.441
2015    9        1     7  25    2.4094   476.9    3.943      30.425
2015    9        1     7  33    2.4090   476.7    3.945      30.410
2015    9        1     7  40    2.4086   476.6    3.948      30.394
2015    9        1     7  48    2.4082   476.4    3.950      30.378
2015    9        1     7  56    2.4077   476.2    3.952      30.362
2015    9        1     8   3    2.4073   476.0    3.954      30.345
2015    9        1     8  11    2.4068   475.9    3.956      30.328
2015    9        1     8  19    2.4064   475.7    3.958      30.311
2015    9        1     8  26    2.4059   475.5    3.960      30.294
2015    9        1     8  34    2.4055   475.3    3.962      30.276
2015    9        1     8  42    2.4050   475.2    3.964      30.258
2015    9        1     8  49    2.4045   475.0    3.966      30.240
2015    9        1     8  57    2.4040   474.8    3.968      30.222
2015    9        1     9   5    2.4035   474.6    3.970      30.204
2015    9        1     9  12    2.4030   474.5    3.971      30.185
2015    9        1     9  20    2.4024   474.3    3.973      30.166
2015    9        1     9  28    2.4019   474.1    3.975      30.148
2015    9        1     9  35    2.4014   473.9    3.977      30.129
2015    9        1     9  43    2.4009   473.7    3.978      30.110
2015    9        1     9  51    2.4003   473.6    3.980      30.091
2015    9        1     9  58    2.3998   473.4    3.982      30.072
2015    9        1    10   6    2.3992   473.2    3.983      30.052
2015    9        1    10  14    2.3986   473.0    3.985      30.033
2015    9        1    10  21    2.3981   472.8    3.987      30.014
2015    9        1    10  29    2.3975   472.7    3.989      29.995
2015    9        1    10  37    2.3969   472.5    3.990      29.976
2015    9        1    10  44    2.3964   472.3    3.992      29.956
2015    9        1    10  52    2.3958   472.1    3.994      29.937
2015    9        1    11   0    2.3952   471.9    3.996      29.918
2015    9        1    11   7    2.3946   471.8    3.998      29.899
2015    9        1    11  15    2.3940   471.6    4.000      29.881
2015    9        1    11  23    2.3934   471.4    4.002      29.862
2015    9        1    11  30    2.3929   471.2    4.004      29.843
2015    9        1    11  38    2.3923   471.0    4.006      29.825
2015    9        1    11  46    2.3917   470.9    4.008      29.806
2015    9        1    11  53    2.3911   470.7    4.010      29.788
2015    9        1    12   1    2.3905   470.5    4.012      29.770
2015    9        1    12   9    2.3899   470.3    4.014      29.752
2015    9        1    12  16    2.3893   470.1    4.016      29.735
2015    9        1    12  24    2.3887   469.9    4.019      29.717
2015    9        1    12  32    2.3882   469.8    4.021      29.700
2015    9        1    12  39    2.3876   469.6    4.023      29.682
2015    9        1    12  47    2.3870   469.4    4.026      29.665
2015    9        1    12  55    2.3864   469.2    4.028      29.648
2015    9        1    13   2    2.3859   469.0    4.031      29.631
2015    9        1    13  10    2.3853   468.9    4.033      29.614
2015    9        1    13  18    2.3847   468.7    4.036      29.598
2015    9        1    13  26    2.3842   468.5    4.039      29.581
2015    9        1    13  33    2.3836   468.3    4.041      29.565
2015    9        1    13  41    2.3830   468.1    4.044      29.549
2015    9        1    13  49    2.3825   468.0    4.047      29.533
2015    9        1    13  56    2.3819   467.8    4.049      29.516
2015    9        1    14   4    2.3813   467.6    4.052      29.500
2015    9        1    14  12    2.3807   467.4    4.055      29.484
2015    9        1    14  19    2.3801   467.2    4.058      29.468
2015    9        1    14  27    2.3794   467.1    4.060      29.451
2015    9        1    14  35    2.3788   466.9    4.063      29.435
2015    9        1    14  42    2.3781   466.7    4.065      29.418
2015    9        1    14  50    2.3774   466.5    4.068      29.401
2015    9        1    14  58    2.3767   466.4    4.071      29.384
2015    9        1    15   5    2.3760   466.2    4.073      29.367
2015    9        1    15  13    2.3753   466.0    4.076      29.350
2015    9        1    15  21    2.3746   465.8    4.078      29.332
2015    9        1    15  28    2.3738   465.6    4.080      29.314
2015    9        1    15  36    2.3731   465.5    4.083      29.297
2015    9        1    15  44    2.3723   465.3    4.085      29.278
2015    9        1    15  51    2.3715   465.1    4.087      29.260
2015    9        1    15  59    2.3707   464.9    4.089      29.241
2015    9        1    16   7    2.3699   464.7    4.091      29.222
2015    9        1    16  14    2.3691   464.6    4.093      29.203
2015    9        1    16  22    2.3683   464.4    4.095      29.183
2015    9        1    16  30    2.3674   464.2    4.097      29.163
2015    9        1    16  37    2.3666   464.0    4.099      29.144
2015    9        1    16  45    2.3657   463.8    4.101      29.124
2015    9        1    16  53    2.3649   463.6    4.103      29.104
2015    9        1    17   0    2.3640   463.4    4.105      29.083
2015    9        1    17   8    2.3631   463.3    4.106      29.063
2015    9        1    17  16    2.3622   463.1    4.108      29.042
2015    9        1    17  23    2.3613   462.9    4.110      29.021
2015    9        1    17  31    2.3604   462.7    4.112      29.001
2015    9        1    17  39    2.3595   462.5    4.113      28.980
2015    9        1    17  46    2.3586   462.3    4.115      28.959
2015    9        1    17  54    2.3577   462.1    4.116      28.938
2015    9        1    18   2    2.3567   461.9    4.118      28.917
2015    9        1    18   9    2.3558   461.7    4.120      28.896
2015    9        1    18  17    2.3548   461.6    4.121      28.874
2015    9        1    18  25    2.3539   461.4    4.123      28.853
2015    9        1    18  32    2.3529   461.2    4.124      28.832
2015    9        1    18  40    2.3520   461.0    4.126      28.811
2015    9        1    18  48    2.3510   460.8    4.128      28.790
2015    9        1    18  55    2.3501   460.6    4.129      28.769
2015    9        1    19   3    2.3491   460.4    4.131      28.747
2015    9        1    19  11    2.3481   460.2    4.132      28.726
2015    9        1    19  18    2.3472   460.0    4.134      28.705
2015    9        1    19  26    2.3462   459.8    4.136      28.684
2015    9        1    19  34    2.3452   459.6    4.137      28.663
2015    9        1    19  41    2.3443   459.4    4.139      28.642
2015    9        1    19  49    2.3433   459.2    4.141      28.621
2015    9        1    19  57    2.3424   459.0    4.143      28.600
2015    9        1    20   4    2.3414   458.8    4.145      28.579
2015    9        1    20  12    2.3404   458.6    4.146      28.558
2015    9        1    20  20    2.3395   458.4    4.148      28.537
2015    9        1    20  27    2.3385   458.2    4.150      28.516
2015    9        1    20  35    2.3376   458.0    4.152      28.495
2015    9        1    20  43    2.3367   457.8    4.154      28.475
2015    9        1    20  51    2.3357   457.6    4.156      28.454
2015    9        1    20  58    2.3348   457.4    4.158      28.434
2015    9        1    21   6    2.3338   457.2    4.161      28.413
2015    9        1    21  14    2.3329   457.0    4.163      28.393
2015    9        1    21  21    2.3320   456.8    4.165      28.372
2015    9        1    21  29    2.3311   456.6    4.167      28.352
2015    9        1    21  37    2.3301   456.4    4.170      28.332
2015    9        1    21  44    2.3292   456.2    4.172      28.312
2015    9        1    21  52    2.3283   456.0    4.174      28.291
2015    9        1    22   0    2.3274   455.8    4.177      28.272
2015    9        1    22   7    2.3264   455.6    4.179      28.251
2015    9        1    22  15    2.3255   455.4    4.181      28.231
2015    9        1    22  23    2.3246   455.2    4.184      28.211
2015    9        1    22  30    2.3236   455.1    4.186      28.191
2015    9        1    22  38    2.3227   454.9    4.189      28.171
2015    9        1    22  46    2.3217   454.6    4.191      28.151
2015    9        1    22  53    2.3207   454.4    4.193      28.131
2015    9        1    23   1    2.3198   454.2    4.196      28.111
2015    9        1    23   9    2.3188   454.0    4.198      28.090
2015    9        1    23  16    2.3178   453.8    4.201      28.070
2015    9        1    23  24    2.3168   453.6    4.203      28.049
2015    9        1    23  32    2.3158   453.4    4.205      28.029
2015    9        1    23  39    2.3148   453.2    4.208      28.008
2015    9        1    23  47    2.3138   453.0    4.210      27.988
2015    9        1    23  55    2.3128   452.8    4.212      27.966
2015    9        2     0   2    2.3118   452.6    4.215      27.946
2015    9        2     0  10    2.3108   452.4    4.217      27.925
2015    9        2     0  18    2.3098   452.2    4.219      27.904
2015    9        2     0  25    2.3088   452.0    4.222      27.882
2015    9        2     0  33    2.3078   451.8    4.224      27.861
2015    9        2     0  41    2.3068   451.6    4.226      27.840
2015    9        2     0  48    2.3058   451.4    4.228      27.818
2015    9        2     0  56    2.3047   451.2    4.231      27.797
2015    9        2     1   4    2.3037   451.0    4.233      27.775
2015    9        2     1  11    2.3027   450.8    4.235      27.753
2015    9        2     1  19    2.3017   450.6    4.237      27.732
2015    9        2     1  27    2.3007   450.3    4.240      27.710
2015    9        2     1  34    2.2997   450.1    4.242      27.688
2015    9        2     1  42    2.2987   449.9    4.244      27.666
2015    9        2     1  50    2.2977   449.7    4.246      27.644
2015    9        2     1  57    2.2967   449.5    4.248      27.622
2015    9        2     2   5    2.2957   449.3    4.251      27.600
2015    9        2     2  13    2.2946   449.1    4.253      27.577
2015    9        2     2  20    2.2937   448.9    4.255      27.555
2015    9        2     2  28    2.2927   448.6    4.257      27.533
2015    9        2     2  36    2.2917   448.4    4.259      27.511
2015    9        2     2  43    2.2907   448.2    4.262      27.488
2015    9        2     2  51    2.2897   448.0    4.264      27.466
2015    9        2     2  59    2.2887   447.8    4.266      27.444
2015    9        2     3   6    2.2878   447.6    4.268      27.421
2015    9        2     3  14    2.2868   447.3    4.271      27.398
2015    9        2     3  22    2.2858   447.1    4.273      27.376
2015    9        2     3  29    2.2848   446.9    4.275      27.353
2015    9        2     3  37    2.2839   446.7    4.277      27.331
2015    9        2     3  45    2.2829   446.5    4.280      27.308
2015    9        2     3  52    2.2819   446.3    4.282      27.285
2015    9        2     4   0    2.2809   446.0    4.284      27.262
2015    9        2     4   8    2.2800   445.8    4.286      27.239
2015    9        2     4  16    2.2790   445.6    4.289      27.216
2015    9        2     4  23    2.2780   445.4    4.291      27.193
2015    9        2     4  31    2.2771   445.1    4.293      27.169
2015    9        2     4  39    2.2761   444.9    4.296      27.146
2015    9        2     4  46    2.2751   444.7    4.298      27.122
2015    9        2     4  54    2.2742   444.5    4.300      27.099
2015    9        2     5   2    2.2732   444.3    4.303      27.075
2015    9        2     5   9    2.2722   444.0    4.305      27.052
2015    9        2     5  17    2.2713   443.8    4.307      27.028
2015    9        2     5  25    2.2703   443.6    4.309      27.004
2015    9        2     5  32    2.2693   443.3    4.312      26.980
2015    9        2     5  40    2.2684   443.1    4.314      26.957
2015    9        2     5  48    2.2674   442.9    4.317      26.933
2015    9        2     5  55    2.2665   442.7    4.319      26.909
2015    9        2     6   3    2.2656   442.4    4.321      26.885
2015    9        2     6  11    2.2646   442.2    4.324      26.862
2015    9        2     6  18    2.2637   442.0    4.327      26.838
2015    9        2     6  26    2.2628   441.7    4.329      26.814
2015    9        2     6  34    2.2619   441.5    4.332      26.791
2015    9        2     6  41    2.2610   441.3    4.334      26.767
2015    9        2     6  49    2.2601   441.0    4.337      26.744
2015    9        2     6  57    2.2593   440.8    4.340      26.721
2015    9        2     7   4    2.2584   440.6    4.343      26.698
2015    9        2     7  12    2.2575   440.4    4.345      26.675
2015    9        2     7  20    2.2567   440.1    4.348      26.651
2015    9        2     7  27    2.2559   439.9    4.351      26.629
2015    9        2     7  35    2.2551   439.7    4.354      26.606
2015    9        2     7  43    2.2542   439.4    4.357      26.583
2015    9        2     7  50    2.2534   439.2    4.360      26.561
2015    9        2     7  58    2.2527   439.0    4.363      26.538
2015    9        2     8   6    2.2519   438.7    4.367      26.516
2015    9        2     8  13    2.2512   438.5    4.370      26.494
2015    9        2     8  21    2.2504   438.2    4.373      26.472
2015    9        2     8  29    2.2497   438.0    4.377      26.450
2015    9        2     8  36    2.2490   437.8    4.380      26.428
2015    9        2     8  44    2.2483   437.5    4.383      26.406
2015    9        2     8  52    2.2476   437.3    4.387      26.384
2015    9        2     8  59    2.2469   437.1    4.391      26.363
2015    9        2     9   7    2.2462   436.8    4.394      26.341
2015    9        2     9  15    2.2456   436.6    4.398      26.320
2015    9        2     9  22    2.2450   436.4    4.401      26.298
2015    9        2     9  30    2.2443   436.1    4.405      26.277
2015    9        2     9  38    2.2437   435.9    4.409      26.255
2015    9        2     9  45    2.2431   435.6    4.413      26.234
2015    9        2     9  53    2.2425   435.4    4.417      26.212
2015    9        2    10   1    2.2420   435.2    4.420      26.191
2015    9        2    10   8    2.2414   434.9    4.424      26.169
2015    9        2    10  16    2.2408   434.7    4.428      26.148
2015    9        2    10  24    2.2403   434.5    4.432      26.127
2015    9        2    10  31    2.2397   434.2    4.436      26.106
2015    9        2    10  39    2.2392   434.0    4.440      26.084
2015    9        2    10  47    2.2387   433.7    4.444      26.063
2015    9        2    10  54    2.2382   433.5    4.448      26.041
2015    9        2    11   2    2.2376   433.2    4.452      26.020
2015    9        2    11  10    2.2371   433.0    4.456      25.998
2015    9        2    11  17    2.2367   432.8    4.460      25.977
2015    9        2    11  25    2.2362   432.5    4.464      25.955
2015    9        2    11  33    2.2357   432.3    4.469      25.933
2015    9        2    11  41    2.2352   432.0    4.473      25.911
2015    9        2    11  48    2.2348   431.8    4.477      25.890
2015    9        2    11  56    2.2343   431.5    4.481      25.868
2015    9        2    12   4    2.2339   431.3    4.485      25.846
2015    9        2    12  11    2.2335   431.0    4.490      25.823
2015    9        2    12  19    2.2331   430.8    4.494      25.802
2015    9        2    12  27    2.2327   430.5    4.498      25.779
2015    9        2    12  34    2.2323   430.3    4.502      25.757
2015    9        2    12  42    2.2319   430.0    4.507      25.735
2015    9        2    12  50    2.2316   429.8    4.511      25.712
2015    9        2    12  57    2.2312   429.5    4.516      25.690
2015    9        2    13   5    2.2309   429.3    4.520      25.668
2015    9        2    13  13    2.2306   429.0    4.525      25.645
2015    9        2    13  20    2.2303   428.8    4.529      25.623
2015    9        2    13  28    2.2301   428.5    4.534      25.601
2015    9        2    13  36    2.2298   428.3    4.538      25.579
2015    9        2    13  43    2.2296   428.0    4.543      25.557
2015    9        2    13  51    2.2294   427.8    4.548      25.535
2015    9        2    13  59    2.2292   427.5    4.553      25.513
2015    9        2    14   6    2.2290   427.2    4.557      25.491
2015    9        2    14  14    2.2289   427.0    4.562      25.469
2015    9        2    14  22    2.2288   426.7    4.567      25.448
2015    9        2    14  29    2.2287   426.5    4.573      25.426
2015    9        2    14  37    2.2287   426.2    4.578      25.405
2015    9        2    14  45    2.2286   426.0    4.583      25.384
2015    9        2    14  52    2.2286   425.7    4.588      25.363
2015    9        2    15   0    2.2286   425.5    4.594      25.342
2015    9        2    15   8    2.2287   425.2    4.599      25.322
2015    9        2    15  15    2.2287   424.9    4.605      25.301
2015    9        2    15  23    2.2288   424.7    4.610      25.281
2015    9        2    15  31    2.2290   424.4    4.616      25.261
2015    9        2    15  38    2.2291   424.2    4.622      25.241
2015    9        2    15  46    2.2293   423.9    4.628      25.221
2015    9        2    15  54    2.2295   423.7    4.634      25.202
2015    9        2    16   1    2.2298   423.4    4.640      25.183
2015    9        2    16   9    2.2300   423.1    4.646      25.164
2015    9        2    16  17    2.2303   422.9    4.652      25.145
2015    9        2    16  24    2.2307   422.6    4.658      25.126
2015    9        2    16  32    2.2310   422.4    4.665      25.108
2015    9        2    16  40    2.2314   422.1    4.671      25.089
2015    9        2    16  47    2.2319   421.9    4.678      25.071
2015    9        2    16  55    2.2323   421.6    4.684      25.053
2015    9        2    17   3    2.2328   421.3    4.691      25.035
2015    9        2    17  10    2.2333   421.1    4.698      25.018
2015    9        2    17  18    2.2339   420.8    4.705      25.000
2015    9        2    17  26    2.2344   420.6    4.712      24.983
2015    9        2    17  33    2.2351   420.3    4.719      24.966
2015    9        2    17  41    2.2357   420.1    4.726      24.950
2015    9        2    17  49    2.2364   419.8    4.733      24.933
2015    9        2    17  56    2.2371   419.5    4.740      24.917
2015    9        2    18   4    2.2379   419.3    4.748      24.900
2015    9        2    18  12    2.2387   419.0    4.755      24.884
2015    9        2    18  19    2.2395   418.8    4.763      24.868
2015    9        2    18  27    2.2404   418.5    4.770      24.853
2015    9        2    18  35    2.2413   418.3    4.778      24.837
2015    9        2    18  42    2.2422   418.0    4.786      24.822
2015    9        2    18  50    2.2433   417.7    4.794      24.807
2015    9        2    18  58    2.2443   417.5    4.802      24.792
2015    9        2    19   6    2.2454   417.2    4.810      24.778
2015    9        2    19  13    2.2465   417.0    4.818      24.763
2015    9        2    19  21    2.2476   416.7    4.826      24.749
2015    9        2    19  29    2.2488   416.5    4.835      24.735
2015    9        2    19  36    2.2501   416.2    4.843      24.721
2015    9        2    19  44    2.2513   416.0    4.852      24.708
2015    9        2    19  52    2.2527   415.7    4.861      24.695
2015    9        2    19  59    2.2541   415.5    4.869      24.682
2015    9        2    20   7    2.2555   415.2    4.878      24.669
2015    9        2    20  15    2.2570   414.9    4.887      24.657
2015    9        2    20  22    2.2585   414.7    4.896      24.644
2015    9        2    20  30    2.2601   414.4    4.905      24.632
2015    9        2    20  38    2.2617   414.2    4.914      24.620
2015    9        2    20  45    2.2633   413.9    4.924      24.609
2015    9        2    20  53    2.2651   413.7    4.933      24.598
2015    9        2    21   1    2.2668   413.4    4.943      24.587
2015    9        2    21   8    2.2686   413.2    4.952      24.576
2015    9        2    21  16    2.2705   412.9    4.962      24.565
2015    9        2    21  24    2.2724   412.7    4.972      24.554
2015    9        2    21  31    2.2743   412.4    4.982      24.544
2015    9        2    21  39    2.2764   412.2    4.992      24.534
2015    9        2    21  47    2.2784   412.0    5.002      24.524
2015    9        2    21  54    2.2805   411.7    5.012      24.515
2015    9        2    22   2    2.2826   411.5    5.022      24.505
2015    9        2    22  10    2.2848   411.2    5.032      24.496
2015    9        2    22  17    2.2870   411.0    5.043      24.487
2015    9        2    22  25    2.2894   410.7    5.053      24.478
2015    9        2    22  33    2.2917   410.5    5.064      24.469
2015    9        2    22  40    2.2940   410.2    5.074      24.460
2015    9        2    22  48    2.2964   410.0    5.085      24.452
2015    9        2    22  56    2.2989   409.8    5.096      24.444
2015    9        2    23   3    2.3014   409.5    5.107      24.436
2015    9        2    23  11    2.3040   409.3    5.118      24.428
2015    9        2    23  19    2.3066   409.0    5.129      24.420
2015    9        2    23  26    2.3092   408.8    5.140      24.412
2015    9        2    23  34    2.3119   408.6    5.151      24.405
2015    9        2    23  42    2.3146   408.3    5.162      24.397
2015    9        2    23  49    2.3174   408.1    5.173      24.390
2015    9        2    23  57    2.3202   407.8    5.185      24.383
2015    9        3     0   5    2.3231   407.6    5.196      24.376
2015    9        3     0  12    2.3260   407.4    5.208      24.369
2015    9        3     0  20    2.3289   407.1    5.220      24.363
2015    9        3     0  28    2.3320   406.9    5.231      24.357
2015    9        3     0  35    2.3350   406.7    5.243      24.351
2015    9        3     0  43    2.3382   406.4    5.255      24.345
2015    9        3     0  51    2.3413   406.2    5.267      24.339
2015    9        3     0  58    2.3446   406.0    5.279      24.333
2015    9        3     1   6    2.3478   405.7    5.292      24.328
2015    9        3     1  14    2.3512   405.5    5.304      24.323
2015    9        3     1  21    2.3546   405.3    5.317      24.318
2015    9        3     1  29    2.3581   405.0    5.329      24.314
2015    9        3     1  37    2.3616   404.8    5.342      24.309
2015    9        3     1  44    2.3652   404.6    5.355      24.305
2015    9        3     1  52    2.3688   404.3    5.368      24.302
2015    9        3     2   0    2.3726   404.1    5.382      24.299
2015    9        3     2   7    2.3764   403.9    5.395      24.296
2015    9        3     2  15    2.3803   403.7    5.409      24.294
2015    9        3     2  23    2.3842   403.4    5.423      24.292
2015    9        3     2  31    2.3883   403.2    5.437      24.291
2015    9        3     2  38    2.3924   403.0    5.452      24.290
2015    9        3     2  46    2.3966   402.8    5.466      24.290
2015    9        3     2  54    2.4009   402.5    5.481      24.291
2015    9        3     3   1    2.4053   402.3    5.497      24.292
2015    9        3     3   9    2.4097   402.1    5.512      24.294
2015    9        3     3  17    2.4143   401.9    5.528      24.297
2015    9        3     3  24    2.4190   401.7    5.544      24.300
2015    9        3     3  32    2.4238   401.4    5.561      24.305
2015    9        3     3  40    2.4286   401.2    5.578      24.310
2015    9        3     3  47    2.4336   401.0    5.595      24.316
2015    9        3     3  55    2.4387   400.8    5.612      24.323
2015    9        3     4   3    2.4439   400.6    5.630      24.331
2015    9        3     4  10    2.4491   400.4    5.648      24.340
2015    9        3     4  18    2.4545   400.2    5.667      24.349
2015    9        3     4  26    2.4600   400.0    5.686      24.360
2015    9        3     4  33    2.4656   399.8    5.705      24.371
2015    9        3     4  41    2.4713   399.6    5.724      24.383
2015    9        3     4  49    2.4771   399.4    5.744      24.396
2015    9        3     4  56    2.4830   399.2    5.763      24.410
2015    9        3     5   4    2.4890   399.0    5.783      24.425
2015    9        3     5  12    2.4950   398.9    5.803      24.441
2015    9        3     5  19    2.5012   398.7    5.823      24.459
2015    9        3     5  27    2.5074   398.5    5.843      24.477
2015    9        3     5  35    2.5137   398.3    5.863      24.496
2015    9        3     5  42    2.5200   398.2    5.882      24.517
2015    9        3     5  50    2.5263   398.0    5.902      24.538
2015    9        3     5  58    2.5327   397.8    5.921      24.559
2015    9        3     6   5    2.5391   397.7    5.941      24.581
2015    9        3     6  13    2.5455   397.5    5.960      24.602
2015    9        3     6  21    2.5521   397.4    5.979      24.624
2015    9        3     6  28    2.5585   397.2    5.998      24.646
2015    9        3     6  36    2.5652   397.1    6.017      24.669
2015    9        3     6  44    2.5717   396.9    6.036      24.690
2015    9        3     6  51    2.5784   396.7    6.055      24.712
2015    9        3     6  59    2.5850   396.6    6.074      24.733
2015    9        3     7   7    2.5917   396.4    6.093      24.755
2015    9        3     7  14    2.5984   396.3    6.112      24.776
2015    9        3     7  22    2.6052   396.2    6.131      24.797
2015    9        3     7  30    2.6120   396.0    6.149      24.818
2015    9        3     7  37    2.6189   395.9    6.168      24.838
2015    9        3     7  45    2.6258   395.7    6.187      24.859
2015    9        3     7  53    2.6327   395.6    6.206      24.880
2015    9        3     8   0    2.6397   395.4    6.224      24.901
2015    9        3     8   8    2.6467   395.3    6.243      24.922
2015    9        3     8  16    2.6538   395.2    6.262      24.943
2015    9        3     8  23    2.6609   395.0    6.281      24.965
2015    9        3     8  31    2.6680   394.9    6.300      24.986
2015    9        3     8  39    2.6752   394.8    6.320      25.009
2015    9        3     8  46    2.6824   394.7    6.339      25.031
2015    9        3     8  54    2.6898   394.5    6.358      25.054
2015    9        3     9   2    2.6970   394.4    6.378      25.077
2015    9        3     9   9    2.7045   394.3    6.397      25.101
2015    9        3     9  17    2.7119   394.2    6.417      25.125
2015    9        3     9  25    2.7194   394.1    6.437      25.151
2015    9        3     9  32    2.7269   393.9    6.457      25.176
2015    9        3     9  40    2.7346   393.8    6.478      25.202
2015    9        3     9  48    2.7422   393.7    6.498      25.229
2015    9        3     9  56    2.7500   393.6    6.519      25.257
2015    9        3    10   3    2.7577   393.5    6.540      25.285
2015    9        3    10  11    2.7656   393.4    6.562      25.314
2015    9        3    10  19    2.7735   393.3    6.583      25.343
2015    9        3    10  26    2.7816   393.2    6.605      25.373
2015    9        3    10  34    2.7896   393.1    6.627      25.404
2015    9        3    10  42    2.7978   393.0    6.650      25.436
2015    9        3    10  49    2.8060   392.9    6.672      25.469
2015    9        3    10  57    2.8144   392.8    6.696      25.502
2015    9        3    11   5    2.8228   392.7    6.719      25.536
2015    9        3    11  12    2.8313   392.6    6.743      25.571
2015    9        3    11  20    2.8399   392.5    6.767      25.607
2015    9        3    11  28    2.8486   392.5    6.792      25.643
2015    9        3    11  35    2.8573   392.4    6.817      25.680
2015    9        3    11  43    2.8662   392.3    6.843      25.719
2015    9        3    11  51    2.8752   392.2    6.869      25.758
2015    9        3    11  58    2.8843   392.1    6.895      25.798
2015    9        3    12   6    2.8935   392.1    6.922      25.840
2015    9        3    12  14    2.9029   392.0    6.950      25.882
2015    9        3    12  21    2.9122   392.0    6.978      25.927
2015    9        3    12  29    2.9219   391.9    7.006      25.973
2015    9        3    12  37    2.9315   391.8    7.034      26.021
2015    9        3    12  44    2.9413   391.8    7.063      26.072
2015    9        3    12  52    2.9511   391.7    7.092      26.125
2015    9        3    13   0    2.9611   391.7    7.120      26.180
2015    9        3    13   7    2.9710   391.7    7.149      26.239
2015    9        3    13  15    2.9811   391.6    7.177      26.302
2015    9        3    13  23    2.9911   391.6    7.205      26.368
2015    9        3    13  30    3.0012   391.6    7.232      26.436
2015    9        3    13  38    3.0112   391.6    7.259      26.504
2015    9        3    13  46    3.0212   391.6    7.285      26.574
2015    9        3    13  53    3.0311   391.6    7.310      26.642
2015    9        3    14   1    3.0411   391.6    7.335      26.710
2015    9        3    14   9    3.0509   391.6    7.360      26.776
2015    9        3    14  16    3.0608   391.6    7.384      26.841
2015    9        3    14  24    3.0705   391.5    7.407      26.904
2015    9        3    14  32    3.0802   391.5    7.430      26.967
2015    9        3    14  39    3.0899   391.5    7.452      27.027
2015    9        3    14  47    3.0996   391.6    7.474      27.087
2015    9        3    14  55    3.1091   391.6    7.495      27.145
2015    9        3    15   2    3.1187   391.6    7.516      27.203
2015    9        3    15  10    3.1282   391.6    7.537      27.259
2015    9        3    15  18    3.1378   391.6    7.557      27.314
2015    9        3    15  25    3.1472   391.6    7.577      27.368
2015    9        3    15  33    3.1567   391.6    7.596      27.422
2015    9        3    15  41    3.1661   391.6    7.615      27.474
2015    9        3    15  48    3.1755   391.6    7.635      27.527
2015    9        3    15  56    3.1848   391.7    7.653      27.578
2015    9        3    16   4    3.1942   391.7    7.672      27.630
2015    9        3    16  11    3.2035   391.7    7.690      27.680
2015    9        3    16  19    3.2129   391.7    7.708      27.731
2015    9        3    16  27    3.2221   391.8    7.726      27.781
2015    9        3    16  34    3.2314   391.8    7.744      27.831
2015    9        3    16  42    3.2406   391.8    7.762      27.881
2015    9        3    16  50    3.2498   391.9    7.780      27.930
2015    9        3    16  57    3.2590   391.9    7.798      27.980
2015    9        3    17   5    3.2682   392.0    7.815      28.029
2015    9        3    17  13    3.2773   392.0    7.833      28.078
2015    9        3    17  21    3.2866   392.0    7.850      28.128
2015    9        3    17  28    3.2957   392.1    7.868      28.177
2015    9        3    17  36    3.3048   392.1    7.885      28.226
2015    9        3    17  44    3.3139   392.2    7.903      28.275
2015    9        3    17  51    3.3231   392.2    7.921      28.324
2015    9        3    17  59    3.3322   392.3    7.938      28.373
2015    9        3    18   7    3.3414   392.3    7.956      28.422
2015    9        3    18  14    3.3505   392.4    7.974      28.472
2015    9        3    18  22    3.3596   392.4    7.992      28.521
2015    9        3    18  30    3.3688   392.5    8.010      28.571
2015    9        3    18  37    3.3779   392.5    8.028      28.622
2015    9        3    18  45    3.3871   392.6    8.046      28.672
2015    9        3    18  53    3.3963   392.6    8.065      28.724
2015    9        3    19   0    3.4054   392.7    8.085      28.776
2015    9        3    19   8    3.4147   392.7    8.104      28.830
2015    9        3    19  16    3.4239   392.8    8.125      28.884
2015    9        3    19  23    3.4333   392.9    8.146      28.939
2015    9        3    19  31    3.4426   392.9    8.167      28.995
2015    9        3    19  39    3.4521   393.0    8.189      29.054
2015    9        3    19  46    3.4616   393.0    8.212      29.114
2015    9        3    19  54    3.4712   393.1    8.236      29.176
2015    9        3    20   2    3.4809   393.2    8.261      29.240
2015    9        3    20   9    3.4908   393.2    8.286      29.308
2015    9        3    20  17    3.5007   393.3    8.312      29.379
2015    9        3    20  25    3.5107   393.4    8.338      29.454
2015    9        3    20  32    3.5207   393.5    8.365      29.533
2015    9        3    20  40    3.5308   393.6    8.391      29.618
2015    9        3    20  48    3.5408   393.7    8.418      29.707
2015    9        3    20  55    3.5509   393.8    8.444      29.801
2015    9        3    21   3    3.5608   393.9    8.469      29.897
2015    9        3    21  11    3.5708   394.1    8.494      29.996
2015    9        3    21  18    3.5806   394.2    8.518      30.095
2015    9        3    21  26    3.5903   394.3    8.541      30.194
2015    9        3    21  34    3.5998   394.5    8.563      30.291
2015    9        3    21  41    3.6093   394.6    8.584      30.387
2015    9        3    21  49    3.6186   394.8    8.604      30.479
2015    9        3    21  57    3.6279   394.9    8.623      30.571
2015    9        3    22   4    3.6369   395.0    8.642      30.660
2015    9        3    22  12    3.6460   395.2    8.659      30.748
2015    9        3    22  20    3.6549   395.3    8.676      30.833
2015    9        3    22  27    3.6637   395.5    8.692      30.918
2015    9        3    22  35    3.6725   395.6    8.708      30.999
2015    9        3    22  43    3.6812   395.8    8.723      31.080
2015    9        3    22  50    3.6898   395.9    8.737      31.159
2015    9        3    22  58    3.6984   396.1    8.750      31.237
2015    9        3    23   6    3.7068   396.3    8.763      31.313
2015    9        3    23  13    3.7153   396.4    8.776      31.388
2015    9        3    23  21    3.7236   396.6    8.788      31.462
2015    9        3    23  29    3.7319   396.8    8.799      31.535
2015    9        3    23  36    3.7401   396.9    8.810      31.606
2015    9        3    23  44    3.7482   397.1    8.820      31.677
2015    9        3    23  52    3.7563   397.3    8.830      31.746
2015    9        3    23  59    3.7643   397.5    8.839      31.815
2015    9        4     0   7    3.7722   397.6    8.848      31.882
2015    9        4     0  15    3.7801   397.8    8.856      31.949
2015    9        4     0  22    3.7878   398.0    8.864      32.014
2015    9        4     0  30    3.7955   398.2    8.872      32.079
2015    9        4     0  38    3.8031   398.4    8.879      32.142
2015    9        4     0  45    3.8107   398.6    8.885      32.206
2015    9        4     0  53    3.8181   398.7    8.892      32.267
2015    9        4     1   1    3.8255   398.9    8.898      32.329
2015    9        4     1   8    3.8328   399.1    8.904      32.389
2015    9        4     1  16    3.8401   399.3    8.909      32.449
2015    9        4     1  24    3.8473   399.5    8.914      32.508
2015    9        4     1  32    3.8545   399.7    8.920      32.567
2015    9        4     1  39    3.8615   399.8    8.925      32.625
2015    9        4     1  47    3.8686   400.0    8.929      32.683
2015    9        4     1  55    3.8755   400.2    8.934      32.740
2015    9        4     2   2    3.8824   400.4    8.939      32.798
2015    9        4     2  10    3.8893   400.6    8.944      32.855
2015    9        4     2  18    3.8961   400.7    8.949      32.913
2015    9        4     2  25    3.9029   400.9    8.954      32.971
2015    9        4     2  33    3.9097   401.1    8.959      33.029
2015    9        4     2  41    3.9164   401.3    8.965      33.087
2015    9        4     2  48    3.9232   401.4    8.971      33.145
2015    9        4     2  56    3.9299   401.6    8.977      33.204
2015    9        4     3   4    3.9366   401.8    8.984      33.264
2015    9        4     3  11    3.9433   402.0    8.991      33.324
2015    9        4     3  19    3.9501   402.2    8.998      33.385
2015    9        4     3  27    3.9568   402.3    9.006      33.447
2015    9        4     3  34    3.9636   402.5    9.015      33.510
2015    9        4     3  42    3.9705   402.7    9.024      33.573
2015    9        4     3  50    3.9773   402.9    9.033      33.638
2015    9        4     3  57    3.9842   403.0    9.043      33.705
2015    9        4     4   5    3.9911   403.2    9.053      33.775
2015    9        4     4  13    3.9980   403.4    9.063      33.848
2015    9        4     4  20    4.0049   403.6    9.073      33.924
2015    9        4     4  28    4.0117   403.9    9.082      34.001
2015    9        4     4  36    4.0185   404.1    9.092      34.080
2015    9        4     4  43    4.0252   404.3    9.100      34.158
2015    9        4     4  51    4.0319   404.5    9.109      34.237
2015    9        4     4  59    4.0385   404.7    9.117      34.314
2015    9        4     5   6    4.0451   404.9    9.125      34.390
2015    9        4     5  14    4.0515   405.1    9.133      34.466
2015    9        4     5  22    4.0579   405.3    9.140      34.541
2015    9        4     5  29    4.0643   405.5    9.147      34.616
2015    9        4     5  37    4.0706   405.8    9.154      34.690
2015    9        4     5  45    4.0768   406.0    9.160      34.763
2015    9        4     5  52    4.0831   406.2    9.167      34.837
2015    9        4     6   0    4.0892   406.4    9.174      34.909
2015    9        4     6   8    4.0954   406.6    9.180      34.983
2015    9        4     6  15    4.1015   406.8    9.187      35.055
2015    9        4     6  23    4.1076   407.1    9.194      35.129
2015    9        4     6  31    4.1137   407.3    9.201      35.202
2015    9        4     6  38    4.1198   407.5    9.208      35.277
2015    9        4     6  46    4.1259   407.7    9.216      35.352
2015    9        4     6  54    4.1320   408.0    9.224      35.429
2015    9        4     7   1    4.1381   408.2    9.232      35.504
2015    9        4     7   9    4.1443   408.4    9.241      35.583
2015    9        4     7  17    4.1505   408.7    9.250      35.664
2015    9        4     7  24    4.1566   408.9    9.259      35.748
2015    9        4     7  32    4.1628   409.1    9.268      35.833
2015    9        4     7  40    4.1689   409.4    9.277      35.920
2015    9        4     7  47    4.1749   409.7    9.286      36.009
2015    9        4     7  55    4.1808   409.9    9.293      36.100
2015    9        4     8   3    4.1866   410.2    9.300      36.189
2015    9        4     8  10    4.1922   410.5    9.307      36.278
2015    9        4     8  18    4.1977   410.8    9.312      36.366
2015    9        4     8  26    4.2031   411.0    9.317      36.453
2015    9        4     8  33    4.2083   411.3    9.321      36.539
2015    9        4     8  41    4.2134   411.6    9.324      36.623
2015    9        4     8  49    4.2183   411.9    9.326      36.705
2015    9        4     8  57    4.2230   412.2    9.327      36.786
2015    9        4     9   4    4.2276   412.5    9.328      36.864
2015    9        4     9  12    4.2322   412.7    9.328      36.942
2015    9        4     9  19    4.2366   413.0    9.327      37.018
2015    9        4     9  27    4.2409   413.3    9.326      37.093
2015    9        4     9  35    4.2452   413.6    9.325      37.167
2015    9        4     9  43    4.2494   413.9    9.323      37.240
2015    9        4     9  50    4.2535   414.2    9.321      37.312
2015    9        4     9  58    4.2576   414.5    9.319      37.384
2015    9        4    10   5    4.2616   414.8    9.316      37.455
2015    9        4    10  13    4.2656   415.1    9.314      37.526
2015    9        4    10  21    4.2695   415.4    9.311      37.596
2015    9        4    10  29    4.2735   415.7    9.308      37.665
2015    9        4    10  36    4.2775   415.9    9.305      37.734
2015    9        4    10  44    4.2815   416.2    9.302      37.803
2015    9        4    10  51    4.2854   416.5    9.299      37.872
2015    9        4    10  59    4.2895   416.8    9.296      37.941
2015    9        4    11   7    4.2935   417.1    9.293      38.011
2015    9        4    11  15    4.2977   417.4    9.291      38.080
2015    9        4    11  22    4.3019   417.7    9.289      38.150
2015    9        4    11  30    4.3063   418.0    9.287      38.222
2015    9        4    11  37    4.3106   418.3    9.286      38.298
2015    9        4    11  45    4.3150   418.6    9.285      38.377
2015    9        4    11  53    4.3194   418.9    9.283      38.458
2015    9        4    12   1    4.3238   419.2    9.282      38.543
2015    9        4    12   8    4.3281   419.5    9.281      38.630
2015    9        4    12  16    4.3324   419.9    9.279      38.717
2015    9        4    12  24    4.3366   420.2    9.278      38.803
2015    9        4    12  31    4.3406   420.5    9.276      38.891
2015    9        4    12  39    4.3445   420.9    9.273      38.977
2015    9        4    12  47    4.3483   421.2    9.270      39.062
2015    9        4    12  54    4.3519   421.6    9.266      39.144
2015    9        4    13   2    4.3554   421.9    9.262      39.225
2015    9        4    13  10    4.3587   422.3    9.258      39.303
2015    9        4    13  17    4.3618   422.6    9.253      39.379
2015    9        4    13  25    4.3648   422.9    9.247      39.452
2015    9        4    13  33    4.3677   423.3    9.241      39.523
2015    9        4    13  40    4.3704   423.6    9.235      39.591
2015    9        4    13  48    4.3731   423.9    9.229      39.658
2015    9        4    13  56    4.3757   424.3    9.223      39.724
2015    9        4    14   3    4.3782   424.6    9.218      39.788
2015    9        4    14  11    4.3808   424.9    9.212      39.851
2015    9        4    14  19    4.3834   425.2    9.208      39.913
2015    9        4    14  26    4.3860   425.5    9.204      39.977
2015    9        4    14  34    4.3887   425.8    9.200      40.043
2015    9        4    14  42    4.3913   426.1    9.196      40.111
2015    9        4    14  49    4.3938   426.4    9.193      40.180
2015    9        4    14  57    4.3963   426.7    9.189      40.250
2015    9        4    15   5    4.3986   427.0    9.185      40.323
2015    9        4    15  12    4.4009   427.3    9.181      40.395
2015    9        4    15  20    4.4031   427.6    9.176      40.468
2015    9        4    15  28    4.4051   427.9    9.171      40.539
2015    9        4    15  35    4.4069   428.2    9.165      40.610
2015    9        4    15  43    4.4086   428.6    9.159      40.681
2015    9        4    15  51    4.4101   428.9    9.152      40.752
2015    9        4    15  58    4.4115   429.2    9.144      40.820
2015    9        4    16   6    4.4126   429.6    9.136      40.888
2015    9        4    16  14    4.4136   429.9    9.127      40.953
2015    9        4    16  21    4.4145   430.2    9.117      41.018
2015    9        4    16  29    4.4152   430.6    9.108      41.082
2015    9        4    16  37    4.4158   430.9    9.097      41.145
2015    9        4    16  44    4.4163   431.3    9.087      41.206
2015    9        4    16  52    4.4166   431.6    9.076      41.268
2015    9        4    17   0    4.4169   432.0    9.065      41.328
2015    9        4    17   7    4.4171   432.3    9.054      41.388
2015    9        4    17  15    4.4173   432.7    9.042      41.446
2015    9        4    17  23    4.4173   433.0    9.031      41.505
2015    9        4    17  30    4.4173   433.4    9.019      41.563
2015    9        4    17  38    4.4172   433.7    9.007      41.620
2015    9        4    17  46    4.4172   434.1    8.995      41.678
2015    9        4    17  53    4.4170   434.4    8.983      41.735
2015    9        4    18   1    4.4169   434.8    8.971      41.792
2015    9        4    18   9    4.4168   435.1    8.960      41.849
2015    9        4    18  16    4.4168   435.5    8.948      41.907
2015    9        4    18  24    4.4166   435.9    8.936      41.966
2015    9        4    18  32    4.4165   436.2    8.925      42.028
2015    9        4    18  40    4.4164   436.6    8.913      42.092
2015    9        4    18  47    4.4162   437.0    8.902      42.159
2015    9        4    18  55    4.4158   437.4    8.890      42.228
2015    9        4    19   2    4.4155   437.8    8.878      42.298
2015    9        4    19  10    4.4150   438.1    8.866      42.369
2015    9        4    19  18    4.4145   438.5    8.854      42.439
2015    9        4    19  26    4.4137   438.9    8.841      42.509
2015    9        4    19  33    4.4130   439.3    8.828      42.578
2015    9        4    19  41    4.4120   439.7    8.815      42.648
2015    9        4    19  48    4.4109   440.1    8.802      42.716
2015    9        4    19  56    4.4096   440.5    8.788      42.784
2015    9        4    20   4    4.4081   440.9    8.773      42.850
2015    9        4    20  12    4.4065   441.4    8.758      42.914
2015    9        4    20  19    4.4047   441.8    8.742      42.975
2015    9        4    20  27    4.4026   442.2    8.725      43.034
2015    9        4    20  35    4.4004   442.7    8.708      43.089
2015    9        4    20  42    4.3979   443.1    8.690      43.142
2015    9        4    20  50    4.3952   443.6    8.670      43.191
2015    9        4    20  58    4.3923   444.0    8.650      43.238
2015    9        4    21   5    4.3893   444.5    8.630      43.283
2015    9        4    21  13    4.3859   444.9    8.608      43.327
2015    9        4    21  21    4.3825   445.4    8.586      43.369
2015    9        4    21  28    4.3787   445.8    8.563      43.410
2015    9        4    21  36    4.3748   446.3    8.540      43.450
2015    9        4    21  44    4.3706   446.7    8.515      43.489
2015    9        4    21  51    4.3661   447.2    8.490      43.526
2015    9        4    21  59    4.3613   447.6    8.463      43.560
2015    9        4    22   7    4.3562   448.1    8.436      43.593
2015    9        4    22  14    4.3505   448.5    8.407      43.623
2015    9        4    22  22    4.3446   449.0    8.377      43.650
2015    9        4    22  30    4.3381   449.4    8.345      43.671
2015    9        4    22  37    4.3312   449.8    8.312      43.685
2015    9        4    22  45    4.3239   450.2    8.279      43.694
2015    9        4    22  53    4.3164   450.6    8.246      43.699
2015    9        4    23   0    4.3086   451.0    8.212      43.698
2015    9        4    23   8    4.3007   451.3    8.179      43.694
2015    9        4    23  16    4.2927   451.7    8.146      43.689
2015    9        4    23  23    4.2848   452.1    8.114      43.685
2015    9        4    23  31    4.2767   452.4    8.082      43.681
2015    9        4    23  39    4.2687   452.8    8.051      43.677
2015    9        4    23  46    4.2606   453.1    8.020      43.671
2015    9        4    23  54    4.2526   453.5    7.990      43.666
2015    9        5     0   2    4.2445   453.8    7.961      43.662
2015    9        5     0   9    4.2365   454.1    7.932      43.658
2015    9        5     0  17    4.2284   454.5    7.903      43.654
2015    9        5     0  25    4.2206   454.8    7.876      43.652
2015    9        5     0  32    4.2125   455.2    7.848      43.649
2015    9        5     0  40    4.2047   455.5    7.822      43.648
2015    9        5     0  48    4.1967   455.8    7.796      43.647
2015    9        5     0  55    4.1889   456.2    7.770      43.646
2015    9        5     1   3    4.1810   456.5    7.745      43.646
2015    9        5     1  11    4.1732   456.9    7.721      43.647
2015    9        5     1  18    4.1654   457.2    7.696      43.648
2015    9        5     1  26    4.1576   457.5    7.672      43.649
2015    9        5     1  34    4.1497   457.9    7.648      43.650
2015    9        5     1  41    4.1419   458.2    7.625      43.651
2015    9        5     1  49    4.1340   458.5    7.601      43.652
2015    9        5     1  57    4.1261   458.9    7.578      43.653
2015    9        5     2   4    4.1181   459.2    7.555      43.653
2015    9        5     2  12    4.1101   459.6    7.532      43.653
2015    9        5     2  20    4.1020   459.9    7.508      43.651
2015    9        5     2  27    4.0939   460.2    7.485      43.649
2015    9        5     2  35    4.0856   460.6    7.461      43.644
2015    9        5     2  43    4.0774   460.9    7.438      43.637
2015    9        5     2  50    4.0689   461.2    7.415      43.628
2015    9        5     2  58    4.0604   461.6    7.391      43.618
2015    9        5     3   6    4.0518   461.9    7.368      43.606
2015    9        5     3  13    4.0431   462.2    7.345      43.594
2015    9        5     3  21    4.0343   462.5    7.322      43.581
2015    9        5     3  29    4.0256   462.9    7.299      43.567
2015    9        5     3  37    4.0167   463.2    7.276      43.551
2015    9        5     3  44    4.0079   463.5    7.254      43.535
2015    9        5     3  52    3.9988   463.8    7.231      43.518
2015    9        5     4   0    3.9897   464.2    7.208      43.501
2015    9        5     4   7    3.9805   464.5    7.186      43.483
2015    9        5     4  15    3.9713   464.8    7.163      43.465
2015    9        5     4  23    3.9618   465.2    7.141      43.449
2015    9        5     4  30    3.9524   465.5    7.118      43.434
2015    9        5     4  38    3.9426   465.9    7.095      43.420
2015    9        5     4  46    3.9329   466.2    7.072      43.407
2015    9        5     4  53    3.9228   466.6    7.048      43.394
2015    9        5     5   1    3.9127   466.9    7.024      43.382
2015    9        5     5   9    3.9022   467.3    6.999      43.369
2015    9        5     5  16    3.8916   467.7    6.974      43.354
2015    9        5     5  24    3.8805   468.0    6.947      43.335
2015    9        5     5  32    3.8693   468.4    6.919      43.314
2015    9        5     5  39    3.8576   468.8    6.890      43.290
2015    9        5     5  47    3.8456   469.2    6.860      43.258
2015    9        5     5  55    3.8331   469.6    6.829      43.219
2015    9        5     6   2    3.8206   469.9    6.798      43.176
2015    9        5     6  10    3.8077   470.2    6.767      43.126
2015    9        5     6  18    3.7948   470.5    6.736      43.070
2015    9        5     6  25    3.7818   470.8    6.705      43.011
2015    9        5     6  33    3.7690   471.1    6.675      42.951
2015    9        5     6  41    3.7561   471.4    6.644      42.890
2015    9        5     6  48    3.7433   471.7    6.615      42.829
2015    9        5     6  56    3.7304   472.0    6.585      42.767
2015    9        5     7   4    3.7178   472.3    6.556      42.702
2015    9        5     7  11    3.7051   472.5    6.528      42.638
2015    9        5     7  19    3.6927   472.8    6.500      42.573
2015    9        5     7  27    3.6803   473.1    6.472      42.509
2015    9        5     7  34    3.6681   473.3    6.445      42.446
2015    9        5     7  42    3.6560   473.5    6.419      42.383
2015    9        5     7  50    3.6442   473.8    6.393      42.323
2015    9        5     7  57    3.6324   474.0    6.368      42.264
2015    9        5     8   5    3.6209   474.2    6.344      42.206
2015    9        5     8  13    3.6094   474.4    6.321      42.150
2015    9        5     8  20    3.5982   474.6    6.298      42.096
2015    9        5     8  28    3.5870   474.9    6.276      42.042
2015    9        5     8  36    3.5761   475.0    6.255      41.991
2015    9        5     8  43    3.5652   475.2    6.234      41.941
2015    9        5     8  51    3.5545   475.4    6.213      41.892
2015    9        5     8  59    3.5439   475.6    6.193      41.843
2015    9        5     9   6    3.5334   475.8    6.174      41.795
2015    9        5     9  14    3.5228   476.0    6.154      41.748
2015    9        5     9  22    3.5124   476.2    6.134      41.701
2015    9        5     9  29    3.5019   476.4    6.115      41.653
2015    9        5     9  37    3.4916   476.6    6.096      41.606
2015    9        5     9  45    3.4812   476.8    6.076      41.556
2015    9        5     9  52    3.4708   477.0    6.058      41.507
2015    9        5    10   0    3.4604   477.2    6.038      41.455
2015    9        5    10   8    3.4501   477.4    6.020      41.404
2015    9        5    10  15    3.4396   477.6    6.001      41.351
2015    9        5    10  23    3.4292   477.7    5.982      41.298
2015    9        5    10  31    3.4188   477.9    5.963      41.244
2015    9        5    10  38    3.4084   478.1    5.945      41.190
2015    9        5    10  46    3.3979   478.3    5.926      41.135
2015    9        5    10  54    3.3876   478.4    5.908      41.080
2015    9        5    11   1    3.3772   478.6    5.889      41.023
2015    9        5    11   9    3.3668   478.8    5.872      40.967
2015    9        5    11  17    3.3565   478.9    5.854      40.911
2015    9        5    11  24    3.3462   479.1    5.836      40.855
2015    9        5    11  32    3.3358   479.2    5.819      40.798
2015    9        5    11  40    3.3256   479.3    5.802      40.742
2015    9        5    11  48    3.3153   479.5    5.785      40.687
2015    9        5    11  55    3.3051   479.6    5.769      40.632
2015    9        5    12   3    3.2949   479.7    5.752      40.577
2015    9        5    12  11    3.2848   479.9    5.736      40.523
2015    9        5    12  18    3.2746   480.0    5.720      40.468
2015    9        5    12  26    3.2645   480.1    5.704      40.413
2015    9        5    12  34    3.2544   480.2    5.689      40.358
2015    9        5    12  41    3.2444   480.3    5.673      40.303
2015    9        5    12  49    3.2343   480.5    5.657      40.246
2015    9        5    12  57    3.2243   480.6    5.642      40.191
2015    9        5    13   4    3.2142   480.7    5.627      40.136
2015    9        5    13  12    3.2043   480.8    5.611      40.081
2015    9        5    13  20    3.1944   480.9    5.596      40.025
2015    9        5    13  27    3.1845   481.0    5.581      39.970
2015    9        5    13  35    3.1747   481.2    5.566      39.913
2015    9        5    13  43    3.1649   481.3    5.551      39.857
2015    9        5    13  50    3.1551   481.4    5.535      39.799
2015    9        5    13  58    3.1454   481.5    5.520      39.741
2015    9        5    14   6    3.1357   481.6    5.504      39.681
2015    9        5    14  13    3.1261   481.7    5.489      39.620
2015    9        5    14  21    3.1165   481.9    5.473      39.557
2015    9        5    14  29    3.1069   482.0    5.457      39.494
2015    9        5    14  36    3.0975   482.1    5.441      39.428
2015    9        5    14  44    3.0881   482.2    5.425      39.363
2015    9        5    14  52    3.0788   482.3    5.409      39.296
2015    9        5    14  59    3.0697   482.4    5.393      39.230
2015    9        5    15   7    3.0606   482.5    5.377      39.164
2015    9        5    15  15    3.0517   482.6    5.362      39.099
2015    9        5    15  22    3.0428   482.7    5.346      39.034
2015    9        5    15  30    3.0341   482.8    5.331      38.970
2015    9        5    15  38    3.0255   482.8    5.316      38.907
2015    9        5    15  45    3.0170   482.9    5.301      38.844
2015    9        5    15  53    3.0086   483.0    5.287      38.782
2015    9        5    16   1    3.0003   483.0    5.273      38.721
2015    9        5    16   8    2.9921   483.0    5.259      38.659
2015    9        5    16  16    2.9840   483.1    5.245      38.599
2015    9        5    16  24    2.9760   483.1    5.231      38.539
2015    9        5    16  31    2.9681   483.2    5.218      38.480
2015    9        5    16  39    2.9603   483.2    5.205      38.420
2015    9        5    16  47    2.9525   483.3    5.192      38.362
2015    9        5    16  54    2.9447   483.3    5.179      38.304
2015    9        5    17   2    2.9371   483.4    5.166      38.247
2015    9        5    17  10    2.9294   483.4    5.154      38.190
2015    9        5    17  17    2.9218   483.5    5.141      38.134
2015    9        5    17  25    2.9142   483.5    5.129      38.077
2015    9        5    17  33    2.9067   483.6    5.116      38.022
2015    9        5    17  40    2.8992   483.6    5.104      37.965
2015    9        5    17  48    2.8917   483.7    5.092      37.909
2015    9        5    17  56    2.8842   483.8    5.079      37.852
2015    9        5    18   3    2.8767   483.8    5.067      37.796
2015    9        5    18  11    2.8692   483.8    5.055      37.738
2015    9        5    18  19    2.8619   483.9    5.043      37.681
2015    9        5    18  26    2.8544   483.9    5.031      37.623
2015    9        5    18  34    2.8471   483.9    5.019      37.566
2015    9        5    18  42    2.8398   484.0    5.007      37.508
2015    9        5    18  49    2.8326   484.0    4.996      37.452
2015    9        5    18  57    2.8253   484.0    4.984      37.394
2015    9        5    19   5    2.8182   484.0    4.973      37.337
2015    9        5    19  12    2.8110   484.1    4.962      37.280
2015    9        5    19  20    2.8039   484.1    4.951      37.223
2015    9        5    19  28    2.7967   484.1    4.940      37.166
2015    9        5    19  35    2.7897   484.1    4.929      37.108
2015    9        5    19  43    2.7826   484.2    4.919      37.050
2015    9        5    19  51    2.7755   484.2    4.908      36.992
2015    9        5    19  59    2.7685   484.2    4.897      36.932
2015    9        5    20   6    2.7615   484.2    4.887      36.872
2015    9        5    20  14    2.7544   484.2    4.877      36.812
2015    9        5    20  22    2.7475   484.2    4.867      36.753
2015    9        5    20  29    2.7406   484.2    4.857      36.693
2015    9        5    20  37    2.7337   484.1    4.847      36.633
2015    9        5    20  45    2.7269   484.1    4.837      36.574
2015    9        5    20  52    2.7201   484.1    4.827      36.515
2015    9        5    21   0    2.7134   484.1    4.818      36.456
2015    9        5    21   8    2.7067   484.0    4.808      36.397
2015    9        5    21  15    2.7000   484.0    4.798      36.337
2015    9        5    21  23    2.6934   484.0    4.789      36.278
2015    9        5    21  31    2.6869   483.9    4.779      36.218
2015    9        5    21  38    2.6804   483.9    4.770      36.159
2015    9        5    21  46    2.6739   483.9    4.761      36.098
2015    9        5    21  54    2.6675   483.8    4.751      36.038
2015    9        5    22   1    2.6611   483.8    4.742      35.977
2015    9        5    22   9    2.6547   483.7    4.732      35.916
2015    9        5    22  17    2.6484   483.7    4.723      35.854
2015    9        5    22  24    2.6422   483.6    4.714      35.793
2015    9        5    22  32    2.6359   483.6    4.704      35.731
2015    9        5    22  40    2.6297   483.5    4.695      35.669
2015    9        5    22  47    2.6236   483.5    4.686      35.607
2015    9        5    22  55    2.6175   483.4    4.676      35.545
2015    9        5    23   3    2.6114   483.3    4.667      35.482
2015    9        5    23  10    2.6054   483.3    4.658      35.420
2015    9        5    23  18    2.5995   483.2    4.648      35.356
2015    9        5    23  26    2.5936   483.1    4.639      35.294
2015    9        5    23  33    2.5877   483.1    4.630      35.231
2015    9        5    23  41    2.5819   483.0    4.621      35.168
2015    9        5    23  49    2.5761   482.9    4.612      35.104
2015    9        5    23  56    2.5704   482.8    4.603      35.041
2015    9        6     0   4    2.5646   482.7    4.594      34.978
