year    month   day   hour  minute  B_enl V_enl   n_enl       T_enl
[year] [month] [day] [hour][minute] [nT]  [km/s]  [cm-3]      [kK]
2015    8        2     0   3    4.1747   574.1    4.059      53.271
2015    8        2     0  10    4.1722   574.2    4.055      53.264
2015    8        2     0  17    4.1698   574.3    4.051      53.258
2015    8        2     0  24    4.1673   574.4    4.048      53.251
2015    8        2     0  30    4.1648   574.5    4.044      53.244
2015    8        2     0  37    4.1623   574.6    4.040      53.237
2015    8        2     0  44    4.1599   574.7    4.037      53.230
2015    8        2     0  51    4.1574   574.8    4.033      53.223
2015    8        2     0  57    4.1549   574.9    4.030      53.216
2015    8        2     1   4    4.1524   575.0    4.026      53.209
2015    8        2     1  11    4.1499   575.1    4.022      53.202
2015    8        2     1  18    4.1474   575.2    4.019      53.195
2015    8        2     1  24    4.1448   575.3    4.015      53.188
2015    8        2     1  31    4.1423   575.4    4.012      53.180
2015    8        2     1  38    4.1397   575.5    4.008      53.173
2015    8        2     1  45    4.1371   575.6    4.005      53.165
2015    8        2     1  52    4.1345   575.7    4.001      53.157
2015    8        2     1  58    4.1319   575.8    3.998      53.149
2015    8        2     2   5    4.1293   575.9    3.995      53.141
2015    8        2     2  12    4.1267   576.0    3.991      53.132
2015    8        2     2  19    4.1241   576.1    3.988      53.123
2015    8        2     2  25    4.1215   576.1    3.984      53.114
2015    8        2     2  32    4.1188   576.2    3.981      53.105
2015    8        2     2  39    4.1162   576.3    3.977      53.095
2015    8        2     2  46    4.1135   576.4    3.974      53.085
2015    8        2     2  52    4.1109   576.5    3.970      53.074
2015    8        2     2  59    4.1082   576.6    3.967      53.064
2015    8        2     3   6    4.1055   576.7    3.963      53.053
2015    8        2     3  13    4.1029   576.7    3.960      53.042
2015    8        2     3  19    4.1002   576.8    3.956      53.030
2015    8        2     3  26    4.0975   576.9    3.953      53.019
2015    8        2     3  33    4.0948   577.0    3.949      53.006
2015    8        2     3  40    4.0921   577.1    3.946      52.994
2015    8        2     3  46    4.0894   577.1    3.942      52.982
2015    8        2     3  53    4.0868   577.2    3.939      52.969
2015    8        2     4   0    4.0841   577.3    3.936      52.956
2015    8        2     4   7    4.0814   577.4    3.932      52.943
2015    8        2     4  14    4.0787   577.4    3.929      52.930
2015    8        2     4  20    4.0761   577.5    3.925      52.917
2015    8        2     4  27    4.0734   577.6    3.922      52.903
2015    8        2     4  34    4.0707   577.7    3.918      52.890
2015    8        2     4  41    4.0681   577.7    3.915      52.876
2015    8        2     4  47    4.0654   577.8    3.912      52.862
2015    8        2     4  54    4.0628   577.9    3.908      52.849
2015    8        2     5   1    4.0601   577.9    3.905      52.835
2015    8        2     5   8    4.0575   578.0    3.902      52.821
2015    8        2     5  14    4.0549   578.1    3.898      52.808
2015    8        2     5  21    4.0523   578.1    3.895      52.794
2015    8        2     5  28    4.0497   578.2    3.892      52.780
2015    8        2     5  35    4.0471   578.3    3.889      52.767
2015    8        2     5  41    4.0445   578.3    3.886      52.753
2015    8        2     5  48    4.0419   578.4    3.882      52.739
2015    8        2     5  55    4.0394   578.4    3.879      52.726
2015    8        2     6   2    4.0368   578.5    3.876      52.712
2015    8        2     6   8    4.0343   578.6    3.873      52.698
2015    8        2     6  15    4.0317   578.6    3.870      52.684
2015    8        2     6  22    4.0292   578.7    3.867      52.671
2015    8        2     6  29    4.0267   578.7    3.864      52.657
2015    8        2     6  36    4.0242   578.8    3.861      52.643
2015    8        2     6  42    4.0217   578.8    3.858      52.629
2015    8        2     6  49    4.0192   578.9    3.854      52.616
2015    8        2     6  56    4.0167   579.0    3.851      52.602
2015    8        2     7   3    4.0142   579.0    3.849      52.588
2015    8        2     7   9    4.0117   579.1    3.846      52.574
2015    8        2     7  16    4.0092   579.1    3.843      52.560
2015    8        2     7  23    4.0067   579.2    3.840      52.546
2015    8        2     7  30    4.0042   579.2    3.837      52.532
2015    8        2     7  36    4.0017   579.3    3.834      52.518
2015    8        2     7  43    3.9992   579.3    3.831      52.504
2015    8        2     7  50    3.9967   579.4    3.828      52.490
2015    8        2     7  57    3.9942   579.4    3.825      52.476
2015    8        2     8   3    3.9917   579.5    3.822      52.461
2015    8        2     8  10    3.9891   579.5    3.820      52.447
2015    8        2     8  17    3.9866   579.6    3.817      52.433
2015    8        2     8  24    3.9840   579.6    3.814      52.418
2015    8        2     8  31    3.9815   579.6    3.811      52.404
2015    8        2     8  37    3.9789   579.7    3.808      52.389
2015    8        2     8  44    3.9763   579.7    3.806      52.374
2015    8        2     8  51    3.9737   579.8    3.803      52.359
2015    8        2     8  58    3.9711   579.8    3.800      52.344
2015    8        2     9   4    3.9685   579.9    3.797      52.329
2015    8        2     9  11    3.9659   579.9    3.795      52.314
2015    8        2     9  18    3.9632   580.0    3.792      52.298
2015    8        2     9  25    3.9606   580.0    3.789      52.282
2015    8        2     9  31    3.9580   580.0    3.786      52.266
2015    8        2     9  38    3.9553   580.1    3.784      52.250
2015    8        2     9  45    3.9527   580.1    3.781      52.234
2015    8        2     9  52    3.9500   580.2    3.778      52.217
2015    8        2     9  58    3.9474   580.2    3.775      52.200
2015    8        2    10   5    3.9447   580.2    3.773      52.183
2015    8        2    10  12    3.9421   580.3    3.770      52.166
2015    8        2    10  19    3.9394   580.3    3.767      52.148
2015    8        2    10  25    3.9367   580.4    3.764      52.130
2015    8        2    10  32    3.9340   580.4    3.762      52.112
2015    8        2    10  39    3.9314   580.4    3.759      52.094
2015    8        2    10  46    3.9287   580.5    3.756      52.075
2015    8        2    10  53    3.9261   580.5    3.754      52.057
2015    8        2    10  59    3.9234   580.5    3.751      52.038
2015    8        2    11   6    3.9207   580.6    3.748      52.019
2015    8        2    11  13    3.9181   580.6    3.745      52.000
2015    8        2    11  20    3.9154   580.6    3.743      51.981
2015    8        2    11  26    3.9128   580.6    3.740      51.962
2015    8        2    11  33    3.9102   580.7    3.737      51.943
2015    8        2    11  40    3.9076   580.7    3.735      51.923
2015    8        2    11  47    3.9050   580.7    3.732      51.904
2015    8        2    11  53    3.9024   580.8    3.730      51.885
2015    8        2    12   0    3.8998   580.8    3.727      51.865
2015    8        2    12   7    3.8973   580.8    3.724      51.846
2015    8        2    12  14    3.8947   580.8    3.722      51.827
2015    8        2    12  20    3.8922   580.8    3.719      51.807
2015    8        2    12  27    3.8897   580.9    3.717      51.789
2015    8        2    12  34    3.8872   580.9    3.714      51.770
2015    8        2    12  41    3.8847   580.9    3.712      51.751
2015    8        2    12  47    3.8822   580.9    3.709      51.732
2015    8        2    12  54    3.8798   581.0    3.707      51.714
2015    8        2    13   1    3.8773   581.0    3.704      51.695
2015    8        2    13   8    3.8749   581.0    3.702      51.677
2015    8        2    13  15    3.8725   581.0    3.700      51.658
2015    8        2    13  21    3.8701   581.0    3.697      51.640
2015    8        2    13  28    3.8677   581.0    3.695      51.622
2015    8        2    13  35    3.8653   581.1    3.693      51.604
2015    8        2    13  42    3.8629   581.1    3.690      51.586
2015    8        2    13  48    3.8606   581.1    3.688      51.569
2015    8        2    13  55    3.8582   581.1    3.686      51.551
2015    8        2    14   2    3.8559   581.1    3.683      51.533
2015    8        2    14   9    3.8535   581.1    3.681      51.515
2015    8        2    14  15    3.8512   581.1    3.679      51.498
2015    8        2    14  22    3.8488   581.2    3.677      51.480
2015    8        2    14  29    3.8464   581.2    3.674      51.462
2015    8        2    14  36    3.8441   581.2    3.672      51.445
2015    8        2    14  42    3.8417   581.2    3.670      51.427
2015    8        2    14  49    3.8393   581.2    3.668      51.409
2015    8        2    14  56    3.8369   581.2    3.666      51.392
2015    8        2    15   3    3.8344   581.2    3.663      51.374
2015    8        2    15   9    3.8320   581.2    3.661      51.356
2015    8        2    15  16    3.8295   581.3    3.659      51.339
2015    8        2    15  23    3.8271   581.3    3.657      51.321
2015    8        2    15  30    3.8246   581.3    3.655      51.303
2015    8        2    15  37    3.8222   581.3    3.652      51.285
2015    8        2    15  43    3.8197   581.3    3.650      51.267
2015    8        2    15  50    3.8172   581.3    3.648      51.249
2015    8        2    15  57    3.8147   581.3    3.646      51.230
2015    8        2    16   4    3.8122   581.3    3.644      51.212
2015    8        2    16  10    3.8097   581.3    3.641      51.194
2015    8        2    16  17    3.8072   581.3    3.639      51.175
2015    8        2    16  24    3.8047   581.3    3.637      51.156
2015    8        2    16  31    3.8021   581.4    3.635      51.138
2015    8        2    16  37    3.7996   581.4    3.633      51.119
2015    8        2    16  44    3.7971   581.4    3.631      51.100
2015    8        2    16  51    3.7945   581.4    3.628      51.081
2015    8        2    16  58    3.7920   581.4    3.626      51.061
2015    8        2    17   4    3.7894   581.4    3.624      51.042
2015    8        2    17  11    3.7869   581.4    3.622      51.022
2015    8        2    17  18    3.7844   581.4    3.620      51.002
2015    8        2    17  25    3.7818   581.4    3.618      50.982
2015    8        2    17  32    3.7793   581.4    3.615      50.962
2015    8        2    17  38    3.7767   581.4    3.613      50.942
2015    8        2    17  45    3.7742   581.4    3.611      50.921
2015    8        2    17  52    3.7717   581.4    3.609      50.900
2015    8        2    17  59    3.7691   581.4    3.607      50.879
2015    8        2    18   5    3.7666   581.4    3.605      50.858
2015    8        2    18  12    3.7641   581.3    3.603      50.837
2015    8        2    18  19    3.7616   581.3    3.600      50.815
2015    8        2    18  26    3.7591   581.3    3.598      50.793
2015    8        2    18  32    3.7566   581.3    3.596      50.772
2015    8        2    18  39    3.7541   581.3    3.594      50.749
2015    8        2    18  46    3.7517   581.3    3.592      50.727
2015    8        2    18  53    3.7492   581.3    3.590      50.705
2015    8        2    18  59    3.7468   581.3    3.588      50.682
2015    8        2    19   6    3.7443   581.3    3.586      50.659
2015    8        2    19  13    3.7419   581.3    3.583      50.637
2015    8        2    19  20    3.7395   581.2    3.581      50.614
2015    8        2    19  26    3.7371   581.2    3.579      50.591
2015    8        2    19  33    3.7347   581.2    3.577      50.567
2015    8        2    19  40    3.7323   581.2    3.575      50.544
2015    8        2    19  47    3.7299   581.2    3.573      50.521
2015    8        2    19  54    3.7276   581.2    3.571      50.497
2015    8        2    20   0    3.7252   581.1    3.569      50.474
2015    8        2    20   7    3.7229   581.1    3.567      50.450
2015    8        2    20  14    3.7206   581.1    3.565      50.427
2015    8        2    20  21    3.7182   581.1    3.563      50.403
2015    8        2    20  27    3.7159   581.1    3.561      50.380
2015    8        2    20  34    3.7136   581.0    3.559      50.356
2015    8        2    20  41    3.7113   581.0    3.557      50.333
2015    8        2    20  48    3.7090   581.0    3.555      50.309
2015    8        2    20  54    3.7067   581.0    3.553      50.286
2015    8        2    21   1    3.7045   580.9    3.551      50.263
2015    8        2    21   8    3.7022   580.9    3.549      50.240
2015    8        2    21  15    3.6999   580.9    3.548      50.217
2015    8        2    21  21    3.6976   580.9    3.546      50.194
2015    8        2    21  28    3.6953   580.9    3.544      50.171
2015    8        2    21  35    3.6930   580.8    3.542      50.148
2015    8        2    21  42    3.6907   580.8    3.540      50.126
2015    8        2    21  48    3.6884   580.8    3.538      50.103
2015    8        2    21  55    3.6861   580.8    3.536      50.081
2015    8        2    22   2    3.6838   580.7    3.535      50.059
2015    8        2    22   9    3.6815   580.7    3.533      50.037
2015    8        2    22  16    3.6792   580.7    3.531      50.015
2015    8        2    22  22    3.6768   580.7    3.529      49.994
2015    8        2    22  29    3.6745   580.6    3.528      49.972
2015    8        2    22  36    3.6722   580.6    3.526      49.951
2015    8        2    22  43    3.6698   580.6    3.524      49.929
2015    8        2    22  49    3.6675   580.5    3.522      49.908
2015    8        2    22  56    3.6652   580.5    3.521      49.887
2015    8        2    23   3    3.6628   580.5    3.519      49.866
2015    8        2    23  10    3.6605   580.5    3.517      49.845
2015    8        2    23  16    3.6581   580.4    3.515      49.824
2015    8        2    23  23    3.6558   580.4    3.514      49.803
2015    8        2    23  30    3.6534   580.4    3.512      49.783
2015    8        2    23  37    3.6511   580.3    3.510      49.762
2015    8        2    23  43    3.6487   580.3    3.509      49.741
2015    8        2    23  50    3.6464   580.3    3.507      49.720
2015    8        2    23  57    3.6440   580.3    3.505      49.699
2015    8        3     0   4    3.6416   580.2    3.504      49.677
2015    8        3     0  10    3.6393   580.2    3.502      49.656
2015    8        3     0  17    3.6369   580.2    3.500      49.634
2015    8        3     0  24    3.6346   580.1    3.498      49.613
2015    8        3     0  31    3.6322   580.1    3.497      49.591
2015    8        3     0  38    3.6299   580.1    3.495      49.569
2015    8        3     0  44    3.6275   580.0    3.493      49.547
2015    8        3     0  51    3.6252   580.0    3.492      49.525
2015    8        3     0  58    3.6228   579.9    3.490      49.502
2015    8        3     1   5    3.6205   579.9    3.488      49.479
2015    8        3     1  11    3.6181   579.9    3.487      49.456
2015    8        3     1  18    3.6158   579.8    3.485      49.433
2015    8        3     1  25    3.6134   579.8    3.484      49.410
2015    8        3     1  32    3.6111   579.7    3.482      49.386
2015    8        3     1  38    3.6088   579.7    3.480      49.362
2015    8        3     1  45    3.6064   579.7    3.479      49.339
2015    8        3     1  52    3.6041   579.6    3.477      49.314
2015    8        3     1  59    3.6018   579.6    3.475      49.290
2015    8        3     2   5    3.5995   579.5    3.474      49.265
2015    8        3     2  12    3.5972   579.5    3.472      49.240
2015    8        3     2  19    3.5949   579.4    3.471      49.215
2015    8        3     2  26    3.5926   579.4    3.469      49.190
2015    8        3     2  33    3.5903   579.3    3.467      49.164
2015    8        3     2  39    3.5880   579.3    3.466      49.139
2015    8        3     2  46    3.5858   579.2    3.464      49.113
2015    8        3     2  53    3.5835   579.2    3.463      49.087
2015    8        3     3   0    3.5812   579.1    3.461      49.061
2015    8        3     3   6    3.5790   579.1    3.460      49.035
2015    8        3     3  13    3.5767   579.0    3.458      49.008
2015    8        3     3  20    3.5745   579.0    3.457      48.982
2015    8        3     3  27    3.5722   578.9    3.455      48.955
2015    8        3     3  33    3.5700   578.9    3.453      48.928
2015    8        3     3  40    3.5678   578.8    3.452      48.901
2015    8        3     3  47    3.5656   578.8    3.450      48.874
2015    8        3     3  54    3.5633   578.7    3.449      48.847
2015    8        3     4   0    3.5611   578.7    3.447      48.820
2015    8        3     4   7    3.5589   578.6    3.446      48.792
2015    8        3     4  14    3.5567   578.5    3.444      48.765
2015    8        3     4  21    3.5545   578.5    3.443      48.737
2015    8        3     4  27    3.5523   578.4    3.441      48.710
2015    8        3     4  34    3.5501   578.4    3.439      48.682
2015    8        3     4  41    3.5479   578.3    3.438      48.654
2015    8        3     4  48    3.5457   578.3    3.436      48.626
2015    8        3     4  55    3.5435   578.2    3.435      48.599
2015    8        3     5   1    3.5413   578.1    3.433      48.571
2015    8        3     5   8    3.5391   578.1    3.431      48.543
2015    8        3     5  15    3.5369   578.0    3.430      48.515
2015    8        3     5  22    3.5347   578.0    3.428      48.487
2015    8        3     5  28    3.5326   577.9    3.426      48.459
2015    8        3     5  35    3.5304   577.8    3.425      48.431
2015    8        3     5  42    3.5282   577.8    3.423      48.404
2015    8        3     5  49    3.5260   577.7    3.422      48.376
2015    8        3     5  55    3.5238   577.6    3.420      48.348
2015    8        3     6   2    3.5217   577.6    3.418      48.321
2015    8        3     6   9    3.5195   577.5    3.417      48.293
2015    8        3     6  16    3.5173   577.4    3.415      48.266
2015    8        3     6  22    3.5152   577.4    3.413      48.239
2015    8        3     6  29    3.5130   577.3    3.412      48.212
2015    8        3     6  36    3.5108   577.2    3.410      48.185
2015    8        3     6  43    3.5087   577.2    3.409      48.158
2015    8        3     6  49    3.5065   577.1    3.407      48.132
2015    8        3     6  56    3.5044   577.0    3.406      48.105
2015    8        3     7   3    3.5022   577.0    3.404      48.079
2015    8        3     7  10    3.5001   576.9    3.403      48.053
2015    8        3     7  17    3.4979   576.8    3.401      48.026
2015    8        3     7  23    3.4958   576.8    3.400      48.001
2015    8        3     7  30    3.4936   576.7    3.398      47.974
2015    8        3     7  37    3.4915   576.6    3.397      47.949
2015    8        3     7  44    3.4893   576.6    3.395      47.922
2015    8        3     7  50    3.4872   576.5    3.394      47.897
2015    8        3     7  57    3.4850   576.4    3.393      47.871
2015    8        3     8   4    3.4829   576.3    3.391      47.845
2015    8        3     8  11    3.4807   576.3    3.390      47.819
2015    8        3     8  17    3.4786   576.2    3.389      47.793
2015    8        3     8  24    3.4764   576.1    3.388      47.767
2015    8        3     8  31    3.4743   576.0    3.386      47.741
2015    8        3     8  38    3.4721   576.0    3.385      47.715
2015    8        3     8  44    3.4700   575.9    3.384      47.689
2015    8        3     8  51    3.4678   575.8    3.383      47.662
2015    8        3     8  58    3.4657   575.7    3.382      47.636
2015    8        3     9   5    3.4636   575.7    3.381      47.610
2015    8        3     9  11    3.4615   575.6    3.380      47.584
2015    8        3     9  18    3.4593   575.5    3.379      47.557
2015    8        3     9  25    3.4572   575.4    3.378      47.531
2015    8        3     9  32    3.4551   575.3    3.377      47.505
2015    8        3     9  38    3.4530   575.3    3.376      47.478
2015    8        3     9  45    3.4509   575.2    3.375      47.452
2015    8        3     9  52    3.4488   575.1    3.374      47.426
2015    8        3     9  59    3.4467   575.0    3.373      47.399
2015    8        3    10   5    3.4446   574.9    3.372      47.373
2015    8        3    10  12    3.4425   574.8    3.371      47.347
2015    8        3    10  19    3.4404   574.8    3.371      47.321
2015    8        3    10  25    3.4383   574.7    3.370      47.294
2015    8        3    10  32    3.4363   574.6    3.369      47.268
2015    8        3    10  39    3.4342   574.5    3.368      47.242
2015    8        3    10  46    3.4322   574.4    3.368      47.215
2015    8        3    10  52    3.4301   574.3    3.367      47.189
2015    8        3    10  59    3.4281   574.2    3.366      47.162
2015    8        3    11   6    3.4260   574.2    3.365      47.135
2015    8        3    11  13    3.4240   574.1    3.364      47.108
2015    8        3    11  19    3.4219   574.0    3.364      47.081
2015    8        3    11  26    3.4199   573.9    3.363      47.054
2015    8        3    11  33    3.4179   573.8    3.362      47.027
2015    8        3    11  40    3.4159   573.7    3.361      46.999
2015    8        3    11  46    3.4139   573.6    3.360      46.971
2015    8        3    11  53    3.4119   573.5    3.360      46.944
2015    8        3    12   0    3.4099   573.5    3.359      46.915
2015    8        3    12   7    3.4079   573.4    3.358      46.887
2015    8        3    12  13    3.4059   573.3    3.357      46.858
2015    8        3    12  20    3.4039   573.2    3.356      46.829
2015    8        3    12  27    3.4019   573.1    3.355      46.799
2015    8        3    12  34    3.3999   573.0    3.354      46.770
2015    8        3    12  40    3.3979   572.9    3.353      46.740
2015    8        3    12  47    3.3960   572.8    3.352      46.710
2015    8        3    12  54    3.3940   572.7    3.351      46.679
2015    8        3    13   1    3.3920   572.6    3.349      46.649
2015    8        3    13   8    3.3901   572.5    3.348      46.618
2015    8        3    13  14    3.3881   572.4    3.347      46.587
2015    8        3    13  21    3.3862   572.3    3.346      46.556
2015    8        3    13  28    3.3843   572.2    3.345      46.524
2015    8        3    13  35    3.3823   572.1    3.344      46.493
2015    8        3    13  41    3.3804   572.0    3.343      46.462
2015    8        3    13  48    3.3785   572.0    3.341      46.430
2015    8        3    13  55    3.3766   571.9    3.340      46.399
2015    8        3    14   2    3.3747   571.8    3.339      46.367
2015    8        3    14   8    3.3728   571.7    3.338      46.336
2015    8        3    14  15    3.3709   571.6    3.337      46.304
2015    8        3    14  22    3.3690   571.5    3.336      46.273
2015    8        3    14  29    3.3671   571.4    3.335      46.241
2015    8        3    14  35    3.3652   571.3    3.333      46.210
2015    8        3    14  42    3.3633   571.1    3.332      46.179
2015    8        3    14  49    3.3614   571.0    3.331      46.148
2015    8        3    14  56    3.3595   570.9    3.330      46.117
2015    8        3    15   2    3.3576   570.8    3.329      46.086
2015    8        3    15   9    3.3557   570.7    3.328      46.055
2015    8        3    15  16    3.3538   570.6    3.327      46.024
2015    8        3    15  23    3.3519   570.5    3.326      45.993
2015    8        3    15  29    3.3500   570.4    3.325      45.963
2015    8        3    15  36    3.3481   570.3    3.324      45.933
2015    8        3    15  43    3.3462   570.2    3.323      45.903
2015    8        3    15  50    3.3443   570.1    3.322      45.872
2015    8        3    15  56    3.3425   570.0    3.322      45.842
2015    8        3    16   3    3.3406   569.9    3.321      45.812
2015    8        3    16  10    3.3387   569.8    3.320      45.783
2015    8        3    16  17    3.3368   569.7    3.319      45.753
2015    8        3    16  23    3.3349   569.6    3.318      45.723
2015    8        3    16  30    3.3330   569.4    3.318      45.694
2015    8        3    16  37    3.3312   569.3    3.317      45.664
2015    8        3    16  44    3.3293   569.2    3.316      45.635
2015    8        3    16  50    3.3274   569.1    3.316      45.605
2015    8        3    16  57    3.3255   569.0    3.315      45.576
2015    8        3    17   4    3.3237   568.9    3.314      45.547
2015    8        3    17  11    3.3218   568.8    3.314      45.518
2015    8        3    17  17    3.3200   568.7    3.313      45.489
2015    8        3    17  24    3.3181   568.5    3.313      45.459
2015    8        3    17  31    3.3163   568.4    3.312      45.430
2015    8        3    17  38    3.3144   568.3    3.312      45.401
2015    8        3    17  44    3.3126   568.2    3.311      45.371
2015    8        3    17  51    3.3108   568.1    3.311      45.342
2015    8        3    17  58    3.3089   568.0    3.310      45.312
2015    8        3    18   5    3.3071   567.9    3.310      45.282
2015    8        3    18  11    3.3053   567.7    3.309      45.252
2015    8        3    18  18    3.3034   567.6    3.309      45.221
2015    8        3    18  25    3.3016   567.5    3.308      45.191
2015    8        3    18  32    3.2998   567.4    3.307      45.160
2015    8        3    18  38    3.2980   567.3    3.307      45.129
2015    8        3    18  45    3.2961   567.1    3.306      45.097
2015    8        3    18  52    3.2943   567.0    3.306      45.065
2015    8        3    18  59    3.2925   566.9    3.305      45.033
2015    8        3    19   5    3.2907   566.8    3.304      45.000
2015    8        3    19  12    3.2889   566.7    3.304      44.967
2015    8        3    19  19    3.2871   566.5    3.303      44.934
2015    8        3    19  26    3.2853   566.4    3.302      44.900
2015    8        3    19  32    3.2835   566.3    3.301      44.867
2015    8        3    19  39    3.2817   566.1    3.301      44.833
2015    8        3    19  46    3.2799   566.0    3.300      44.799
2015    8        3    19  53    3.2781   565.9    3.299      44.764
2015    8        3    19  59    3.2764   565.8    3.299      44.731
2015    8        3    20   6    3.2746   565.6    3.298      44.697
2015    8        3    20  13    3.2729   565.5    3.298      44.663
2015    8        3    20  20    3.2712   565.4    3.297      44.630
2015    8        3    20  26    3.2695   565.2    3.297      44.597
2015    8        3    20  33    3.2678   565.1    3.296      44.564
2015    8        3    20  40    3.2662   565.0    3.296      44.532
2015    8        3    20  47    3.2645   564.9    3.296      44.501
2015    8        3    20  53    3.2629   564.7    3.296      44.470
2015    8        3    21   0    3.2613   564.6    3.296      44.439
2015    8        3    21   7    3.2597   564.5    3.296      44.409
2015    8        3    21  14    3.2582   564.3    3.296      44.380
2015    8        3    21  21    3.2566   564.2    3.296      44.351
2015    8        3    21  27    3.2551   564.1    3.296      44.323
2015    8        3    21  34    3.2536   564.0    3.297      44.295
2015    8        3    21  41    3.2520   563.8    3.297      44.267
2015    8        3    21  48    3.2505   563.7    3.297      44.240
2015    8        3    21  54    3.2489   563.6    3.298      44.213
2015    8        3    22   1    3.2473   563.5    3.298      44.187
2015    8        3    22   8    3.2458   563.4    3.299      44.162
2015    8        3    22  15    3.2442   563.2    3.299      44.137
2015    8        3    22  21    3.2426   563.1    3.299      44.113
2015    8        3    22  28    3.2410   563.0    3.300      44.089
2015    8        3    22  35    3.2393   562.9    3.300      44.065
2015    8        3    22  42    3.2377   562.7    3.300      44.041
2015    8        3    22  48    3.2361   562.6    3.300      44.016
2015    8        3    22  55    3.2345   562.5    3.300      43.991
2015    8        3    23   2    3.2329   562.4    3.300      43.966
2015    8        3    23   9    3.2312   562.2    3.300      43.941
2015    8        3    23  15    3.2296   562.1    3.300      43.914
2015    8        3    23  22    3.2279   562.0    3.300      43.888
2015    8        3    23  29    3.2263   561.9    3.300      43.861
2015    8        3    23  36    3.2247   561.7    3.300      43.834
2015    8        3    23  42    3.2230   561.6    3.300      43.806
2015    8        3    23  49    3.2214   561.5    3.300      43.778
2015    8        3    23  56    3.2197   561.4    3.299      43.749
2015    8        4     0   3    3.2180   561.2    3.299      43.720
2015    8        4     0   9    3.2164   561.1    3.299      43.691
2015    8        4     0  16    3.2147   561.0    3.298      43.661
2015    8        4     0  23    3.2131   560.9    3.298      43.630
2015    8        4     0  30    3.2114   560.7    3.298      43.600
2015    8        4     0  36    3.2098   560.6    3.297      43.569
2015    8        4     0  43    3.2081   560.5    3.297      43.537
2015    8        4     0  50    3.2064   560.3    3.296      43.505
2015    8        4     0  57    3.2048   560.2    3.296      43.473
2015    8        4     1   3    3.2031   560.1    3.295      43.440
2015    8        4     1  10    3.2014   559.9    3.294      43.407
2015    8        4     1  17    3.1998   559.8    3.294      43.373
2015    8        4     1  23    3.1981   559.7    3.293      43.339
2015    8        4     1  30    3.1965   559.5    3.292      43.304
2015    8        4     1  37    3.1948   559.4    3.292      43.270
2015    8        4     1  44    3.1931   559.2    3.291      43.234
2015    8        4     1  50    3.1915   559.1    3.290      43.198
2015    8        4     1  57    3.1898   559.0    3.289      43.161
2015    8        4     2   4    3.1881   558.8    3.288      43.124
2015    8        4     2  11    3.1864   558.7    3.288      43.086
2015    8        4     2  17    3.1848   558.5    3.287      43.048
2015    8        4     2  24    3.1831   558.4    3.286      43.010
2015    8        4     2  31    3.1814   558.3    3.285      42.971
2015    8        4     2  38    3.1797   558.1    3.284      42.932
2015    8        4     2  44    3.1780   558.0    3.283      42.892
2015    8        4     2  51    3.1764   557.8    3.282      42.852
2015    8        4     2  58    3.1747   557.7    3.281      42.812
2015    8        4     3   5    3.1730   557.5    3.280      42.772
2015    8        4     3  12    3.1714   557.4    3.279      42.731
2015    8        4     3  18    3.1698   557.2    3.278      42.691
2015    8        4     3  25    3.1681   557.0    3.277      42.651
2015    8        4     3  32    3.1665   556.9    3.276      42.611
2015    8        4     3  39    3.1649   556.7    3.275      42.572
2015    8        4     3  45    3.1633   556.6    3.275      42.533
2015    8        4     3  52    3.1618   556.4    3.274      42.495
2015    8        4     3  59    3.1602   556.3    3.274      42.457
2015    8        4     4   6    3.1587   556.1    3.273      42.421
2015    8        4     4  12    3.1571   556.0    3.273      42.385
2015    8        4     4  19    3.1557   555.8    3.273      42.350
2015    8        4     4  26    3.1542   555.7    3.272      42.315
2015    8        4     4  33    3.1527   555.5    3.272      42.282
2015    8        4     4  39    3.1513   555.4    3.273      42.250
2015    8        4     4  46    3.1498   555.2    3.273      42.219
2015    8        4     4  53    3.1484   555.1    3.273      42.188
2015    8        4     5   0    3.1470   554.9    3.273      42.158
2015    8        4     5   6    3.1456   554.8    3.274      42.129
2015    8        4     5  13    3.1442   554.6    3.275      42.101
2015    8        4     5  20    3.1428   554.5    3.275      42.073
2015    8        4     5  27    3.1413   554.3    3.276      42.046
2015    8        4     5  33    3.1399   554.2    3.277      42.019
2015    8        4     5  40    3.1384   554.1    3.277      41.994
2015    8        4     5  47    3.1369   553.9    3.278      41.969
2015    8        4     5  54    3.1355   553.8    3.279      41.944
2015    8        4     6   1    3.1340   553.6    3.279      41.920
2015    8        4     6   7    3.1324   553.5    3.280      41.896
2015    8        4     6  14    3.1309   553.3    3.281      41.872
2015    8        4     6  21    3.1294   553.2    3.281      41.847
2015    8        4     6  28    3.1278   553.0    3.282      41.822
2015    8        4     6  34    3.1263   552.9    3.282      41.797
2015    8        4     6  41    3.1247   552.7    3.283      41.771
2015    8        4     6  48    3.1232   552.6    3.283      41.745
2015    8        4     6  55    3.1216   552.4    3.284      41.719
2015    8        4     7   1    3.1200   552.3    3.284      41.693
2015    8        4     7   8    3.1185   552.1    3.285      41.666
2015    8        4     7  15    3.1169   552.0    3.285      41.639
2015    8        4     7  21    3.1153   551.8    3.286      41.612
2015    8        4     7  28    3.1138   551.7    3.286      41.585
2015    8        4     7  35    3.1122   551.5    3.287      41.558
2015    8        4     7  42    3.1107   551.4    3.287      41.531
2015    8        4     7  48    3.1091   551.2    3.288      41.504
2015    8        4     7  55    3.1076   551.0    3.288      41.477
2015    8        4     8   2    3.1061   550.9    3.289      41.450
2015    8        4     8   9    3.1046   550.7    3.289      41.423
2015    8        4     8  15    3.1031   550.6    3.290      41.395
2015    8        4     8  22    3.1017   550.4    3.290      41.368
2015    8        4     8  29    3.1002   550.3    3.291      41.341
2015    8        4     8  36    3.0988   550.1    3.291      41.314
2015    8        4     8  42    3.0974   549.9    3.292      41.287
2015    8        4     8  49    3.0959   549.8    3.293      41.260
2015    8        4     8  56    3.0945   549.6    3.293      41.233
2015    8        4     9   3    3.0931   549.5    3.294      41.206
2015    8        4     9   9    3.0917   549.3    3.294      41.180
2015    8        4     9  16    3.0903   549.2    3.295      41.153
2015    8        4     9  23    3.0888   549.0    3.295      41.126
2015    8        4     9  30    3.0874   548.9    3.295      41.099
2015    8        4     9  36    3.0859   548.7    3.295      41.070
2015    8        4     9  43    3.0844   548.6    3.295      41.042
2015    8        4     9  50    3.0829   548.4    3.296      41.013
2015    8        4     9  57    3.0815   548.3    3.296      40.983
2015    8        4    10   3    3.0800   548.1    3.295      40.953
2015    8        4    10  10    3.0785   548.0    3.295      40.923
2015    8        4    10  17    3.0770   547.8    3.295      40.891
2015    8        4    10  24    3.0754   547.7    3.295      40.860
2015    8        4    10  30    3.0739   547.5    3.295      40.827
2015    8        4    10  37    3.0724   547.4    3.294      40.795
2015    8        4    10  44    3.0708   547.2    3.294      40.761
2015    8        4    10  51    3.0693   547.1    3.293      40.728
2015    8        4    10  57    3.0678   546.9    3.293      40.694
2015    8        4    11   4    3.0662   546.8    3.293      40.660
2015    8        4    11  11    3.0646   546.6    3.292      40.626
2015    8        4    11  18    3.0631   546.4    3.291      40.591
2015    8        4    11  25    3.0615   546.3    3.291      40.557
2015    8        4    11  31    3.0600   546.1    3.290      40.522
2015    8        4    11  38    3.0584   546.0    3.290      40.487
2015    8        4    11  45    3.0569   545.8    3.289      40.453
2015    8        4    11  52    3.0553   545.6    3.289      40.418
2015    8        4    11  58    3.0538   545.5    3.288      40.383
2015    8        4    12   5    3.0522   545.3    3.288      40.349
2015    8        4    12  12    3.0507   545.2    3.287      40.314
2015    8        4    12  19    3.0491   545.0    3.287      40.280
2015    8        4    12  25    3.0476   544.9    3.286      40.246
2015    8        4    12  32    3.0460   544.7    3.286      40.212
2015    8        4    12  39    3.0445   544.5    3.285      40.178
2015    8        4    12  46    3.0429   544.4    3.285      40.143
2015    8        4    12  52    3.0413   544.2    3.285      40.109
2015    8        4    12  59    3.0398   544.0    3.284      40.075
2015    8        4    13   6    3.0382   543.9    3.284      40.041
2015    8        4    13  13    3.0366   543.7    3.283      40.007
2015    8        4    13  19    3.0350   543.6    3.283      39.973
2015    8        4    13  26    3.0334   543.4    3.283      39.938
2015    8        4    13  33    3.0318   543.2    3.282      39.904
2015    8        4    13  40    3.0302   543.1    3.282      39.869
2015    8        4    13  46    3.0286   542.9    3.282      39.835
2015    8        4    13  53    3.0269   542.7    3.281      39.800
2015    8        4    14   0    3.0253   542.5    3.281      39.765
2015    8        4    14   7    3.0237   542.4    3.281      39.730
2015    8        4    14  13    3.0221   542.2    3.280      39.695
2015    8        4    14  20    3.0204   542.0    3.280      39.659
2015    8        4    14  27    3.0188   541.8    3.280      39.624
2015    8        4    14  34    3.0172   541.6    3.279      39.589
2015    8        4    14  40    3.0156   541.5    3.279      39.554
2015    8        4    14  47    3.0140   541.3    3.279      39.519
2015    8        4    14  54    3.0124   541.1    3.279      39.485
2015    8        4    15   1    3.0108   540.9    3.279      39.451
2015    8        4    15   7    3.0093   540.7    3.279      39.417
2015    8        4    15  14    3.0077   540.5    3.279      39.384
2015    8        4    15  21    3.0063   540.3    3.280      39.352
2015    8        4    15  28    3.0048   540.2    3.280      39.321
2015    8        4    15  34    3.0034   540.0    3.280      39.290
2015    8        4    15  41    3.0019   539.8    3.281      39.260
2015    8        4    15  48    3.0006   539.6    3.282      39.231
2015    8        4    15  55    2.9992   539.4    3.283      39.203
2015    8        4    16   1    2.9980   539.2    3.284      39.175
2015    8        4    16   8    2.9967   539.0    3.285      39.149
2015    8        4    16  15    2.9955   538.9    3.286      39.124
2015    8        4    16  22    2.9942   538.7    3.287      39.100
2015    8        4    16  28    2.9930   538.5    3.289      39.078
2015    8        4    16  35    2.9918   538.3    3.290      39.056
2015    8        4    16  42    2.9905   538.1    3.291      39.034
2015    8        4    16  49    2.9893   538.0    3.293      39.013
2015    8        4    16  55    2.9881   537.8    3.294      38.992
2015    8        4    17   2    2.9869   537.6    3.296      38.971
2015    8        4    17   9    2.9856   537.5    3.297      38.950
2015    8        4    17  16    2.9844   537.3    3.299      38.929
2015    8        4    17  22    2.9831   537.1    3.300      38.908
2015    8        4    17  29    2.9818   536.9    3.301      38.887
2015    8        4    17  36    2.9805   536.8    3.303      38.866
2015    8        4    17  43    2.9792   536.6    3.304      38.844
2015    8        4    17  49    2.9779   536.4    3.305      38.822
2015    8        4    17  56    2.9765   536.3    3.307      38.800
2015    8        4    18   3    2.9751   536.1    3.308      38.778
2015    8        4    18  10    2.9737   535.9    3.309      38.755
2015    8        4    18  16    2.9723   535.7    3.310      38.732
2015    8        4    18  23    2.9708   535.6    3.311      38.708
2015    8        4    18  30    2.9694   535.4    3.312      38.684
2015    8        4    18  37    2.9679   535.2    3.313      38.660
2015    8        4    18  43    2.9664   535.0    3.313      38.635
2015    8        4    18  50    2.9649   534.9    3.314      38.610
2015    8        4    18  57    2.9634   534.7    3.315      38.584
2015    8        4    19   4    2.9619   534.5    3.315      38.559
2015    8        4    19  10    2.9604   534.3    3.316      38.533
2015    8        4    19  17    2.9589   534.2    3.317      38.506
2015    8        4    19  24    2.9574   534.0    3.317      38.480
2015    8        4    19  31    2.9559   533.8    3.318      38.453
2015    8        4    19  37    2.9544   533.6    3.318      38.426
2015    8        4    19  44    2.9529   533.4    3.318      38.398
2015    8        4    19  51    2.9514   533.3    3.319      38.371
2015    8        4    19  58    2.9499   533.1    3.319      38.343
2015    8        4    20   5    2.9484   532.9    3.320      38.315
2015    8        4    20  11    2.9469   532.7    3.320      38.287
2015    8        4    20  18    2.9454   532.5    3.320      38.259
2015    8        4    20  25    2.9439   532.3    3.321      38.230
2015    8        4    20  32    2.9424   532.2    3.321      38.201
2015    8        4    20  38    2.9409   532.0    3.321      38.172
2015    8        4    20  45    2.9394   531.8    3.322      38.144
2015    8        4    20  52    2.9379   531.6    3.322      38.114
2015    8        4    20  59    2.9365   531.4    3.322      38.085
2015    8        4    21   5    2.9350   531.3    3.322      38.055
2015    8        4    21  12    2.9335   531.1    3.323      38.025
2015    8        4    21  19    2.9320   530.9    3.323      37.994
2015    8        4    21  26    2.9305   530.7    3.323      37.964
2015    8        4    21  32    2.9290   530.5    3.323      37.932
2015    8        4    21  39    2.9275   530.3    3.323      37.901
2015    8        4    21  46    2.9260   530.1    3.323      37.869
2015    8        4    21  53    2.9245   529.9    3.323      37.837
2015    8        4    21  59    2.9231   529.8    3.323      37.804
2015    8        4    22   6    2.9216   529.6    3.323      37.771
2015    8        4    22  13    2.9201   529.4    3.323      37.738
2015    8        4    22  19    2.9187   529.2    3.323      37.705
2015    8        4    22  26    2.9172   529.0    3.323      37.671
2015    8        4    22  33    2.9158   528.8    3.323      37.637
2015    8        4    22  40    2.9144   528.6    3.323      37.604
2015    8        4    22  46    2.9130   528.4    3.323      37.570
2015    8        4    22  53    2.9116   528.2    3.323      37.537
2015    8        4    23   0    2.9102   528.0    3.323      37.504
2015    8        4    23   7    2.9089   527.8    3.323      37.470
2015    8        4    23  13    2.9075   527.6    3.323      37.438
2015    8        4    23  20    2.9062   527.4    3.323      37.405
2015    8        4    23  27    2.9049   527.2    3.324      37.373
2015    8        4    23  34    2.9036   527.0    3.324      37.342
2015    8        4    23  40    2.9023   526.8    3.324      37.311
2015    8        4    23  47    2.9010   526.6    3.325      37.280
2015    8        4    23  54    2.8998   526.4    3.326      37.250
2015    8        5     0   1    2.8985   526.2    3.326      37.219
2015    8        5     0   7    2.8973   526.0    3.327      37.190
2015    8        5     0  14    2.8961   525.8    3.328      37.160
2015    8        5     0  21    2.8948   525.6    3.329      37.131
2015    8        5     0  28    2.8936   525.4    3.330      37.102
2015    8        5     0  34    2.8924   525.2    3.330      37.074
2015    8        5     0  41    2.8911   525.0    3.331      37.045
2015    8        5     0  48    2.8899   524.8    3.332      37.017
2015    8        5     0  55    2.8886   524.6    3.334      36.988
2015    8        5     1   1    2.8874   524.4    3.335      36.960
2015    8        5     1   8    2.8861   524.2    3.336      36.931
2015    8        5     1  15    2.8848   524.0    3.337      36.904
2015    8        5     1  22    2.8835   523.8    3.338      36.875
2015    8        5     1  29    2.8822   523.6    3.339      36.847
2015    8        5     1  35    2.8809   523.4    3.340      36.820
2015    8        5     1  42    2.8796   523.2    3.342      36.792
2015    8        5     1  49    2.8783   523.0    3.343      36.764
2015    8        5     1  56    2.8770   522.7    3.344      36.737
2015    8        5     2   2    2.8757   522.5    3.346      36.710
2015    8        5     2   9    2.8744   522.3    3.347      36.683
2015    8        5     2  16    2.8731   522.1    3.348      36.656
2015    8        5     2  23    2.8718   521.9    3.350      36.630
2015    8        5     2  29    2.8706   521.7    3.351      36.604
2015    8        5     2  36    2.8693   521.5    3.353      36.578
2015    8        5     2  43    2.8681   521.2    3.354      36.553
2015    8        5     2  50    2.8669   521.0    3.356      36.528
2015    8        5     2  56    2.8657   520.8    3.358      36.503
2015    8        5     3   3    2.8645   520.6    3.359      36.478
2015    8        5     3  10    2.8633   520.4    3.361      36.454
2015    8        5     3  17    2.8621   520.1    3.363      36.430
2015    8        5     3  23    2.8610   519.9    3.365      36.407
2015    8        5     3  30    2.8598   519.7    3.367      36.383
2015    8        5     3  37    2.8587   519.5    3.369      36.360
2015    8        5     3  44    2.8576   519.3    3.371      36.337
2015    8        5     3  50    2.8565   519.1    3.373      36.315
2015    8        5     3  57    2.8554   518.9    3.374      36.292
2015    8        5     4   4    2.8543   518.6    3.376      36.269
2015    8        5     4  11    2.8532   518.4    3.378      36.247
2015    8        5     4  17    2.8521   518.2    3.380      36.224
2015    8        5     4  24    2.8510   518.0    3.382      36.202
2015    8        5     4  31    2.8499   517.8    3.384      36.180
2015    8        5     4  38    2.8488   517.6    3.386      36.157
2015    8        5     4  44    2.8477   517.4    3.388      36.135
2015    8        5     4  51    2.8466   517.2    3.390      36.113
2015    8        5     4  58    2.8455   516.9    3.392      36.090
2015    8        5     5   5    2.8444   516.7    3.394      36.067
2015    8        5     5  11    2.8433   516.5    3.395      36.044
2015    8        5     5  18    2.8422   516.3    3.397      36.021
2015    8        5     5  25    2.8412   516.1    3.399      35.998
2015    8        5     5  32    2.8401   515.9    3.401      35.974
2015    8        5     5  38    2.8390   515.7    3.402      35.951
2015    8        5     5  45    2.8380   515.4    3.404      35.927
2015    8        5     5  52    2.8369   515.2    3.406      35.903
2015    8        5     5  59    2.8359   515.0    3.407      35.879
2015    8        5     6   5    2.8348   514.8    3.409      35.855
2015    8        5     6  12    2.8338   514.6    3.410      35.831
2015    8        5     6  19    2.8327   514.4    3.412      35.806
2015    8        5     6  26    2.8317   514.2    3.414      35.781
2015    8        5     6  32    2.8306   514.0    3.415      35.756
2015    8        5     6  39    2.8295   513.8    3.417      35.731
2015    8        5     6  46    2.8284   513.5    3.418      35.705
2015    8        5     6  53    2.8273   513.3    3.420      35.680
2015    8        5     6  59    2.8262   513.1    3.421      35.654
2015    8        5     7   6    2.8251   512.9    3.422      35.627
2015    8        5     7  13    2.8240   512.7    3.424      35.600
2015    8        5     7  20    2.8229   512.5    3.425      35.573
2015    8        5     7  26    2.8218   512.3    3.426      35.546
2015    8        5     7  33    2.8207   512.1    3.428      35.518
2015    8        5     7  40    2.8195   511.9    3.429      35.490
2015    8        5     7  47    2.8184   511.6    3.430      35.461
2015    8        5     7  53    2.8173   511.4    3.431      35.432
2015    8        5     8   0    2.8161   511.2    3.432      35.403
2015    8        5     8   7    2.8150   511.0    3.433      35.373
2015    8        5     8  14    2.8138   510.8    3.434      35.344
2015    8        5     8  20    2.8127   510.5    3.435      35.313
2015    8        5     8  27    2.8116   510.3    3.436      35.283
2015    8        5     8  34    2.8104   510.1    3.437      35.253
2015    8        5     8  41    2.8093   509.9    3.438      35.222
2015    8        5     8  47    2.8082   509.7    3.440      35.191
2015    8        5     8  54    2.8071   509.4    3.441      35.161
2015    8        5     9   1    2.8060   509.2    3.442      35.130
2015    8        5     9   8    2.8049   509.0    3.443      35.100
2015    8        5     9  14    2.8038   508.8    3.444      35.069
2015    8        5     9  21    2.8027   508.5    3.445      35.039
2015    8        5     9  28    2.8017   508.3    3.447      35.008
2015    8        5     9  35    2.8006   508.1    3.448      34.978
2015    8        5     9  42    2.7996   507.9    3.449      34.948
2015    8        5     9  48    2.7985   507.6    3.451      34.919
2015    8        5     9  55    2.7975   507.4    3.452      34.889
2015    8        5    10   2    2.7965   507.2    3.454      34.860
2015    8        5    10   9    2.7955   506.9    3.455      34.831
2015    8        5    10  15    2.7945   506.7    3.457      34.802
2015    8        5    10  22    2.7936   506.5    3.459      34.773
2015    8        5    10  29    2.7926   506.3    3.460      34.745
2015    8        5    10  36    2.7917   506.0    3.462      34.717
2015    8        5    10  42    2.7907   505.8    3.464      34.689
2015    8        5    10  49    2.7898   505.6    3.466      34.661
2015    8        5    10  56    2.7889   505.3    3.468      34.633
2015    8        5    11   3    2.7879   505.1    3.469      34.605
2015    8        5    11   9    2.7870   504.9    3.471      34.578
2015    8        5    11  16    2.7861   504.6    3.473      34.551
2015    8        5    11  23    2.7852   504.4    3.475      34.524
2015    8        5    11  30    2.7843   504.2    3.477      34.496
2015    8        5    11  36    2.7834   503.9    3.480      34.470
2015    8        5    11  43    2.7825   503.7    3.482      34.443
2015    8        5    11  50    2.7816   503.5    3.484      34.416
2015    8        5    11  57    2.7807   503.3    3.486      34.389
2015    8        5    12   3    2.7799   503.0    3.488      34.363
2015    8        5    12  10    2.7790   502.8    3.490      34.337
2015    8        5    12  17    2.7782   502.6    3.493      34.311
2015    8        5    12  24    2.7773   502.3    3.495      34.285
2015    8        5    12  30    2.7765   502.1    3.497      34.260
2015    8        5    12  37    2.7756   501.9    3.500      34.234
2015    8        5    12  44    2.7748   501.6    3.502      34.209
2015    8        5    12  51    2.7740   501.4    3.504      34.184
2015    8        5    12  57    2.7732   501.2    3.507      34.160
2015    8        5    13   4    2.7724   500.9    3.509      34.135
2015    8        5    13  11    2.7716   500.7    3.512      34.111
2015    8        5    13  18    2.7708   500.5    3.514      34.087
2015    8        5    13  24    2.7699   500.2    3.517      34.063
2015    8        5    13  31    2.7691   500.0    3.519      34.039
2015    8        5    13  38    2.7683   499.8    3.522      34.015
2015    8        5    13  45    2.7675   499.6    3.524      33.992
2015    8        5    13  51    2.7666   499.3    3.527      33.968
2015    8        5    13  58    2.7658   499.1    3.530      33.945
2015    8        5    14   5    2.7650   498.9    3.532      33.922
2015    8        5    14  11    2.7641   498.7    3.535      33.898
2015    8        5    14  18    2.7633   498.4    3.537      33.875
2015    8        5    14  25    2.7624   498.2    3.540      33.852
2015    8        5    14  32    2.7615   498.0    3.542      33.828
2015    8        5    14  38    2.7606   497.8    3.545      33.805
2015    8        5    14  45    2.7597   497.5    3.547      33.781
2015    8        5    14  52    2.7588   497.3    3.549      33.758
2015    8        5    14  59    2.7579   497.1    3.552      33.734
2015    8        5    15   6    2.7570   496.9    3.554      33.710
2015    8        5    15  12    2.7561   496.6    3.556      33.686
2015    8        5    15  19    2.7552   496.4    3.558      33.662
2015    8        5    15  26    2.7543   496.2    3.560      33.638
2015    8        5    15  33    2.7534   496.0    3.563      33.614
2015    8        5    15  39    2.7524   495.7    3.565      33.589
2015    8        5    15  46    2.7515   495.5    3.567      33.564
2015    8        5    15  53    2.7506   495.3    3.569      33.539
2015    8        5    16   0    2.7496   495.1    3.571      33.514
2015    8        5    16   6    2.7487   494.8    3.573      33.489
2015    8        5    16  13    2.7478   494.6    3.574      33.463
2015    8        5    16  20    2.7468   494.4    3.576      33.437
2015    8        5    16  27    2.7459   494.2    3.578      33.411
2015    8        5    16  33    2.7449   493.9    3.580      33.385
2015    8        5    16  40    2.7440   493.7    3.582      33.358
2015    8        5    16  47    2.7430   493.5    3.583      33.331
2015    8        5    16  54    2.7421   493.3    3.585      33.303
2015    8        5    17   0    2.7411   493.0    3.587      33.276
2015    8        5    17   7    2.7401   492.8    3.588      33.248
2015    8        5    17  14    2.7392   492.6    3.590      33.219
2015    8        5    17  21    2.7382   492.3    3.592      33.191
2015    8        5    17  27    2.7373   492.1    3.593      33.162
2015    8        5    17  34    2.7363   491.9    3.595      33.133
2015    8        5    17  41    2.7353   491.7    3.596      33.103
2015    8        5    17  48    2.7344   491.4    3.598      33.074
2015    8        5    17  54    2.7334   491.2    3.599      33.044
2015    8        5    18   1    2.7325   491.0    3.601      33.014
2015    8        5    18   8    2.7315   490.7    3.603      32.984
2015    8        5    18  15    2.7306   490.5    3.604      32.954
2015    8        5    18  21    2.7296   490.3    3.606      32.923
2015    8        5    18  28    2.7287   490.0    3.607      32.893
2015    8        5    18  35    2.7278   489.8    3.609      32.862
2015    8        5    18  42    2.7269   489.6    3.611      32.832
2015    8        5    18  48    2.7259   489.3    3.612      32.801
2015    8        5    18  55    2.7250   489.1    3.614      32.771
2015    8        5    19   2    2.7241   488.9    3.615      32.740
2015    8        5    19   9    2.7232   488.6    3.617      32.710
2015    8        5    19  15    2.7223   488.4    3.619      32.679
2015    8        5    19  22    2.7214   488.1    3.621      32.649
2015    8        5    19  29    2.7205   487.9    3.622      32.619
2015    8        5    19  36    2.7196   487.7    3.624      32.589
2015    8        5    19  42    2.7187   487.4    3.626      32.559
2015    8        5    19  49    2.7178   487.2    3.628      32.530
2015    8        5    19  56    2.7170   487.0    3.630      32.500
2015    8        5    20   3    2.7161   486.7    3.632      32.471
2015    8        5    20   9    2.7153   486.5    3.634      32.442
2015    8        5    20  16    2.7144   486.2    3.636      32.413
2015    8        5    20  23    2.7136   486.0    3.638      32.385
2015    8        5    20  30    2.7127   485.8    3.640      32.356
2015    8        5    20  36    2.7119   485.5    3.642      32.328
2015    8        5    20  43    2.7110   485.3    3.644      32.300
2015    8        5    20  50    2.7102   485.1    3.646      32.273
2015    8        5    20  57    2.7094   484.8    3.648      32.245
2015    8        5    21   3    2.7085   484.6    3.650      32.218
2015    8        5    21  10    2.7077   484.3    3.653      32.191
2015    8        5    21  17    2.7069   484.1    3.655      32.164
2015    8        5    21  24    2.7061   483.9    3.657      32.138
2015    8        5    21  30    2.7053   483.6    3.660      32.111
2015    8        5    21  37    2.7045   483.4    3.662      32.085
2015    8        5    21  44    2.7036   483.2    3.664      32.059
2015    8        5    21  51    2.7028   482.9    3.667      32.033
2015    8        5    21  57    2.7020   482.7    3.669      32.007
2015    8        5    22   4    2.7012   482.5    3.672      31.982
2015    8        5    22  11    2.7003   482.2    3.674      31.956
2015    8        5    22  18    2.6995   482.0    3.677      31.931
2015    8        5    22  24    2.6987   481.7    3.679      31.905
2015    8        5    22  31    2.6979   481.5    3.682      31.880
2015    8        5    22  38    2.6970   481.3    3.684      31.855
2015    8        5    22  45    2.6962   481.0    3.687      31.829
2015    8        5    22  51    2.6953   480.8    3.689      31.804
2015    8        5    22  58    2.6945   480.6    3.691      31.778
2015    8        5    23   5    2.6936   480.3    3.694      31.753
2015    8        5    23  12    2.6928   480.1    3.696      31.727
2015    8        5    23  18    2.6919   479.8    3.699      31.702
2015    8        5    23  25    2.6911   479.6    3.701      31.676
2015    8        5    23  32    2.6902   479.4    3.703      31.650
2015    8        5    23  39    2.6893   479.1    3.706      31.624
2015    8        5    23  46    2.6884   478.9    3.708      31.598
2015    8        5    23  52    2.6876   478.6    3.710      31.572
2015    8        5    23  59    2.6867   478.4    3.712      31.546
2015    8        6     0   6    2.6858   478.2    3.715      31.519
2015    8        6     0  13    2.6849   477.9    3.717      31.493
2015    8        6     0  19    2.6841   477.7    3.719      31.466
2015    8        6     0  26    2.6832   477.4    3.721      31.439
2015    8        6     0  33    2.6823   477.2    3.723      31.412
2015    8        6     0  40    2.6814   476.9    3.726      31.385
2015    8        6     0  46    2.6806   476.7    3.728      31.358
2015    8        6     0  53    2.6797   476.5    3.730      31.330
2015    8        6     1   0    2.6788   476.2    3.732      31.303
2015    8        6     1   7    2.6780   476.0    3.734      31.275
2015    8        6     1  13    2.6771   475.7    3.736      31.248
2015    8        6     1  20    2.6763   475.5    3.738      31.220
2015    8        6     1  27    2.6754   475.2    3.740      31.192
2015    8        6     1  34    2.6746   475.0    3.742      31.164
2015    8        6     1  40    2.6737   474.7    3.744      31.136
2015    8        6     1  47    2.6729   474.5    3.746      31.108
2015    8        6     1  54    2.6720   474.3    3.748      31.080
2015    8        6     2   1    2.6712   474.0    3.750      31.052
2015    8        6     2   7    2.6704   473.8    3.752      31.024
2015    8        6     2  14    2.6696   473.5    3.754      30.996
2015    8        6     2  21    2.6688   473.3    3.757      30.968
2015    8        6     2  28    2.6679   473.0    3.759      30.940
2015    8        6     2  34    2.6671   472.8    3.761      30.912
2015    8        6     2  41    2.6663   472.5    3.763      30.884
2015    8        6     2  48    2.6655   472.3    3.765      30.856
2015    8        6     2  55    2.6647   472.0    3.766      30.828
2015    8        6     3   1    2.6639   471.8    3.768      30.799
2015    8        6     3   8    2.6631   471.5    3.770      30.771
2015    8        6     3  15    2.6623   471.3    3.772      30.743
2015    8        6     3  22    2.6615   471.0    3.774      30.715
2015    8        6     3  28    2.6607   470.8    3.776      30.687
2015    8        6     3  35    2.6599   470.5    3.778      30.659
2015    8        6     3  42    2.6591   470.3    3.781      30.631
2015    8        6     3  49    2.6583   470.0    3.783      30.603
2015    8        6     3  55    2.6575   469.8    3.785      30.575
2015    8        6     4   2    2.6567   469.5    3.787      30.547
2015    8        6     4   9    2.6559   469.3    3.789      30.519
2015    8        6     4  16    2.6551   469.0    3.791      30.491
2015    8        6     4  22    2.6543   468.8    3.793      30.464
2015    8        6     4  29    2.6535   468.5    3.795      30.436
2015    8        6     4  36    2.6528   468.3    3.797      30.409
2015    8        6     4  43    2.6520   468.0    3.800      30.382
2015    8        6     4  49    2.6512   467.8    3.802      30.355
2015    8        6     4  56    2.6505   467.5    3.804      30.328
2015    8        6     5   3    2.6497   467.3    3.807      30.300
2015    8        6     5  10    2.6490   467.0    3.809      30.274
2015    8        6     5  16    2.6482   466.8    3.811      30.247
2015    8        6     5  23    2.6475   466.5    3.814      30.220
2015    8        6     5  30    2.6468   466.3    3.816      30.194
2015    8        6     5  37    2.6460   466.0    3.819      30.168
2015    8        6     5  43    2.6453   465.8    3.822      30.141
2015    8        6     5  50    2.6446   465.5    3.824      30.115
2015    8        6     5  57    2.6439   465.3    3.827      30.089
2015    8        6     6   4    2.6432   465.0    3.830      30.063
2015    8        6     6  10    2.6425   464.8    3.832      30.037
2015    8        6     6  17    2.6418   464.5    3.835      30.011
2015    8        6     6  24    2.6412   464.3    3.838      29.985
2015    8        6     6  31    2.6405   464.0    3.841      29.959
2015    8        6     6  37    2.6398   463.8    3.843      29.933
2015    8        6     6  44    2.6391   463.5    3.846      29.907
2015    8        6     6  51    2.6385   463.2    3.849      29.882
2015    8        6     6  58    2.6378   463.0    3.852      29.856
2015    8        6     7   4    2.6372   462.7    3.855      29.830
2015    8        6     7  11    2.6365   462.5    3.858      29.805
2015    8        6     7  18    2.6359   462.2    3.861      29.779
2015    8        6     7  25    2.6353   462.0    3.864      29.753
2015    8        6     7  31    2.6346   461.7    3.867      29.728
2015    8        6     7  38    2.6340   461.5    3.870      29.702
2015    8        6     7  45    2.6334   461.2    3.873      29.677
2015    8        6     7  52    2.6328   460.9    3.875      29.651
2015    8        6     7  58    2.6322   460.7    3.878      29.626
2015    8        6     8   5    2.6316   460.4    3.881      29.600
2015    8        6     8  12    2.6310   460.2    3.884      29.575
2015    8        6     8  19    2.6304   459.9    3.887      29.549
2015    8        6     8  26    2.6298   459.6    3.890      29.524
2015    8        6     8  32    2.6292   459.4    3.893      29.499
2015    8        6     8  39    2.6287   459.1    3.896      29.474
2015    8        6     8  46    2.6281   458.9    3.899      29.448
2015    8        6     8  53    2.6276   458.6    3.902      29.423
2015    8        6     8  59    2.6270   458.4    3.905      29.398
2015    8        6     9   6    2.6265   458.1    3.908      29.373
2015    8        6     9  13    2.6260   457.8    3.911      29.349
2015    8        6     9  20    2.6255   457.6    3.914      29.324
2015    8        6     9  26    2.6250   457.3    3.917      29.299
2015    8        6     9  33    2.6245   457.1    3.920      29.274
2015    8        6     9  40    2.6240   456.8    3.923      29.250
2015    8        6     9  47    2.6235   456.6    3.926      29.225
2015    8        6     9  53    2.6230   456.3    3.930      29.201
2015    8        6    10   0    2.6225   456.0    3.933      29.176
2015    8        6    10   7    2.6221   455.8    3.936      29.152
2015    8        6    10  14    2.6216   455.5    3.939      29.127
2015    8        6    10  20    2.6212   455.3    3.942      29.103
2015    8        6    10  27    2.6207   455.0    3.945      29.079
2015    8        6    10  34    2.6203   454.8    3.948      29.055
2015    8        6    10  40    2.6198   454.5    3.952      29.030
2015    8        6    10  47    2.6194   454.2    3.955      29.006
2015    8        6    10  54    2.6190   454.0    3.958      28.982
2015    8        6    11   1    2.6185   453.7    3.961      28.958
2015    8        6    11   7    2.6181   453.5    3.964      28.933
2015    8        6    11  14    2.6177   453.2    3.967      28.909
2015    8        6    11  21    2.6173   452.9    3.971      28.885
2015    8        6    11  28    2.6168   452.7    3.974      28.861
2015    8        6    11  34    2.6164   452.4    3.977      28.836
2015    8        6    11  41    2.6160   452.2    3.980      28.812
2015    8        6    11  48    2.6156   451.9    3.983      28.787
2015    8        6    11  55    2.6152   451.6    3.987      28.763
2015    8        6    12   1    2.6148   451.4    3.990      28.738
2015    8        6    12   8    2.6144   451.1    3.993      28.714
2015    8        6    12  15    2.6141   450.9    3.996      28.689
2015    8        6    12  22    2.6137   450.6    3.999      28.665
2015    8        6    12  28    2.6133   450.3    4.003      28.640
2015    8        6    12  35    2.6130   450.1    4.006      28.615
2015    8        6    12  42    2.6126   449.8    4.009      28.590
2015    8        6    12  49    2.6123   449.5    4.013      28.566
2015    8        6    12  55    2.6119   449.3    4.016      28.541
2015    8        6    13   2    2.6116   449.0    4.019      28.516
2015    8        6    13   9    2.6113   448.7    4.023      28.491
2015    8        6    13  16    2.6110   448.5    4.026      28.467
2015    8        6    13  22    2.6107   448.2    4.029      28.442
2015    8        6    13  29    2.6104   447.9    4.033      28.417
2015    8        6    13  36    2.6102   447.7    4.036      28.392
2015    8        6    13  43    2.6099   447.4    4.040      28.368
2015    8        6    13  50    2.6097   447.2    4.043      28.343
2015    8        6    13  56    2.6095   446.9    4.047      28.318
2015    8        6    14   3    2.6092   446.6    4.050      28.293
2015    8        6    14  10    2.6090   446.4    4.054      28.269
2015    8        6    14  17    2.6089   446.1    4.057      28.244
2015    8        6    14  23    2.6087   445.8    4.061      28.220
2015    8        6    14  30    2.6085   445.6    4.065      28.195
2015    8        6    14  37    2.6084   445.3    4.068      28.170
2015    8        6    14  44    2.6082   445.0    4.072      28.145
2015    8        6    14  50    2.6081   444.8    4.076      28.121
2015    8        6    14  57    2.6080   444.5    4.079      28.096
2015    8        6    15   4    2.6079   444.2    4.083      28.072
2015    8        6    15  11    2.6078   444.0    4.087      28.047
2015    8        6    15  17    2.6077   443.7    4.090      28.023
2015    8        6    15  24    2.6076   443.4    4.094      27.998
2015    8        6    15  31    2.6075   443.2    4.098      27.973
2015    8        6    15  38    2.6075   442.9    4.102      27.949
2015    8        6    15  44    2.6075   442.6    4.106      27.924
2015    8        6    15  51    2.6074   442.4    4.109      27.899
2015    8        6    15  58    2.6074   442.1    4.113      27.875
2015    8        6    16   5    2.6074   441.8    4.117      27.850
2015    8        6    16  11    2.6074   441.6    4.121      27.826
2015    8        6    16  18    2.6074   441.3    4.125      27.801
2015    8        6    16  25    2.6074   441.0    4.128      27.776
2015    8        6    16  32    2.6074   440.8    4.132      27.752
2015    8        6    16  38    2.6074   440.5    4.136      27.727
2015    8        6    16  45    2.6075   440.2    4.140      27.703
2015    8        6    16  52    2.6075   440.0    4.144      27.678
2015    8        6    16  59    2.6076   439.7    4.148      27.654
2015    8        6    17   5    2.6077   439.4    4.152      27.629
2015    8        6    17  12    2.6078   439.1    4.156      27.605
2015    8        6    17  19    2.6079   438.9    4.160      27.581
2015    8        6    17  26    2.6080   438.6    4.164      27.557
2015    8        6    17  32    2.6081   438.3    4.168      27.533
2015    8        6    17  39    2.6083   438.1    4.172      27.509
2015    8        6    17  46    2.6085   437.8    4.176      27.485
2015    8        6    17  53    2.6087   437.5    4.181      27.462
2015    8        6    17  59    2.6089   437.3    4.185      27.438
2015    8        6    18   6    2.6091   437.0    4.189      27.415
2015    8        6    18  13    2.6094   436.7    4.194      27.392
2015    8        6    18  20    2.6096   436.4    4.198      27.369
2015    8        6    18  26    2.6099   436.2    4.202      27.346
2015    8        6    18  33    2.6102   435.9    4.207      27.324
2015    8        6    18  40    2.6106   435.6    4.212      27.301
2015    8        6    18  47    2.6109   435.4    4.216      27.279
2015    8        6    18  53    2.6113   435.1    4.221      27.257
2015    8        6    19   0    2.6117   434.8    4.226      27.235
2015    8        6    19   7    2.6121   434.5    4.230      27.214
2015    8        6    19  14    2.6126   434.3    4.235      27.192
2015    8        6    19  20    2.6130   434.0    4.240      27.171
2015    8        6    19  27    2.6135   433.7    4.245      27.150
2015    8        6    19  34    2.6140   433.5    4.250      27.129
2015    8        6    19  41    2.6145   433.2    4.255      27.109
2015    8        6    19  47    2.6151   432.9    4.260      27.088
2015    8        6    19  54    2.6157   432.6    4.266      27.068
2015    8        6    20   1    2.6163   432.4    4.271      27.048
2015    8        6    20   8    2.6169   432.1    4.276      27.027
2015    8        6    20  14    2.6176   431.8    4.281      27.008
2015    8        6    20  21    2.6182   431.6    4.287      26.988
2015    8        6    20  28    2.6189   431.3    4.292      26.968
2015    8        6    20  35    2.6196   431.0    4.297      26.949
2015    8        6    20  41    2.6204   430.8    4.303      26.929
2015    8        6    20  48    2.6211   430.5    4.308      26.910
2015    8        6    20  55    2.6219   430.2    4.314      26.891
2015    8        6    21   2    2.6227   430.0    4.319      26.871
2015    8        6    21   8    2.6235   429.7    4.325      26.852
2015    8        6    21  15    2.6244   429.4    4.330      26.833
2015    8        6    21  22    2.6252   429.1    4.336      26.814
2015    8        6    21  29    2.6261   428.9    4.341      26.795
2015    8        6    21  35    2.6270   428.6    4.347      26.776
2015    8        6    21  42    2.6280   428.3    4.352      26.758
2015    8        6    21  49    2.6289   428.1    4.358      26.739
2015    8        6    21  56    2.6299   427.8    4.363      26.720
2015    8        6    22   2    2.6309   427.5    4.369      26.702
2015    8        6    22   9    2.6320   427.3    4.375      26.683
2015    8        6    22  16    2.6330   427.0    4.380      26.665
2015    8        6    22  23    2.6341   426.7    4.386      26.647
2015    8        6    22  30    2.6352   426.5    4.392      26.628
2015    8        6    22  36    2.6364   426.2    4.397      26.610
2015    8        6    22  43    2.6375   425.9    4.403      26.592
2015    8        6    22  50    2.6387   425.7    4.409      26.574
2015    8        6    22  57    2.6399   425.4    4.415      26.557
2015    8        6    23   3    2.6412   425.2    4.421      26.539
2015    8        6    23  10    2.6425   424.9    4.427      26.521
2015    8        6    23  17    2.6438   424.6    4.433      26.504
2015    8        6    23  24    2.6451   424.4    4.439      26.487
2015    8        6    23  30    2.6465   424.1    4.445      26.469
2015    8        6    23  37    2.6479   423.8    4.451      26.453
2015    8        6    23  44    2.6494   423.6    4.457      26.436
2015    8        6    23  51    2.6508   423.3    4.463      26.419
2015    8        6    23  57    2.6523   423.1    4.469      26.402
2015    8        7     0   4    2.6538   422.8    4.476      26.386
2015    8        7     0  11    2.6554   422.5    4.482      26.369
2015    8        7     0  18    2.6570   422.3    4.489      26.353
2015    8        7     0  24    2.6586   422.0    4.495      26.337
2015    8        7     0  31    2.6603   421.8    4.502      26.322
2015    8        7     0  38    2.6620   421.5    4.509      26.306
2015    8        7     0  45    2.6637   421.2    4.515      26.291
2015    8        7     0  51    2.6655   421.0    4.522      26.276
2015    8        7     0  58    2.6673   420.7    4.529      26.261
2015    8        7     1   5    2.6691   420.5    4.536      26.246
2015    8        7     1  11    2.6710   420.2    4.543      26.232
2015    8        7     1  18    2.6729   419.9    4.551      26.217
2015    8        7     1  25    2.6748   419.7    4.558      26.204
2015    8        7     1  32    2.6768   419.4    4.565      26.190
2015    8        7     1  38    2.6789   419.2    4.573      26.177
2015    8        7     1  45    2.6810   418.9    4.580      26.163
2015    8        7     1  52    2.6831   418.6    4.588      26.151
2015    8        7     1  59    2.6852   418.4    4.596      26.138
2015    8        7     2   5    2.6874   418.1    4.604      26.126
2015    8        7     2  12    2.6897   417.9    4.612      26.114
2015    8        7     2  19    2.6919   417.6    4.620      26.102
2015    8        7     2  26    2.6943   417.4    4.628      26.091
2015    8        7     2  32    2.6966   417.1    4.636      26.080
2015    8        7     2  39    2.6991   416.8    4.644      26.069
2015    8        7     2  46    2.7015   416.6    4.653      26.059
2015    8        7     2  53    2.7040   416.3    4.661      26.049
2015    8        7     2  59    2.7065   416.1    4.670      26.039
2015    8        7     3   6    2.7091   415.8    4.678      26.029
2015    8        7     3  13    2.7116   415.6    4.687      26.020
2015    8        7     3  20    2.7143   415.3    4.696      26.011
2015    8        7     3  26    2.7169   415.1    4.705      26.002
2015    8        7     3  33    2.7196   414.8    4.713      25.993
2015    8        7     3  40    2.7223   414.6    4.722      25.985
2015    8        7     3  47    2.7251   414.3    4.731      25.977
2015    8        7     3  53    2.7279   414.1    4.740      25.968
2015    8        7     4   0    2.7307   413.8    4.749      25.961
2015    8        7     4   7    2.7335   413.6    4.758      25.953
2015    8        7     4  14    2.7364   413.4    4.767      25.945
2015    8        7     4  21    2.7393   413.1    4.776      25.938
2015    8        7     4  27    2.7423   412.9    4.786      25.930
2015    8        7     4  34    2.7452   412.6    4.795      25.923
2015    8        7     4  41    2.7482   412.4    4.804      25.916
2015    8        7     4  48    2.7513   412.1    4.813      25.910
2015    8        7     4  54    2.7543   411.9    4.823      25.903
2015    8        7     5   1    2.7574   411.6    4.832      25.896
2015    8        7     5   8    2.7605   411.4    4.841      25.890
2015    8        7     5  15    2.7637   411.2    4.851      25.883
2015    8        7     5  21    2.7669   410.9    4.860      25.877
2015    8        7     5  28    2.7701   410.7    4.870      25.871
2015    8        7     5  35    2.7734   410.4    4.879      25.865
2015    8        7     5  42    2.7767   410.2    4.889      25.860
2015    8        7     5  48    2.7801   410.0    4.899      25.854
2015    8        7     5  55    2.7834   409.7    4.909      25.849
2015    8        7     6   2    2.7869   409.5    4.918      25.844
2015    8        7     6   9    2.7903   409.3    4.928      25.840
2015    8        7     6  15    2.7938   409.0    4.938      25.835
2015    8        7     6  22    2.7974   408.8    4.949      25.831
2015    8        7     6  29    2.8010   408.5    4.959      25.827
2015    8        7     6  36    2.8046   408.3    4.969      25.823
2015    8        7     6  42    2.8084   408.1    4.980      25.820
2015    8        7     6  49    2.8121   407.8    4.990      25.817
2015    8        7     6  56    2.8159   407.6    5.001      25.814
2015    8        7     7   3    2.8198   407.4    5.012      25.812
2015    8        7     7   9    2.8237   407.1    5.023      25.810
2015    8        7     7  16    2.8276   406.9    5.034      25.809
2015    8        7     7  23    2.8317   406.7    5.045      25.807
2015    8        7     7  30    2.8357   406.5    5.057      25.806
2015    8        7     7  36    2.8399   406.2    5.068      25.806
2015    8        7     7  43    2.8441   406.0    5.080      25.806
2015    8        7     7  50    2.8484   405.8    5.092      25.806
2015    8        7     7  57    2.8527   405.5    5.104      25.807
2015    8        7     8   3    2.8570   405.3    5.116      25.808
2015    8        7     8  10    2.8614   405.1    5.128      25.810
2015    8        7     8  17    2.8659   404.8    5.141      25.812
2015    8        7     8  24    2.8704   404.6    5.154      25.814
2015    8        7     8  30    2.8751   404.4    5.167      25.818
2015    8        7     8  37    2.8797   404.2    5.180      25.821
2015    8        7     8  44    2.8844   403.9    5.193      25.826
2015    8        7     8  51    2.8892   403.7    5.207      25.831
2015    8        7     8  57    2.8940   403.5    5.220      25.836
2015    8        7     9   4    2.8989   403.3    5.234      25.842
2015    8        7     9  11    2.9038   403.1    5.248      25.848
2015    8        7     9  18    2.9088   402.8    5.262      25.855
2015    8        7     9  24    2.9138   402.6    5.277      25.863
2015    8        7     9  31    2.9189   402.4    5.291      25.871
2015    8        7     9  38    2.9240   402.2    5.306      25.879
2015    8        7     9  45    2.9292   402.0    5.321      25.888
2015    8        7     9  51    2.9344   401.8    5.336      25.898
2015    8        7     9  58    2.9396   401.6    5.351      25.907
2015    8        7    10   5    2.9449   401.4    5.366      25.917
2015    8        7    10  12    2.9503   401.2    5.382      25.927
2015    8        7    10  18    2.9556   401.0    5.397      25.938
2015    8        7    10  25    2.9610   400.8    5.413      25.949
2015    8        7    10  32    2.9665   400.6    5.428      25.960
2015    8        7    10  39    2.9719   400.4    5.444      25.971
2015    8        7    10  45    2.9775   400.2    5.460      25.983
2015    8        7    10  52    2.9830   400.0    5.476      25.994
2015    8        7    10  59    2.9886   399.8    5.492      26.006
2015    8        7    11   6    2.9942   399.6    5.508      26.018
2015    8        7    11  12    2.9998   399.4    5.524      26.030
2015    8        7    11  19    3.0055   399.2    5.541      26.042
2015    8        7    11  26    3.0112   399.0    5.557      26.055
2015    8        7    11  33    3.0170   398.9    5.574      26.068
2015    8        7    11  39    3.0228   398.7    5.590      26.081
2015    8        7    11  46    3.0286   398.5    5.607      26.094
2015    8        7    11  53    3.0346   398.3    5.624      26.108
2015    8        7    12   0    3.0405   398.1    5.641      26.122
2015    8        7    12   6    3.0466   397.9    5.659      26.137
2015    8        7    12  13    3.0526   397.8    5.676      26.152
2015    8        7    12  20    3.0587   397.6    5.694      26.168
2015    8        7    12  27    3.0649   397.4    5.712      26.185
2015    8        7    12  33    3.0712   397.2    5.730      26.202
2015    8        7    12  40    3.0775   397.1    5.748      26.220
2015    8        7    12  47    3.0840   396.9    5.767      26.239
2015    8        7    12  54    3.0905   396.7    5.786      26.259
2015    8        7    13   1    3.0971   396.6    5.806      26.279
2015    8        7    13   7    3.1037   396.4    5.825      26.301
2015    8        7    13  14    3.1106   396.2    5.846      26.325
2015    8        7    13  21    3.1176   396.1    5.866      26.349
2015    8        7    13  28    3.1247   395.9    5.888      26.374
2015    8        7    13  34    3.1319   395.7    5.910      26.401
2015    8        7    13  41    3.1392   395.6    5.932      26.429
2015    8        7    13  48    3.1466   395.4    5.955      26.460
2015    8        7    13  55    3.1541   395.3    5.979      26.493
2015    8        7    14   1    3.1616   395.1    6.002      26.529
2015    8        7    14   8    3.1691   395.0    6.026      26.569
2015    8        7    14  15    3.1766   394.9    6.049      26.614
2015    8        7    14  22    3.1841   394.8    6.073      26.663
2015    8        7    14  28    3.1916   394.7    6.096      26.715
2015    8        7    14  35    3.1992   394.6    6.118      26.770
2015    8        7    14  42    3.2066   394.5    6.141      26.826
2015    8        7    14  49    3.2141   394.4    6.164      26.884
2015    8        7    14  55    3.2215   394.3    6.186      26.942
2015    8        7    15   2    3.2290   394.2    6.208      26.999
2015    8        7    15   9    3.2364   394.1    6.230      27.056
2015    8        7    15  16    3.2438   394.0    6.252      27.112
2015    8        7    15  22    3.2511   393.9    6.273      27.168
2015    8        7    15  29    3.2586   393.8    6.295      27.224
2015    8        7    15  36    3.2659   393.7    6.316      27.279
2015    8        7    15  43    3.2733   393.6    6.338      27.334
2015    8        7    15  49    3.2807   393.5    6.359      27.387
2015    8        7    15  56    3.2881   393.4    6.380      27.440
2015    8        7    16   3    3.2954   393.3    6.402      27.493
2015    8        7    16   9    3.3028   393.3    6.423      27.545
2015    8        7    16  16    3.3102   393.2    6.444      27.596
2015    8        7    16  23    3.3176   393.1    6.466      27.648
2015    8        7    16  30    3.3250   393.0    6.487      27.698
2015    8        7    16  36    3.3325   392.9    6.509      27.749
2015    8        7    16  43    3.3399   392.9    6.530      27.799
2015    8        7    16  50    3.3474   392.8    6.552      27.849
2015    8        7    16  57    3.3548   392.7    6.573      27.898
2015    8        7    17   3    3.3623   392.6    6.595      27.948
2015    8        7    17  10    3.3698   392.6    6.617      27.997
2015    8        7    17  17    3.3774   392.5    6.639      28.045
2015    8        7    17  24    3.3849   392.4    6.661      28.094
2015    8        7    17  30    3.3925   392.4    6.683      28.142
2015    8        7    17  37    3.4000   392.3    6.705      28.190
2015    8        7    17  44    3.4076   392.3    6.727      28.237
2015    8        7    17  51    3.4152   392.2    6.749      28.285
2015    8        7    17  57    3.4229   392.1    6.772      28.332
2015    8        7    18   4    3.4305   392.1    6.794      28.379
2015    8        7    18  11    3.4382   392.0    6.817      28.426
2015    8        7    18  18    3.4459   392.0    6.839      28.472
2015    8        7    18  24    3.4536   391.9    6.862      28.519
2015    8        7    18  31    3.4614   391.8    6.885      28.565
2015    8        7    18  38    3.4692   391.8    6.908      28.612
2015    8        7    18  45    3.4770   391.7    6.931      28.659
2015    8        7    18  52    3.4849   391.7    6.955      28.707
2015    8        7    18  58    3.4928   391.6    6.979      28.754
2015    8        7    19   5    3.5009   391.6    7.003      28.802
2015    8        7    19  12    3.5090   391.5    7.027      28.851
2015    8        7    19  19    3.5172   391.5    7.052      28.901
2015    8        7    19  25    3.5254   391.4    7.078      28.951
2015    8        7    19  32    3.5338   391.4    7.104      29.002
2015    8        7    19  39    3.5423   391.3    7.131      29.054
2015    8        7    19  46    3.5509   391.3    7.158      29.108
2015    8        7    19  52    3.5597   391.2    7.186      29.163
2015    8        7    19  59    3.5686   391.2    7.216      29.220
2015    8        7    20   6    3.5778   391.1    7.246      29.278
2015    8        7    20  13    3.5872   391.1    7.278      29.337
2015    8        7    20  19    3.5968   391.0    7.310      29.398
2015    8        7    20  26    3.6068   391.0    7.344      29.465
2015    8        7    20  33    3.6169   391.0    7.378      29.538
2015    8        7    20  40    3.6271   391.0    7.413      29.617
2015    8        7    20  46    3.6375   391.1    7.447      29.703
2015    8        7    20  53    3.6479   391.1    7.481      29.795
2015    8        7    21   0    3.6582   391.2    7.514      29.894
2015    8        7    21   7    3.6685   391.2    7.547      29.999
2015    8        7    21  13    3.6786   391.3    7.578      30.105
2015    8        7    21  20    3.6886   391.4    7.609      30.212
2015    8        7    21  27    3.6984   391.4    7.638      30.319
2015    8        7    21  34    3.7081   391.5    7.667      30.427
2015    8        7    21  40    3.7176   391.6    7.694      30.532
2015    8        7    21  47    3.7269   391.7    7.721      30.637
2015    8        7    21  54    3.7360   391.8    7.746      30.739
2015    8        7    22   1    3.7451   391.9    7.770      30.840
2015    8        7    22   7    3.7539   391.9    7.793      30.939
2015    8        7    22  14    3.7626   392.0    7.816      31.036
2015    8        7    22  21    3.7712   392.1    7.837      31.130
2015    8        7    22  28    3.7797   392.2    7.858      31.223
2015    8        7    22  34    3.7881   392.3    7.878      31.313
2015    8        7    22  41    3.7963   392.4    7.897      31.402
2015    8        7    22  48    3.8045   392.5    7.915      31.489
2015    8        7    22  55    3.8126   392.6    7.933      31.574
2015    8        7    23   1    3.8206   392.7    7.950      31.657
2015    8        7    23   8    3.8285   392.8    7.966      31.739
2015    8        7    23  15    3.8364   392.9    7.982      31.819
2015    8        7    23  22    3.8442   393.0    7.998      31.898
2015    8        7    23  28    3.8519   393.1    8.013      31.975
2015    8        7    23  35    3.8597   393.2    8.027      32.051
2015    8        7    23  42    3.8673   393.3    8.041      32.126
2015    8        7    23  49    3.8749   393.4    8.055      32.199
2015    8        7    23  55    3.8824   393.5    8.068      32.271
2015    8        8     0   2    3.8899   393.6    8.081      32.342
2015    8        8     0   9    3.8973   393.7    8.093      32.412
2015    8        8     0  16    3.9047   393.8    8.105      32.480
2015    8        8     0  22    3.9120   393.9    8.117      32.548
2015    8        8     0  29    3.9194   394.0    8.129      32.615
2015    8        8     0  36    3.9266   394.1    8.140      32.680
2015    8        8     0  43    3.9338   394.2    8.151      32.745
2015    8        8     0  49    3.9410   394.3    8.162      32.808
2015    8        8     0  56    3.9482   394.4    8.173      32.871
2015    8        8     1   3    3.9552   394.5    8.183      32.932
2015    8        8     1  10    3.9623   394.6    8.194      32.993
2015    8        8     1  16    3.9693   394.7    8.204      33.053
2015    8        8     1  23    3.9763   394.8    8.214      33.112
2015    8        8     1  30    3.9833   394.9    8.224      33.170
2015    8        8     1  37    3.9902   394.9    8.234      33.227
2015    8        8     1  43    3.9971   395.0    8.244      33.284
2015    8        8     1  50    4.0039   395.1    8.254      33.340
2015    8        8     1  57    4.0107   395.2    8.263      33.395
2015    8        8     2   4    4.0176   395.3    8.274      33.450
2015    8        8     2  10    4.0243   395.4    8.284      33.504
2015    8        8     2  17    4.0311   395.5    8.294      33.558
2015    8        8     2  24    4.0378   395.6    8.304      33.611
2015    8        8     2  31    4.0446   395.7    8.315      33.664
2015    8        8     2  37    4.0513   395.8    8.326      33.717
2015    8        8     2  44    4.0580   395.9    8.337      33.770
2015    8        8     2  51    4.0648   396.0    8.349      33.822
2015    8        8     2  58    4.0715   396.1    8.361      33.875
2015    8        8     3   4    4.0783   396.1    8.374      33.927
2015    8        8     3  11    4.0851   396.2    8.387      33.981
2015    8        8     3  18    4.0920   396.3    8.401      34.034
2015    8        8     3  25    4.0989   396.4    8.415      34.087
2015    8        8     3  32    4.1059   396.5    8.430      34.141
2015    8        8     3  38    4.1131   396.6    8.446      34.196
2015    8        8     3  45    4.1202   396.7    8.462      34.254
2015    8        8     3  52    4.1274   396.8    8.479      34.317
2015    8        8     3  59    4.1346   396.9    8.495      34.383
2015    8        8     4   5    4.1417   397.1    8.511      34.454
2015    8        8     4  12    4.1488   397.2    8.527      34.528
2015    8        8     4  19    4.1557   397.4    8.542      34.605
2015    8        8     4  26    4.1625   397.5    8.557      34.685
2015    8        8     4  32    4.1691   397.7    8.571      34.763
2015    8        8     4  39    4.1756   397.8    8.585      34.841
2015    8        8     4  46    4.1820   398.0    8.598      34.918
2015    8        8     4  53    4.1881   398.1    8.610      34.994
2015    8        8     4  59    4.1941   398.3    8.622      35.070
2015    8        8     5   6    4.2000   398.4    8.632      35.145
2015    8        8     5  13    4.2057   398.6    8.642      35.219
2015    8        8     5  20    4.2112   398.8    8.652      35.293
2015    8        8     5  26    4.2167   398.9    8.661      35.365
2015    8        8     5  33    4.2220   399.1    8.669      35.437
2015    8        8     5  40    4.2272   399.3    8.677      35.507
2015    8        8     5  47    4.2324   399.4    8.684      35.576
2015    8        8     5  53    4.2374   399.6    8.691      35.645
2015    8        8     6   0    4.2424   399.8    8.698      35.713
2015    8        8     6   7    4.2473   399.9    8.704      35.780
2015    8        8     6  14    4.2521   400.1    8.710      35.846
2015    8        8     6  20    4.2569   400.3    8.715      35.912
2015    8        8     6  27    4.2616   400.5    8.721      35.976
2015    8        8     6  34    4.2663   400.6    8.726      36.041
2015    8        8     6  40    4.2709   400.8    8.731      36.105
2015    8        8     6  47    4.2755   401.0    8.735      36.169
2015    8        8     6  54    4.2800   401.1    8.740      36.232
2015    8        8     7   1    4.2845   401.3    8.745      36.295
2015    8        8     7   7    4.2891   401.5    8.750      36.358
2015    8        8     7  14    4.2936   401.7    8.754      36.421
2015    8        8     7  21    4.2981   401.8    8.759      36.484
2015    8        8     7  28    4.3027   402.0    8.765      36.547
2015    8        8     7  34    4.3072   402.2    8.770      36.611
2015    8        8     7  41    4.3119   402.4    8.776      36.676
2015    8        8     7  48    4.3166   402.5    8.782      36.741
2015    8        8     7  55    4.3213   402.7    8.789      36.807
2015    8        8     8   1    4.3262   402.9    8.797      36.872
2015    8        8     8   8    4.3311   403.0    8.804      36.941
2015    8        8     8  15    4.3362   403.2    8.812      37.014
2015    8        8     8  22    4.3413   403.4    8.820      37.090
2015    8        8     8  28    4.3464   403.6    8.828      37.167
2015    8        8     8  35    4.3515   403.8    8.836      37.248
2015    8        8     8  42    4.3567   404.1    8.843      37.331
2015    8        8     8  49    4.3617   404.3    8.849      37.416
2015    8        8     8  55    4.3665   404.5    8.855      37.499
2015    8        8     9   2    4.3713   404.7    8.860      37.581
2015    8        8     9   9    4.3759   404.9    8.864      37.661
2015    8        8     9  16    4.3803   405.1    8.868      37.739
2015    8        8     9  23    4.3846   405.4    8.870      37.815
2015    8        8     9  29    4.3887   405.6    8.872      37.889
2015    8        8     9  36    4.3926   405.8    8.874      37.962
2015    8        8     9  43    4.3964   406.0    8.874      38.032
2015    8        8     9  50    4.4001   406.2    8.874      38.100
2015    8        8     9  56    4.4036   406.5    8.873      38.167
2015    8        8    10   3    4.4069   406.7    8.872      38.232
2015    8        8    10  10    4.4102   406.9    8.870      38.295
2015    8        8    10  17    4.4133   407.1    8.868      38.356
2015    8        8    10  23    4.4163   407.3    8.865      38.416
2015    8        8    10  30    4.4192   407.5    8.862      38.475
2015    8        8    10  37    4.4220   407.7    8.859      38.532
2015    8        8    10  44    4.4247   408.0    8.855      38.588
2015    8        8    10  50    4.4273   408.2    8.851      38.643
2015    8        8    10  57    4.4298   408.4    8.847      38.697
2015    8        8    11   4    4.4322   408.6    8.842      38.750
2015    8        8    11  11    4.4345   408.8    8.837      38.802
2015    8        8    11  17    4.4368   409.0    8.832      38.853
2015    8        8    11  24    4.4389   409.3    8.827      38.904
2015    8        8    11  31    4.4410   409.5    8.822      38.954
2015    8        8    11  38    4.4430   409.7    8.817      39.003
2015    8        8    11  44    4.4450   409.9    8.812      39.052
2015    8        8    11  51    4.4469   410.1    8.807      39.101
2015    8        8    11  58    4.4488   410.3    8.801      39.149
2015    8        8    12   5    4.4506   410.5    8.796      39.198
2015    8        8    12  11    4.4524   410.8    8.791      39.246
2015    8        8    12  18    4.4542   411.0    8.786      39.294
2015    8        8    12  25    4.4559   411.2    8.780      39.342
2015    8        8    12  32    4.4576   411.4    8.776      39.390
2015    8        8    12  38    4.4593   411.6    8.771      39.438
2015    8        8    12  45    4.4610   411.8    8.766      39.487
2015    8        8    12  52    4.4626   412.0    8.762      39.536
2015    8        8    12  59    4.4642   412.3    8.758      39.587
2015    8        8    13   5    4.4658   412.5    8.754      39.639
2015    8        8    13  12    4.4673   412.7    8.751      39.692
2015    8        8    13  19    4.4687   412.9    8.748      39.745
2015    8        8    13  26    4.4701   413.2    8.744      39.797
2015    8        8    13  32    4.4714   413.4    8.741      39.849
2015    8        8    13  39    4.4726   413.7    8.737      39.900
2015    8        8    13  46    4.4738   413.9    8.733      39.949
2015    8        8    13  53    4.4748   414.1    8.728      39.996
2015    8        8    13  59    4.4758   414.4    8.724      40.041
2015    8        8    14   6    4.4766   414.6    8.719      40.083
2015    8        8    14  13    4.4774   414.9    8.713      40.124
2015    8        8    14  20    4.4782   415.1    8.708      40.163
2015    8        8    14  26    4.4789   415.3    8.702      40.200
2015    8        8    14  33    4.4795   415.5    8.697      40.235
2015    8        8    14  40    4.4801   415.7    8.691      40.268
2015    8        8    14  47    4.4806   415.9    8.686      40.300
2015    8        8    14  53    4.4811   416.2    8.681      40.332
2015    8        8    15   0    4.4816   416.4    8.677      40.364
2015    8        8    15   7    4.4820   416.5    8.673      40.394
2015    8        8    15  14    4.4824   416.7    8.670      40.424
2015    8        8    15  20    4.4829   416.9    8.668      40.454
2015    8        8    15  27    4.4834   417.1    8.666      40.488
2015    8        8    15  34    4.4839   417.3    8.664      40.526
2015    8        8    15  41    4.4845   417.5    8.662      40.566
2015    8        8    15  47    4.4850   417.7    8.660      40.609
2015    8        8    15  54    4.4856   417.9    8.658      40.655
2015    8        8    16   1    4.4861   418.1    8.655      40.704
2015    8        8    16   8    4.4865   418.3    8.652      40.754
2015    8        8    16  14    4.4867   418.6    8.648      40.803
2015    8        8    16  21    4.4869   418.8    8.644      40.850
2015    8        8    16  28    4.4868   419.0    8.638      40.896
2015    8        8    16  35    4.4867   419.2    8.632      40.941
2015    8        8    16  41    4.4864   419.4    8.625      40.985
2015    8        8    16  48    4.4860   419.7    8.618      41.028
2015    8        8    16  55    4.4854   419.9    8.609      41.069
2015    8        8    17   2    4.4848   420.1    8.601      41.108
2015    8        8    17   8    4.4839   420.3    8.591      41.146
2015    8        8    17  15    4.4830   420.6    8.581      41.182
2015    8        8    17  22    4.4820   420.8    8.570      41.217
2015    8        8    17  29    4.4809   421.0    8.559      41.251
2015    8        8    17  36    4.4797   421.2    8.548      41.283
2015    8        8    17  42    4.4784   421.4    8.536      41.314
2015    8        8    17  49    4.4770   421.7    8.524      41.344
2015    8        8    17  56    4.4756   421.9    8.511      41.373
2015    8        8    18   3    4.4741   422.1    8.498      41.400
2015    8        8    18   9    4.4726   422.3    8.485      41.427
2015    8        8    18  16    4.4709   422.6    8.472      41.453
2015    8        8    18  23    4.4693   422.8    8.458      41.477
2015    8        8    18  30    4.4675   423.0    8.444      41.501
2015    8        8    18  36    4.4658   423.2    8.431      41.524
2015    8        8    18  43    4.4639   423.4    8.417      41.547
2015    8        8    18  50    4.4621   423.7    8.403      41.569
2015    8        8    18  57    4.4602   423.9    8.389      41.590
2015    8        8    19   3    4.4583   424.1    8.375      41.611
2015    8        8    19  10    4.4563   424.3    8.361      41.631
2015    8        8    19  17    4.4544   424.5    8.347      41.652
2015    8        8    19  24    4.4524   424.7    8.333      41.672
2015    8        8    19  30    4.4505   425.0    8.319      41.691
2015    8        8    19  37    4.4485   425.2    8.305      41.710
2015    8        8    19  44    4.4465   425.4    8.292      41.729
2015    8        8    19  51    4.4445   425.6    8.278      41.748
2015    8        8    19  57    4.4424   425.8    8.264      41.767
2015    8        8    20   4    4.4403   426.0    8.251      41.788
2015    8        8    20  11    4.4382   426.3    8.238      41.810
2015    8        8    20  18    4.4360   426.5    8.225      41.833
2015    8        8    20  24    4.4337   426.7    8.213      41.858
2015    8        8    20  31    4.4313   427.0    8.200      41.883
2015    8        8    20  38    4.4289   427.2    8.186      41.909
2015    8        8    20  45    4.4263   427.5    8.173      41.934
2015    8        8    20  51    4.4236   427.7    8.158      41.958
2015    8        8    20  58    4.4207   428.0    8.143      41.980
2015    8        8    21   5    4.4177   428.3    8.127      42.000
2015    8        8    21  12    4.4144   428.5    8.111      42.017
2015    8        8    21  18    4.4109   428.8    8.093      42.030
2015    8        8    21  25    4.4072   429.1    8.074      42.039
2015    8        8    21  32    4.4032   429.3    8.053      42.044
2015    8        8    21  39    4.3990   429.6    8.032      42.046
2015    8        8    21  45    4.3945   429.9    8.009      42.044
2015    8        8    21  52    4.3896   430.1    7.984      42.035
2015    8        8    21  59    4.3844   430.3    7.960      42.020
2015    8        8    22   5    4.3789   430.6    7.934      41.998
2015    8        8    22  12    4.3732   430.8    7.908      41.971
2015    8        8    22  19    4.3672   431.0    7.882      41.939
2015    8        8    22  26    4.3612   431.1    7.856      41.903
2015    8        8    22  32    4.3549   431.3    7.831      41.861
2015    8        8    22  39    4.3488   431.5    7.806      41.820
2015    8        8    22  46    4.3425   431.6    7.781      41.779
2015    8        8    22  53    4.3363   431.8    7.756      41.737
2015    8        8    23   0    4.3301   432.0    7.732      41.695
2015    8        8    23   6    4.3239   432.1    7.708      41.653
2015    8        8    23  13    4.3178   432.3    7.685      41.611
2015    8        8    23  20    4.3118   432.4    7.662      41.568
2015    8        8    23  27    4.3057   432.5    7.639      41.526
2015    8        8    23  33    4.2998   432.7    7.617      41.484
2015    8        8    23  40    4.2939   432.8    7.595      41.442
2015    8        8    23  47    4.2880   433.0    7.573      41.401
2015    8        8    23  54    4.2822   433.1    7.552      41.359
2015    8        9     0   0    4.2764   433.2    7.531      41.318
2015    8        9     0   7    4.2707   433.4    7.510      41.276
2015    8        9     0  14    4.2650   433.5    7.489      41.235
2015    8        9     0  21    4.2593   433.6    7.468      41.193
2015    8        9     0  27    4.2537   433.7    7.448      41.152
2015    8        9     0  34    4.2481   433.9    7.428      41.110
2015    8        9     0  41    4.2425   434.0    7.408      41.069
2015    8        9     0  48    4.2370   434.1    7.388      41.027
2015    8        9     0  54    4.2314   434.2    7.369      40.985
2015    8        9     1   1    4.2259   434.3    7.349      40.943
2015    8        9     1   8    4.2204   434.4    7.330      40.901
2015    8        9     1  15    4.2150   434.5    7.311      40.859
2015    8        9     1  21    4.2095   434.6    7.292      40.817
2015    8        9     1  28    4.2041   434.8    7.273      40.774
2015    8        9     1  35    4.1987   434.9    7.254      40.732
2015    8        9     1  42    4.1933   435.0    7.236      40.688
2015    8        9     1  48    4.1879   435.0    7.217      40.645
2015    8        9     1  55    4.1825   435.1    7.199      40.602
2015    8        9     2   2    4.1771   435.2    7.181      40.558
2015    8        9     2   9    4.1717   435.3    7.163      40.514
2015    8        9     2  15    4.1664   435.4    7.145      40.469
2015    8        9     2  22    4.1610   435.5    7.127      40.424
2015    8        9     2  29    4.1556   435.6    7.109      40.379
2015    8        9     2  36    4.1502   435.7    7.092      40.333
2015    8        9     2  42    4.1448   435.8    7.074      40.286
2015    8        9     2  49    4.1394   435.8    7.057      40.239
2015    8        9     2  56    4.1341   435.9    7.040      40.192
2015    8        9     3   3    4.1286   436.0    7.023      40.144
2015    8        9     3   9    4.1232   436.1    7.006      40.097
2015    8        9     3  16    4.1178   436.2    6.989      40.048
2015    8        9     3  23    4.1123   436.2    6.972      40.001
2015    8        9     3  30    4.1067   436.3    6.955      39.953
2015    8        9     3  36    4.1012   436.4    6.938      39.905
2015    8        9     3  43    4.0956   436.5    6.921      39.858
2015    8        9     3  50    4.0900   436.6    6.903      39.811
2015    8        9     3  57    4.0843   436.7    6.886      39.764
2015    8        9     4   3    4.0786   436.8    6.869      39.718
2015    8        9     4  10    4.0727   436.8    6.851      39.670
2015    8        9     4  17    4.0669   436.9    6.833      39.622
2015    8        9     4  24    4.0608   437.0    6.814      39.573
2015    8        9     4  30    4.0547   437.1    6.796      39.524
2015    8        9     4  37    4.0484   437.2    6.776      39.472
2015    8        9     4  44    4.0419   437.3    6.756      39.418
2015    8        9     4  51    4.0352   437.4    6.736      39.362
2015    8        9     4  57    4.0284   437.5    6.714      39.305
2015    8        9     5   4    4.0212   437.6    6.691      39.245
2015    8        9     5  11    4.0139   437.7    6.668      39.179
2015    8        9     5  18    4.0063   437.8    6.645      39.107
2015    8        9     5  24    3.9987   437.8    6.621      39.030
2015    8        9     5  31    3.9909   437.9    6.597      38.949
2015    8        9     5  38    3.9832   437.9    6.573      38.864
2015    8        9     5  45    3.9754   437.9    6.550      38.775
2015    8        9     5  51    3.9677   437.9    6.527      38.685
2015    8        9     5  58    3.9602   437.9    6.505      38.594
2015    8        9     6   5    3.9528   437.9    6.483      38.505
2015    8        9     6  12    3.9456   437.9    6.462      38.416
2015    8        9     6  18    3.9385   437.9    6.442      38.328
2015    8        9     6  25    3.9315   437.8    6.423      38.239
2015    8        9     6  32    3.9247   437.8    6.404      38.149
2015    8        9     6  39    3.9180   437.8    6.386      38.059
2015    8        9     6  45    3.9115   437.7    6.369      37.969
2015    8        9     6  52    3.9051   437.7    6.353      37.880
2015    8        9     6  59    3.8988   437.6    6.338      37.791
2015    8        9     7   6    3.8926   437.5    6.324      37.702
2015    8        9     7  12    3.8866   437.5    6.310      37.614
2015    8        9     7  19    3.8806   437.4    6.298      37.527
2015    8        9     7  26    3.8748   437.3    6.286      37.443
2015    8        9     7  33    3.8691   437.3    6.275      37.360
2015    8        9     7  39    3.8635   437.2    6.266      37.278
2015    8        9     7  46    3.8580   437.1    6.257      37.197
2015    8        9     7  53    3.8527   437.1    6.248      37.120
2015    8        9     8   0    3.8475   437.0    6.240      37.046
2015    8        9     8   7    3.8424   436.9    6.233      36.976
2015    8        9     8  13    3.8373   436.8    6.225      36.908
2015    8        9     8  20    3.8324   436.8    6.218      36.843
2015    8        9     8  27    3.8276   436.7    6.211      36.781
2015    8        9     8  34    3.8228   436.6    6.204      36.721
2015    8        9     8  40    3.8181   436.6    6.197      36.662
2015    8        9     8  47    3.8134   436.5    6.189      36.604
2015    8        9     8  54    3.8088   436.4    6.182      36.544
2015    8        9     9   1    3.8042   436.3    6.174      36.485
2015    8        9     9   7    3.7996   436.2    6.166      36.425
2015    8        9     9  14    3.7950   436.2    6.159      36.365
2015    8        9     9  21    3.7904   436.1    6.151      36.305
2015    8        9     9  28    3.7859   436.0    6.143      36.246
2015    8        9     9  34    3.7813   435.9    6.135      36.185
2015    8        9     9  41    3.7767   435.8    6.127      36.124
2015    8        9     9  48    3.7722   435.7    6.119      36.063
2015    8        9     9  55    3.7676   435.6    6.111      36.002
2015    8        9    10   1    3.7631   435.5    6.104      35.939
2015    8        9    10   8    3.7585   435.5    6.096      35.878
2015    8        9    10  15    3.7540   435.4    6.088      35.815
2015    8        9    10  22    3.7494   435.3    6.080      35.753
2015    8        9    10  28    3.7449   435.2    6.072      35.691
2015    8        9    10  35    3.7403   435.1    6.064      35.629
2015    8        9    10  42    3.7358   435.0    6.057      35.566
2015    8        9    10  49    3.7313   434.9    6.049      35.505
2015    8        9    10  55    3.7268   434.8    6.041      35.442
2015    8        9    11   2    3.7223   434.7    6.034      35.381
2015    8        9    11   9    3.7178   434.6    6.026      35.319
2015    8        9    11  16    3.7133   434.5    6.019      35.258
2015    8        9    11  22    3.7088   434.4    6.011      35.196
2015    8        9    11  29    3.7043   434.3    6.004      35.135
2015    8        9    11  36    3.6998   434.2    5.997      35.075
2015    8        9    11  43    3.6954   434.1    5.989      35.015
2015    8        9    11  49    3.6909   434.0    5.982      34.955
2015    8        9    11  56    3.6864   433.9    5.975      34.896
2015    8        9    12   3    3.6819   433.8    5.967      34.837
2015    8        9    12  10    3.6774   433.7    5.960      34.778
2015    8        9    12  16    3.6729   433.6    5.953      34.720
2015    8        9    12  23    3.6684   433.5    5.946      34.663
2015    8        9    12  30    3.6640   433.3    5.939      34.606
2015    8        9    12  36    3.6596   433.2    5.932      34.550
2015    8        9    12  43    3.6552   433.1    5.925      34.494
2015    8        9    12  50    3.6509   433.0    5.918      34.439
2015    8        9    12  57    3.6467   432.9    5.911      34.384
2015    8        9    13   3    3.6426   432.8    5.904      34.330
2015    8        9    13  10    3.6385   432.7    5.897      34.276
2015    8        9    13  17    3.6345   432.5    5.891      34.223
2015    8        9    13  24    3.6307   432.4    5.885      34.169
2015    8        9    13  31    3.6269   432.3    5.879      34.117
2015    8        9    13  37    3.6231   432.1    5.873      34.063
2015    8        9    13  44    3.6195   432.0    5.868      34.009
2015    8        9    13  51    3.6160   431.8    5.863      33.954
2015    8        9    13  58    3.6125   431.7    5.858      33.899
2015    8        9    14   4    3.6091   431.5    5.854      33.843
2015    8        9    14  11    3.6058   431.4    5.851      33.788
2015    8        9    14  18    3.6026   431.2    5.848      33.732
2015    8        9    14  25    3.5995   431.0    5.846      33.677
2015    8        9    14  31    3.5964   430.9    5.844      33.623
2015    8        9    14  38    3.5934   430.7    5.843      33.572
2015    8        9    14  45    3.5905   430.6    5.843      33.522
2015    8        9    14  52    3.5877   430.4    5.843      33.474
2015    8        9    14  58    3.5850   430.2    5.844      33.426
2015    8        9    15   5    3.5824   430.1    5.845      33.380
2015    8        9    15  12    3.5798   429.9    5.847      33.339
2015    8        9    15  19    3.5774   429.8    5.850      33.301
2015    8        9    15  25    3.5751   429.6    5.852      33.266
2015    8        9    15  32    3.5728   429.5    5.854      33.233
2015    8        9    15  39    3.5706   429.3    5.856      33.203
2015    8        9    15  46    3.5684   429.2    5.858      33.175
2015    8        9    15  52    3.5664   429.0    5.860      33.149
2015    8        9    15  59    3.5643   428.9    5.862      33.123
2015    8        9    16   6    3.5623   428.7    5.863      33.096
2015    8        9    16  13    3.5604   428.6    5.864      33.069
2015    8        9    16  19    3.5584   428.4    5.865      33.040
2015    8        9    16  26    3.5564   428.3    5.866      33.012
2015    8        9    16  33    3.5545   428.1    5.866      32.983
2015    8        9    16  40    3.5525   428.0    5.867      32.953
2015    8        9    16  47    3.5506   427.8    5.867      32.924
2015    8        9    16  53    3.5487   427.7    5.867      32.893
2015    8        9    17   0    3.5467   427.5    5.867      32.862
2015    8        9    17   7    3.5448   427.4    5.867      32.831
2015    8        9    17  14    3.5429   427.2    5.867      32.799
2015    8        9    17  20    3.5410   427.1    5.866      32.766
2015    8        9    17  27    3.5392   426.9    5.866      32.734
2015    8        9    17  34    3.5373   426.7    5.866      32.701
2015    8        9    17  41    3.5354   426.6    5.866      32.667
2015    8        9    17  47    3.5336   426.4    5.865      32.634
2015    8        9    17  54    3.5318   426.3    5.865      32.600
2015    8        9    18   1    3.5300   426.1    5.864      32.567
2015    8        9    18   7    3.5282   425.9    5.864      32.533
2015    8        9    18  14    3.5264   425.8    5.863      32.499
2015    8        9    18  21    3.5247   425.6    5.863      32.465
2015    8        9    18  28    3.5229   425.4    5.863      32.431
2015    8        9    18  34    3.5213   425.3    5.862      32.397
2015    8        9    18  41    3.5196   425.1    5.862      32.363
2015    8        9    18  48    3.5179   425.0    5.862      32.330
2015    8        9    18  55    3.5163   424.8    5.862      32.296
2015    8        9    19   1    3.5147   424.6    5.861      32.263
2015    8        9    19   8    3.5131   424.5    5.861      32.230
2015    8        9    19  15    3.5116   424.3    5.861      32.197
2015    8        9    19  22    3.5101   424.2    5.861      32.164
2015    8        9    19  28    3.5087   424.0    5.861      32.132
2015    8        9    19  35    3.5072   423.8    5.862      32.100
2015    8        9    19  42    3.5059   423.7    5.862      32.069
2015    8        9    19  49    3.5045   423.5    5.862      32.037
2015    8        9    19  55    3.5032   423.4    5.863      32.006
2015    8        9    20   2    3.5020   423.2    5.864      31.976
2015    8        9    20   9    3.5008   423.0    5.864      31.945
2015    8        9    20  16    3.4996   422.9    5.865      31.916
2015    8        9    20  22    3.4985   422.7    5.866      31.886
2015    8        9    20  29    3.4974   422.6    5.867      31.857
2015    8        9    20  36    3.4964   422.4    5.868      31.828
2015    8        9    20  43    3.4954   422.3    5.869      31.799
2015    8        9    20  49    3.4944   422.1    5.870      31.771
2015    8        9    20  56    3.4934   422.0    5.871      31.743
2015    8        9    21   3    3.4925   421.8    5.873      31.716
2015    8        9    21  10    3.4916   421.7    5.874      31.688
2015    8        9    21  16    3.4907   421.5    5.875      31.661
2015    8        9    21  23    3.4898   421.4    5.877      31.635
2015    8        9    21  30    3.4889   421.2    5.878      31.608
2015    8        9    21  37    3.4880   421.1    5.880      31.582
2015    8        9    21  43    3.4872   420.9    5.881      31.555
2015    8        9    21  50    3.4864   420.8    5.883      31.529
2015    8        9    21  57    3.4856   420.6    5.885      31.503
2015    8        9    22   4    3.4848   420.5    5.886      31.477
2015    8        9    22  11    3.4841   420.3    5.888      31.451
2015    8        9    22  17    3.4833   420.2    5.889      31.425
2015    8        9    22  24    3.4826   420.0    5.891      31.399
2015    8        9    22  31    3.4819   419.8    5.893      31.373
2015    8        9    22  38    3.4813   419.7    5.894      31.347
2015    8        9    22  44    3.4806   419.5    5.896      31.321
2015    8        9    22  51    3.4800   419.4    5.897      31.295
2015    8        9    22  58    3.4794   419.2    5.899      31.269
2015    8        9    23   5    3.4788   419.1    5.900      31.243
2015    8        9    23  11    3.4783   418.9    5.902      31.217
2015    8        9    23  18    3.4778   418.8    5.903      31.191
2015    8        9    23  25    3.4773   418.6    5.905      31.165
2015    8        9    23  32    3.4769   418.4    5.906      31.139
2015    8        9    23  38    3.4764   418.3    5.908      31.113
2015    8        9    23  45    3.4761   418.1    5.909      31.087
2015    8        9    23  52    3.4757   418.0    5.911      31.062
2015    8        9    23  59    3.4754   417.8    5.912      31.036
2015    8       10     0   5    3.4751   417.6    5.914      31.010
2015    8       10     0  12    3.4748   417.5    5.915      30.985
2015    8       10     0  19    3.4746   417.3    5.917      30.959
2015    8       10     0  26    3.4744   417.2    5.918      30.934
2015    8       10     0  32    3.4742   417.0    5.920      30.908
2015    8       10     0  39    3.4741   416.8    5.921      30.883
2015    8       10     0  46    3.4740   416.7    5.923      30.858
2015    8       10     0  53    3.4739   416.5    5.925      30.832
2015    8       10     0  59    3.4739   416.3    5.926      30.807
2015    8       10     1   6    3.4739   416.2    5.928      30.782
2015    8       10     1  13    3.4739   416.0    5.930      30.757
2015    8       10     1  20    3.4739   415.8    5.932      30.732
2015    8       10     1  26    3.4740   415.6    5.934      30.707
2015    8       10     1  33    3.4741   415.5    5.936      30.682
2015    8       10     1  40    3.4743   415.3    5.938      30.658
2015    8       10     1  47    3.4745   415.1    5.940      30.634
2015    8       10     1  53    3.4747   414.9    5.943      30.610
2015    8       10     2   0    3.4750   414.7    5.945      30.587
2015    8       10     2   7    3.4754   414.6    5.948      30.564
2015    8       10     2  14    3.4758   414.4    5.951      30.542
2015    8       10     2  20    3.4763   414.2    5.955      30.521
2015    8       10     2  27    3.4769   414.0    5.958      30.500
2015    8       10     2  34    3.4775   413.8    5.962      30.480
2015    8       10     2  41    3.4782   413.7    5.966      30.461
2015    8       10     2  47    3.4790   413.5    5.971      30.443
2015    8       10     2  54    3.4799   413.3    5.975      30.426
2015    8       10     3   1    3.4808   413.1    5.980      30.410
2015    8       10     3   8    3.4819   412.9    5.986      30.395
2015    8       10     3  14    3.4831   412.8    5.992      30.381
2015    8       10     3  21    3.4843   412.6    5.998      30.369
2015    8       10     3  28    3.4856   412.4    6.004      30.357
2015    8       10     3  35    3.4871   412.3    6.011      30.347
2015    8       10     3  41    3.4886   412.1    6.018      30.338
2015    8       10     3  48    3.4902   411.9    6.026      30.329
2015    8       10     3  55    3.4918   411.8    6.034      30.322
2015    8       10     4   2    3.4935   411.6    6.042      30.316
2015    8       10     4   8    3.4953   411.4    6.050      30.311
2015    8       10     4  15    3.4972   411.3    6.059      30.308
2015    8       10     4  22    3.4990   411.1    6.068      30.305
2015    8       10     4  29    3.5010   411.0    6.077      30.302
2015    8       10     4  35    3.5029   410.8    6.086      30.301
2015    8       10     4  42    3.5049   410.7    6.096      30.301
2015    8       10     4  49    3.5069   410.5    6.106      30.301
2015    8       10     4  56    3.5090   410.4    6.116      30.302
2015    8       10     5   2    3.5111   410.2    6.126      30.304
2015    8       10     5   9    3.5133   410.1    6.136      30.306
2015    8       10     5  16    3.5154   409.9    6.147      30.309
2015    8       10     5  23    3.5176   409.8    6.157      30.312
2015    8       10     5  29    3.5198   409.6    6.168      30.316
2015    8       10     5  36    3.5221   409.5    6.178      30.320
2015    8       10     5  43    3.5243   409.4    6.189      30.324
2015    8       10     5  50    3.5266   409.2    6.200      30.328
2015    8       10     5  56    3.5289   409.1    6.211      30.333
2015    8       10     6   3    3.5313   408.9    6.222      30.338
2015    8       10     6  10    3.5336   408.8    6.233      30.344
2015    8       10     6  17    3.5360   408.7    6.245      30.350
2015    8       10     6  23    3.5384   408.5    6.256      30.356
2015    8       10     6  30    3.5408   408.4    6.268      30.363
2015    8       10     6  37    3.5433   408.3    6.279      30.370
2015    8       10     6  44    3.5457   408.1    6.291      30.379
2015    8       10     6  50    3.5482   408.0    6.302      30.388
2015    8       10     6  57    3.5506   407.9    6.314      30.399
2015    8       10     7   4    3.5531   407.8    6.325      30.411
2015    8       10     7  11    3.5556   407.7    6.336      30.424
2015    8       10     7  17    3.5580   407.6    6.347      30.437
2015    8       10     7  24    3.5605   407.5    6.357      30.452
2015    8       10     7  31    3.5629   407.4    6.368      30.467
2015    8       10     7  38    3.5654   407.3    6.378      30.482
2015    8       10     7  45    3.5679   407.2    6.388      30.497
2015    8       10     7  51    3.5703   407.1    6.398      30.512
2015    8       10     7  58    3.5728   407.0    6.408      30.527
2015    8       10     8   5    3.5753   406.9    6.418      30.541
2015    8       10     8  12    3.5778   406.8    6.428      30.555
2015    8       10     8  18    3.5803   406.7    6.438      30.569
2015    8       10     8  25    3.5827   406.6    6.447      30.583
2015    8       10     8  32    3.5853   406.5    6.457      30.597
2015    8       10     8  38    3.5878   406.4    6.466      30.610
2015    8       10     8  45    3.5904   406.3    6.476      30.623
2015    8       10     8  52    3.5929   406.2    6.485      30.635
2015    8       10     8  59    3.5955   406.1    6.495      30.648
2015    8       10     9   5    3.5982   406.0    6.504      30.660
2015    8       10     9  12    3.6008   405.9    6.514      30.672
2015    8       10     9  19    3.6035   405.8    6.523      30.684
2015    8       10     9  26    3.6063   405.7    6.533      30.697
2015    8       10     9  32    3.6090   405.6    6.543      30.709
2015    8       10     9  39    3.6119   405.5    6.553      30.721
2015    8       10     9  46    3.6147   405.4    6.563      30.734
2015    8       10     9  53    3.6177   405.3    6.573      30.747
2015    8       10     9  59    3.6207   405.2    6.583      30.760
2015    8       10    10   6    3.6238   405.1    6.594      30.774
2015    8       10    10  13    3.6269   405.0    6.605      30.788
2015    8       10    10  20    3.6302   404.9    6.616      30.803
2015    8       10    10  26    3.6335   404.8    6.628      30.819
2015    8       10    10  33    3.6369   404.7    6.639      30.836
2015    8       10    10  40    3.6403   404.6    6.651      30.854
2015    8       10    10  47    3.6439   404.5    6.664      30.872
2015    8       10    10  53    3.6475   404.5    6.677      30.892
2015    8       10    11   0    3.6512   404.4    6.690      30.912
2015    8       10    11   7    3.6550   404.3    6.703      30.934
2015    8       10    11  14    3.6589   404.2    6.717      30.956
2015    8       10    11  20    3.6628   404.1    6.731      30.980
2015    8       10    11  27    3.6668   404.1    6.745      31.004
2015    8       10    11  34    3.6709   404.0    6.760      31.029
2015    8       10    11  41    3.6751   403.9    6.775      31.056
2015    8       10    11  47    3.6794   403.9    6.791      31.084
2015    8       10    11  54    3.6837   403.8    6.808      31.112
2015    8       10    12   1    3.6882   403.7    6.824      31.142
2015    8       10    12   8    3.6928   403.7    6.841      31.172
2015    8       10    12  14    3.6974   403.6    6.859      31.205
2015    8       10    12  21    3.7021   403.6    6.877      31.241
2015    8       10    12  28    3.7069   403.5    6.894      31.278
2015    8       10    12  35    3.7117   403.5    6.912      31.318
2015    8       10    12  42    3.7165   403.5    6.929      31.360
2015    8       10    12  48    3.7213   403.4    6.947      31.404
2015    8       10    12  55    3.7260   403.4    6.964      31.448
2015    8       10    13   2    3.7308   403.4    6.981      31.493
2015    8       10    13   9    3.7355   403.4    6.998      31.538
2015    8       10    13  15    3.7402   403.3    7.015      31.581
2015    8       10    13  22    3.7448   403.3    7.032      31.625
2015    8       10    13  29    3.7494   403.3    7.048      31.669
2015    8       10    13  36    3.7540   403.3    7.064      31.711
2015    8       10    13  42    3.7585   403.2    7.080      31.754
2015    8       10    13  49    3.7629   403.2    7.095      31.796
2015    8       10    13  56    3.7673   403.2    7.111      31.838
2015    8       10    14   3    3.7716   403.2    7.126      31.879
2015    8       10    14   9    3.7759   403.2    7.141      31.921
2015    8       10    14  16    3.7802   403.2    7.155      31.962
2015    8       10    14  23    3.7844   403.2    7.169      32.004
2015    8       10    14  30    3.7885   403.2    7.182      32.047
2015    8       10    14  36    3.7926   403.2    7.196      32.089
2015    8       10    14  43    3.7966   403.2    7.208      32.131
2015    8       10    14  50    3.8006   403.2    7.221      32.173
2015    8       10    14  57    3.8045   403.3    7.233      32.215
2015    8       10    15   3    3.8084   403.3    7.244      32.256
2015    8       10    15  10    3.8122   403.3    7.256      32.297
2015    8       10    15  17    3.8160   403.3    7.266      32.337
2015    8       10    15  24    3.8197   403.3    7.277      32.376
2015    8       10    15  30    3.8235   403.3    7.287      32.414
2015    8       10    15  37    3.8271   403.4    7.297      32.451
2015    8       10    15  44    3.8308   403.4    7.307      32.488
2015    8       10    15  51    3.8344   403.4    7.316      32.523
2015    8       10    15  57    3.8380   403.4    7.326      32.559
2015    8       10    16   4    3.8415   403.4    7.334      32.593
2015    8       10    16  11    3.8451   403.5    7.343      32.626
2015    8       10    16  18    3.8486   403.5    7.352      32.659
2015    8       10    16  24    3.8521   403.5    7.360      32.691
2015    8       10    16  31    3.8555   403.5    7.369      32.723
2015    8       10    16  38    3.8590   403.6    7.377      32.753
2015    8       10    16  45    3.8625   403.6    7.385      32.783
2015    8       10    16  51    3.8659   403.6    7.393      32.813
2015    8       10    16  58    3.8693   403.6    7.400      32.842
2015    8       10    17   5    3.8728   403.7    7.408      32.871
2015    8       10    17  12    3.8762   403.7    7.416      32.899
2015    8       10    17  18    3.8796   403.7    7.423      32.927
2015    8       10    17  25    3.8830   403.7    7.431      32.955
2015    8       10    17  32    3.8865   403.8    7.439      32.982
2015    8       10    17  39    3.8899   403.8    7.446      33.010
2015    8       10    17  45    3.8934   403.8    7.454      33.037
2015    8       10    17  52    3.8968   403.8    7.462      33.065
2015    8       10    17  59    3.9003   403.9    7.469      33.092
2015    8       10    18   6    3.9038   403.9    7.477      33.119
2015    8       10    18  12    3.9073   403.9    7.485      33.147
2015    8       10    18  19    3.9108   404.0    7.493      33.174
2015    8       10    18  26    3.9144   404.0    7.501      33.202
2015    8       10    18  33    3.9179   404.0    7.509      33.230
2015    8       10    18  39    3.9215   404.1    7.517      33.257
2015    8       10    18  46    3.9251   404.1    7.526      33.285
2015    8       10    18  53    3.9288   404.1    7.535      33.314
2015    8       10    19   0    3.9325   404.2    7.544      33.343
2015    8       10    19   6    3.9362   404.2    7.553      33.372
2015    8       10    19  13    3.9400   404.2    7.563      33.401
2015    8       10    19  20    3.9440   404.2    7.573      33.431
2015    8       10    19  27    3.9479   404.3    7.583      33.461
2015    8       10    19  33    3.9519   404.3    7.594      33.493
2015    8       10    19  40    3.9560   404.4    7.604      33.527
2015    8       10    19  47    3.9600   404.4    7.615      33.563
2015    8       10    19  54    3.9641   404.5    7.626      33.601
2015    8       10    20   0    3.9681   404.5    7.636      33.641
2015    8       10    20   7    3.9721   404.6    7.646      33.682
2015    8       10    20  14    3.9760   404.7    7.656      33.724
2015    8       10    20  21    3.9798   404.7    7.666      33.766
2015    8       10    20  27    3.9836   404.8    7.676      33.808
2015    8       10    20  34    3.9873   404.9    7.686      33.850
2015    8       10    20  41    3.9909   404.9    7.695      33.891
2015    8       10    20  48    3.9944   405.0    7.704      33.932
2015    8       10    20  54    3.9979   405.1    7.712      33.974
2015    8       10    21   1    4.0012   405.1    7.721      34.014
2015    8       10    21   8    4.0045   405.2    7.729      34.056
2015    8       10    21  15    4.0076   405.3    7.737      34.097
2015    8       10    21  22    4.0107   405.4    7.744      34.138
2015    8       10    21  28    4.0138   405.4    7.751      34.179
2015    8       10    21  35    4.0167   405.5    7.757      34.220
2015    8       10    21  42    4.0196   405.6    7.763      34.260
2015    8       10    21  49    4.0224   405.7    7.769      34.300
2015    8       10    21  55    4.0252   405.7    7.775      34.339
2015    8       10    22   2    4.0278   405.8    7.780      34.377
2015    8       10    22   9    4.0305   405.9    7.784      34.414
2015    8       10    22  16    4.0331   406.0    7.789      34.451
2015    8       10    22  22    4.0356   406.1    7.793      34.486
2015    8       10    22  29    4.0381   406.1    7.797      34.522
2015    8       10    22  36    4.0405   406.2    7.800      34.556
2015    8       10    22  43    4.0429   406.3    7.803      34.589
2015    8       10    22  49    4.0452   406.4    7.806      34.621
2015    8       10    22  56    4.0475   406.5    7.809      34.653
2015    8       10    23   3    4.0498   406.6    7.812      34.684
2015    8       10    23  10    4.0520   406.6    7.814      34.715
2015    8       10    23  16    4.0542   406.7    7.816      34.744
2015    8       10    23  23    4.0564   406.8    7.818      34.773
2015    8       10    23  30    4.0585   406.9    7.820      34.802
2015    8       10    23  37    4.0606   407.0    7.821      34.830
2015    8       10    23  43    4.0627   407.1    7.823      34.857
2015    8       10    23  50    4.0648   407.1    7.824      34.884
2015    8       10    23  57    4.0668   407.2    7.825      34.910
2015    8       11     0   3    4.0689   407.3    7.826      34.936
2015    8       11     0  10    4.0709   407.4    7.827      34.961
2015    8       11     0  17    4.0729   407.5    7.828      34.986
2015    8       11     0  24    4.0748   407.6    7.829      35.011
2015    8       11     0  30    4.0768   407.6    7.830      35.035
2015    8       11     0  37    4.0788   407.7    7.831      35.059
2015    8       11     0  44    4.0807   407.8    7.831      35.083
2015    8       11     0  51    4.0827   407.9    7.832      35.106
2015    8       11     0  57    4.0846   408.0    7.833      35.129
2015    8       11     1   4    4.0865   408.1    7.833      35.152
2015    8       11     1  11    4.0884   408.1    7.834      35.175
2015    8       11     1  18    4.0903   408.2    7.834      35.197
2015    8       11     1  24    4.0923   408.3    7.835      35.220
2015    8       11     1  31    4.0942   408.4    7.835      35.242
2015    8       11     1  38    4.0961   408.5    7.836      35.264
2015    8       11     1  45    4.0980   408.6    7.836      35.285
2015    8       11     1  51    4.0999   408.6    7.837      35.307
2015    8       11     1  58    4.1018   408.7    7.837      35.329
2015    8       11     2   5    4.1037   408.8    7.838      35.350
2015    8       11     2  12    4.1057   408.9    7.839      35.372
2015    8       11     2  18    4.1076   409.0    7.839      35.393
2015    8       11     2  25    4.1096   409.1    7.840      35.415
2015    8       11     2  32    4.1115   409.1    7.841      35.437
2015    8       11     2  39    4.1135   409.2    7.842      35.459
2015    8       11     2  45    4.1155   409.3    7.844      35.481
2015    8       11     2  52    4.1174   409.4    7.845      35.504
2015    8       11     2  59    4.1194   409.5    7.847      35.526
2015    8       11     3   6    4.1213   409.6    7.848      35.549
2015    8       11     3  13    4.1232   409.7    7.850      35.574
2015    8       11     3  19    4.1250   409.7    7.852      35.599
2015    8       11     3  26    4.1269   409.8    7.854      35.624
2015    8       11     3  33    4.1286   409.9    7.857      35.651
2015    8       11     3  40    4.1303   410.0    7.859      35.678
2015    8       11     3  46    4.1320   410.1    7.861      35.706
2015    8       11     3  53    4.1337   410.2    7.863      35.733
2015    8       11     4   0    4.1352   410.3    7.865      35.761
2015    8       11     4   7    4.1367   410.4    7.867      35.788
2015    8       11     4  13    4.1382   410.6    7.869      35.814
2015    8       11     4  20    4.1396   410.7    7.871      35.841
2015    8       11     4  27    4.1410   410.8    7.872      35.868
2015    8       11     4  34    4.1423   410.9    7.874      35.895
2015    8       11     4  40    4.1435   411.0    7.875      35.923
2015    8       11     4  47    4.1447   411.1    7.876      35.951
2015    8       11     4  54    4.1459   411.2    7.877      35.978
2015    8       11     5   1    4.1471   411.3    7.877      36.006
2015    8       11     5   7    4.1482   411.4    7.878      36.034
2015    8       11     5  14    4.1492   411.5    7.878      36.061
2015    8       11     5  21    4.1503   411.6    7.878      36.088
2015    8       11     5  28    4.1513   411.7    7.879      36.115
2015    8       11     5  34    4.1523   411.8    7.879      36.141
2015    8       11     5  41    4.1533   412.0    7.878      36.167
2015    8       11     5  48    4.1543   412.1    7.878      36.193
2015    8       11     5  55    4.1552   412.2    7.878      36.218
2015    8       11     6   1    4.1561   412.3    7.878      36.243
2015    8       11     6   8    4.1570   412.4    7.877      36.267
2015    8       11     6  15    4.1579   412.5    7.877      36.291
2015    8       11     6  22    4.1587   412.6    7.876      36.315
2015    8       11     6  28    4.1596   412.7    7.875      36.339
2015    8       11     6  35    4.1604   412.8    7.874      36.361
2015    8       11     6  42    4.1612   412.9    7.873      36.384
2015    8       11     6  49    4.1620   413.0    7.872      36.406
2015    8       11     6  55    4.1628   413.1    7.871      36.428
2015    8       11     7   2    4.1636   413.2    7.870      36.450
2015    8       11     7   9    4.1644   413.3    7.869      36.471
2015    8       11     7  16    4.1652   413.5    7.868      36.493
2015    8       11     7  22    4.1659   413.6    7.867      36.514
2015    8       11     7  29    4.1667   413.7    7.866      36.535
2015    8       11     7  36    4.1675   413.8    7.865      36.556
2015    8       11     7  43    4.1683   413.9    7.864      36.577
2015    8       11     7  49    4.1691   414.0    7.863      36.598
2015    8       11     7  56    4.1700   414.1    7.862      36.619
2015    8       11     8   3    4.1708   414.2    7.862      36.640
2015    8       11     8  10    4.1716   414.3    7.861      36.662
2015    8       11     8  16    4.1724   414.4    7.860      36.683
2015    8       11     8  23    4.1732   414.5    7.860      36.706
2015    8       11     8  30    4.1740   414.6    7.859      36.729
2015    8       11     8  37    4.1748   414.7    7.859      36.754
2015    8       11     8  43    4.1755   414.8    7.858      36.778
2015    8       11     8  50    4.1762   415.0    7.858      36.804
2015    8       11     8  57    4.1769   415.1    7.857      36.830
2015    8       11     9   4    4.1776   415.2    7.856      36.855
2015    8       11     9  10    4.1782   415.3    7.855      36.881
2015    8       11     9  17    4.1788   415.4    7.854      36.906
2015    8       11     9  24    4.1794   415.5    7.852      36.931
2015    8       11     9  31    4.1799   415.6    7.851      36.955
2015    8       11     9  37    4.1803   415.8    7.850      36.979
2015    8       11     9  44    4.1808   415.9    7.848      37.003
2015    8       11     9  51    4.1812   416.0    7.847      37.026
2015    8       11     9  58    4.1815   416.1    7.845      37.049
2015    8       11    10   4    4.1818   416.2    7.844      37.072
2015    8       11    10  11    4.1820   416.3    7.842      37.095
2015    8       11    10  18    4.1822   416.5    7.840      37.118
2015    8       11    10  25    4.1824   416.6    7.839      37.141
2015    8       11    10  31    4.1825   416.7    7.837      37.164
2015    8       11    10  38    4.1825   416.8    7.834      37.188
2015    8       11    10  45    4.1825   417.0    7.832      37.211
2015    8       11    10  52    4.1824   417.1    7.829      37.233
2015    8       11    10  58    4.1823   417.2    7.826      37.254
2015    8       11    11   5    4.1821   417.4    7.823      37.274
2015    8       11    11  12    4.1818   417.5    7.820      37.294
2015    8       11    11  19    4.1815   417.6    7.816      37.313
2015    8       11    11  25    4.1812   417.8    7.812      37.331
2015    8       11    11  32    4.1807   417.9    7.808      37.348
2015    8       11    11  39    4.1803   418.0    7.804      37.364
2015    8       11    11  46    4.1797   418.2    7.799      37.380
2015    8       11    11  53    4.1792   418.3    7.794      37.394
2015    8       11    11  59    4.1786   418.4    7.789      37.408
2015    8       11    12   6    4.1779   418.6    7.784      37.422
2015    8       11    12  13    4.1772   418.7    7.779      37.434
2015    8       11    12  20    4.1765   418.8    7.774      37.447
2015    8       11    12  26    4.1757   419.0    7.768      37.458
2015    8       11    12  33    4.1750   419.1    7.763      37.469
2015    8       11    12  40    4.1741   419.2    7.757      37.480
2015    8       11    12  47    4.1733   419.4    7.751      37.490
2015    8       11    12  53    4.1724   419.5    7.745      37.500
2015    8       11    13   0    4.1715   419.6    7.739      37.509
2015    8       11    13   7    4.1706   419.7    7.733      37.518
2015    8       11    13  14    4.1697   419.9    7.727      37.527
2015    8       11    13  20    4.1687   420.0    7.721      37.535
2015    8       11    13  27    4.1677   420.1    7.714      37.543
2015    8       11    13  34    4.1666   420.3    7.708      37.551
2015    8       11    13  41    4.1656   420.4    7.702      37.558
2015    8       11    13  47    4.1645   420.5    7.695      37.565
2015    8       11    13  54    4.1634   420.6    7.689      37.572
2015    8       11    14   1    4.1623   420.8    7.682      37.579
2015    8       11    14   7    4.1612   420.9    7.675      37.585
2015    8       11    14  14    4.1600   421.0    7.669      37.591
2015    8       11    14  21    4.1588   421.1    7.662      37.597
2015    8       11    14  28    4.1576   421.3    7.655      37.603
2015    8       11    14  34    4.1564   421.4    7.648      37.608
2015    8       11    14  41    4.1551   421.5    7.642      37.614
2015    8       11    14  48    4.1539   421.6    7.635      37.619
2015    8       11    14  55    4.1527   421.7    7.628      37.625
2015    8       11    15   1    4.1514   421.9    7.622      37.630
2015    8       11    15   8    4.1501   422.0    7.615      37.636
2015    8       11    15  15    4.1489   422.1    7.609      37.641
2015    8       11    15  22    4.1475   422.2    7.602      37.647
2015    8       11    15  28    4.1462   422.3    7.596      37.653
2015    8       11    15  35    4.1448   422.5    7.590      37.659
2015    8       11    15  42    4.1434   422.6    7.583      37.667
2015    8       11    15  49    4.1419   422.7    7.577      37.675
2015    8       11    15  55    4.1404   422.8    7.570      37.683
2015    8       11    16   2    4.1388   422.9    7.564      37.692
2015    8       11    16   9    4.1372   423.1    7.557      37.701
2015    8       11    16  16    4.1356   423.2    7.550      37.710
2015    8       11    16  22    4.1339   423.3    7.543      37.718
2015    8       11    16  29    4.1321   423.4    7.535      37.725
2015    8       11    16  36    4.1303   423.5    7.528      37.731
2015    8       11    16  43    4.1284   423.7    7.520      37.737
2015    8       11    16  49    4.1264   423.8    7.512      37.743
2015    8       11    16  56    4.1244   423.9    7.504      37.748
2015    8       11    17   3    4.1223   424.0    7.496      37.752
2015    8       11    17  10    4.1202   424.1    7.487      37.755
2015    8       11    17  16    4.1180   424.3    7.479      37.757
2015    8       11    17  23    4.1158   424.4    7.470      37.759
2015    8       11    17  30    4.1135   424.5    7.461      37.760
2015    8       11    17  37    4.1112   424.6    7.452      37.760
2015    8       11    17  44    4.1088   424.7    7.443      37.759
2015    8       11    17  50    4.1063   424.9    7.434      37.758
2015    8       11    17  57    4.1039   425.0    7.425      37.756
2015    8       11    18   4    4.1013   425.1    7.415      37.753
2015    8       11    18  11    4.0987   425.2    7.406      37.750
2015    8       11    18  17    4.0961   425.3    7.396      37.745
2015    8       11    18  24    4.0934   425.4    7.386      37.740
2015    8       11    18  31    4.0907   425.5    7.376      37.735
2015    8       11    18  38    4.0879   425.6    7.366      37.728
2015    8       11    18  44    4.0851   425.8    7.355      37.721
2015    8       11    18  51    4.0822   425.9    7.345      37.713
2015    8       11    18  58    4.0793   426.0    7.335      37.705
2015    8       11    19   5    4.0764   426.1    7.324      37.695
2015    8       11    19  11    4.0733   426.2    7.313      37.685
2015    8       11    19  18    4.0703   426.3    7.302      37.674
2015    8       11    19  25    4.0672   426.4    7.291      37.663
2015    8       11    19  32    4.0641   426.5    7.280      37.651
2015    8       11    19  38    4.0609   426.6    7.269      37.638
2015    8       11    19  45    4.0577   426.7    7.258      37.624
2015    8       11    19  52    4.0544   426.8    7.246      37.610
2015    8       11    19  59    4.0511   427.0    7.235      37.595
2015    8       11    20   5    4.0478   427.1    7.223      37.579
2015    8       11    20  12    4.0444   427.2    7.212      37.563
2015    8       11    20  19    4.0410   427.3    7.200      37.546
2015    8       11    20  26    4.0376   427.4    7.189      37.529
2015    8       11    20  32    4.0341   427.5    7.177      37.511
2015    8       11    20  39    4.0307   427.6    7.165      37.493
2015    8       11    20  46    4.0271   427.6    7.153      37.474
2015    8       11    20  53    4.0236   427.7    7.141      37.455
2015    8       11    20  59    4.0200   427.8    7.129      37.435
2015    8       11    21   6    4.0164   427.9    7.117      37.414
2015    8       11    21  13    4.0128   428.0    7.105      37.394
2015    8       11    21  20    4.0091   428.1    7.093      37.373
2015    8       11    21  26    4.0054   428.2    7.081      37.351
2015    8       11    21  33    4.0017   428.3    7.069      37.329
2015    8       11    21  40    3.9980   428.4    7.057      37.306
2015    8       11    21  47    3.9942   428.5    7.045      37.283
2015    8       11    21  53    3.9904   428.5    7.033      37.260
2015    8       11    22   0    3.9866   428.6    7.021      37.237
2015    8       11    22   7    3.9827   428.7    7.009      37.213
2015    8       11    22  14    3.9789   428.8    6.996      37.188
2015    8       11    22  20    3.9750   428.9    6.984      37.164
2015    8       11    22  27    3.9712   428.9    6.972      37.139
2015    8       11    22  34    3.9672   429.0    6.960      37.113
2015    8       11    22  41    3.9633   429.1    6.948      37.087
2015    8       11    22  47    3.9594   429.2    6.936      37.061
2015    8       11    22  54    3.9555   429.2    6.924      37.034
2015    8       11    23   1    3.9515   429.3    6.912      37.007
2015    8       11    23   8    3.9476   429.4    6.900      36.980
2015    8       11    23  14    3.9436   429.4    6.888      36.952
2015    8       11    23  21    3.9396   429.5    6.876      36.923
2015    8       11    23  28    3.9356   429.5    6.864      36.895
2015    8       11    23  35    3.9316   429.6    6.853      36.866
2015    8       11    23  41    3.9276   429.7    6.841      36.837
2015    8       11    23  48    3.9236   429.7    6.830      36.808
2015    8       11    23  55    3.9195   429.8    6.818      36.778
2015    8       12     0   2    3.9155   429.8    6.807      36.748
