year    month   day   hour  minute  B_enl V_enl   n_enl       T_enl
[year] [month] [day] [hour][minute] [nT]  [km/s]  [cm-3]      [kK]
2015    8       22     0   0    4.0192   477.5    6.299      43.925
2015    8       22     0   7    4.0182   477.7    6.292      43.965
2015    8       22     0  14    4.0171   478.0    6.285      44.005
2015    8       22     0  21    4.0159   478.2    6.279      44.045
2015    8       22     0  28    4.0148   478.5    6.272      44.083
2015    8       22     0  35    4.0135   478.7    6.265      44.121
2015    8       22     0  42    4.0122   479.0    6.258      44.158
2015    8       22     0  49    4.0108   479.2    6.251      44.194
2015    8       22     0  55    4.0094   479.5    6.243      44.229
2015    8       22     1   2    4.0079   479.7    6.236      44.262
2015    8       22     1   9    4.0064   480.0    6.229      44.294
2015    8       22     1  16    4.0048   480.2    6.222      44.326
2015    8       22     1  23    4.0033   480.4    6.215      44.359
2015    8       22     1  30    4.0016   480.7    6.208      44.393
2015    8       22     1  36    3.9999   480.9    6.201      44.429
2015    8       22     1  43    3.9980   481.2    6.193      44.466
2015    8       22     1  50    3.9960   481.4    6.186      44.503
2015    8       22     1  57    3.9939   481.7    6.178      44.539
2015    8       22     2   4    3.9918   482.0    6.169      44.574
2015    8       22     2  11    3.9894   482.2    6.161      44.607
2015    8       22     2  17    3.9870   482.5    6.152      44.638
2015    8       22     2  24    3.9844   482.7    6.143      44.669
2015    8       22     2  31    3.9818   483.0    6.133      44.697
2015    8       22     2  38    3.9789   483.2    6.123      44.723
2015    8       22     2  45    3.9761   483.5    6.113      44.748
2015    8       22     2  51    3.9731   483.7    6.103      44.772
2015    8       22     2  58    3.9701   483.9    6.092      44.793
2015    8       22     3   5    3.9670   484.2    6.081      44.813
2015    8       22     3  12    3.9638   484.4    6.070      44.832
2015    8       22     3  19    3.9606   484.7    6.059      44.850
2015    8       22     3  25    3.9573   484.9    6.048      44.866
2015    8       22     3  32    3.9539   485.1    6.037      44.881
2015    8       22     3  39    3.9506   485.4    6.026      44.894
2015    8       22     3  46    3.9472   485.6    6.014      44.907
2015    8       22     3  53    3.9437   485.8    6.003      44.918
2015    8       22     3  59    3.9402   486.0    5.991      44.928
2015    8       22     4   6    3.9367   486.3    5.980      44.938
2015    8       22     4  13    3.9331   486.5    5.968      44.945
2015    8       22     4  20    3.9295   486.7    5.957      44.952
2015    8       22     4  27    3.9258   487.0    5.945      44.958
2015    8       22     4  34    3.9221   487.2    5.933      44.963
2015    8       22     4  40    3.9183   487.4    5.921      44.968
2015    8       22     4  47    3.9145   487.7    5.909      44.973
2015    8       22     4  54    3.9106   487.9    5.897      44.978
2015    8       22     5   1    3.9066   488.1    5.885      44.983
2015    8       22     5   8    3.9025   488.4    5.872      44.987
2015    8       22     5  14    3.8983   488.6    5.859      44.990
2015    8       22     5  21    3.8940   488.9    5.846      44.992
2015    8       22     5  28    3.8896   489.1    5.833      44.993
2015    8       22     5  35    3.8850   489.4    5.818      44.992
2015    8       22     5  42    3.8803   489.6    5.804      44.989
2015    8       22     5  49    3.8754   489.9    5.788      44.983
2015    8       22     5  56    3.8703   490.1    5.773      44.973
2015    8       22     6   2    3.8651   490.3    5.757      44.960
2015    8       22     6   9    3.8598   490.5    5.741      44.944
2015    8       22     6  16    3.8544   490.7    5.725      44.925
2015    8       22     6  23    3.8490   490.9    5.710      44.905
2015    8       22     6  30    3.8434   491.1    5.694      44.885
2015    8       22     6  37    3.8380   491.3    5.679      44.865
2015    8       22     6  44    3.8324   491.5    5.663      44.845
2015    8       22     6  50    3.8268   491.7    5.648      44.825
2015    8       22     6  57    3.8212   491.9    5.633      44.806
2015    8       22     7   4    3.8155   492.1    5.619      44.788
2015    8       22     7  11    3.8098   492.3    5.604      44.770
2015    8       22     7  18    3.8041   492.5    5.590      44.753
2015    8       22     7  25    3.7983   492.7    5.575      44.736
2015    8       22     7  32    3.7925   492.9    5.561      44.720
2015    8       22     7  38    3.7866   493.1    5.547      44.703
2015    8       22     7  45    3.7807   493.3    5.532      44.685
2015    8       22     7  52    3.7748   493.5    5.518      44.666
2015    8       22     7  59    3.7688   493.7    5.503      44.646
2015    8       22     8   6    3.7627   493.9    5.489      44.624
2015    8       22     8  13    3.7565   494.1    5.474      44.599
2015    8       22     8  20    3.7503   494.3    5.459      44.572
2015    8       22     8  27    3.7441   494.5    5.444      44.543
2015    8       22     8  33    3.7377   494.6    5.430      44.513
2015    8       22     8  40    3.7313   494.8    5.415      44.481
2015    8       22     8  47    3.7248   494.9    5.400      44.448
2015    8       22     8  54    3.7184   495.1    5.386      44.414
2015    8       22     9   1    3.7119   495.2    5.371      44.378
2015    8       22     9   8    3.7054   495.4    5.356      44.342
2015    8       22     9  14    3.6987   495.5    5.341      44.305
2015    8       22     9  21    3.6922   495.6    5.327      44.268
2015    8       22     9  28    3.6854   495.8    5.312      44.229
2015    8       22     9  35    3.6788   495.9    5.298      44.191
2015    8       22     9  42    3.6720   496.0    5.283      44.151
2015    8       22     9  48    3.6653   496.1    5.269      44.111
2015    8       22     9  55    3.6585   496.3    5.254      44.070
2015    8       22    10   2    3.6518   496.4    5.240      44.029
2015    8       22    10   9    3.6449   496.5    5.226      43.986
2015    8       22    10  16    3.6381   496.6    5.211      43.944
2015    8       22    10  22    3.6313   496.7    5.197      43.900
2015    8       22    10  29    3.6245   496.8    5.183      43.856
2015    8       22    10  36    3.6176   496.9    5.169      43.811
2015    8       22    10  43    3.6108   497.0    5.154      43.766
2015    8       22    10  50    3.6039   497.1    5.140      43.720
2015    8       22    10  56    3.5971   497.2    5.126      43.673
2015    8       22    11   3    3.5902   497.3    5.112      43.625
2015    8       22    11  10    3.5834   497.4    5.098      43.577
2015    8       22    11  17    3.5765   497.4    5.084      43.528
2015    8       22    11  24    3.5697   497.5    5.071      43.478
2015    8       22    11  30    3.5627   497.6    5.057      43.426
2015    8       22    11  37    3.5559   497.7    5.043      43.375
2015    8       22    11  44    3.5490   497.8    5.029      43.322
2015    8       22    11  51    3.5421   497.9    5.015      43.269
2015    8       22    11  58    3.5351   498.0    5.002      43.215
2015    8       22    12   5    3.5282   498.1    4.988      43.161
2015    8       22    12  11    3.5213   498.1    4.974      43.108
2015    8       22    12  18    3.5143   498.2    4.960      43.055
2015    8       22    12  25    3.5072   498.3    4.946      43.001
2015    8       22    12  32    3.5002   498.4    4.932      42.946
2015    8       22    12  39    3.4931   498.5    4.917      42.890
2015    8       22    12  46    3.4859   498.6    4.903      42.833
2015    8       22    12  52    3.4786   498.7    4.887      42.775
2015    8       22    12  59    3.4713   498.8    4.872      42.715
2015    8       22    13   6    3.4638   498.8    4.856      42.649
2015    8       22    13  13    3.4563   498.9    4.841      42.580
2015    8       22    13  20    3.4488   498.9    4.825      42.507
2015    8       22    13  27    3.4413   498.9    4.810      42.431
2015    8       22    13  34    3.4338   498.9    4.795      42.350
2015    8       22    13  40    3.4263   498.9    4.780      42.270
2015    8       22    13  47    3.4190   498.8    4.766      42.188
2015    8       22    13  54    3.4117   498.8    4.752      42.107
2015    8       22    14   1    3.4045   498.8    4.739      42.027
2015    8       22    14   8    3.3973   498.7    4.726      41.947
2015    8       22    14  15    3.3902   498.7    4.714      41.868
2015    8       22    14  22    3.3833   498.6    4.703      41.790
2015    8       22    14  28    3.3764   498.6    4.692      41.714
2015    8       22    14  35    3.3697   498.5    4.682      41.641
2015    8       22    14  42    3.3630   498.5    4.673      41.571
2015    8       22    14  49    3.3564   498.4    4.663      41.503
2015    8       22    14  56    3.3498   498.4    4.654      41.436
2015    8       22    15   3    3.3432   498.4    4.645      41.370
2015    8       22    15  10    3.3367   498.3    4.636      41.306
2015    8       22    15  16    3.3301   498.3    4.626      41.241
2015    8       22    15  23    3.3235   498.3    4.617      41.174
2015    8       22    15  30    3.3169   498.2    4.608      41.106
2015    8       22    15  37    3.3103   498.2    4.598      41.037
2015    8       22    15  44    3.3037   498.1    4.589      40.968
2015    8       22    15  51    3.2972   498.1    4.580      40.898
2015    8       22    15  58    3.2906   498.0    4.571      40.828
2015    8       22    16   4    3.2841   498.0    4.562      40.758
2015    8       22    16  11    3.2775   497.9    4.553      40.688
2015    8       22    16  18    3.2710   497.9    4.544      40.617
2015    8       22    16  25    3.2645   497.8    4.535      40.546
2015    8       22    16  32    3.2579   497.8    4.526      40.475
2015    8       22    16  39    3.2514   497.7    4.517      40.405
2015    8       22    16  45    3.2449   497.7    4.507      40.333
2015    8       22    16  52    3.2384   497.6    4.498      40.261
2015    8       22    16  59    3.2318   497.5    4.489      40.189
2015    8       22    17   6    3.2253   497.5    4.480      40.116
2015    8       22    17  13    3.2188   497.4    4.471      40.043
2015    8       22    17  19    3.2123   497.3    4.462      39.970
2015    8       22    17  26    3.2058   497.2    4.453      39.896
2015    8       22    17  33    3.1993   497.1    4.444      39.822
2015    8       22    17  40    3.1929   497.1    4.435      39.747
2015    8       22    17  47    3.1864   497.0    4.426      39.672
2015    8       22    17  53    3.1800   496.9    4.417      39.596
2015    8       22    18   0    3.1736   496.8    4.408      39.521
2015    8       22    18   7    3.1671   496.7    4.399      39.445
2015    8       22    18  14    3.1608   496.6    4.390      39.369
2015    8       22    18  21    3.1544   496.5    4.381      39.292
2015    8       22    18  27    3.1481   496.4    4.373      39.216
2015    8       22    18  34    3.1417   496.3    4.364      39.139
2015    8       22    18  41    3.1354   496.2    4.355      39.063
2015    8       22    18  48    3.1291   496.1    4.346      38.986
2015    8       22    18  55    3.1228   496.0    4.337      38.909
2015    8       22    19   2    3.1165   495.8    4.329      38.832
2015    8       22    19   8    3.1103   495.7    4.320      38.755
2015    8       22    19  15    3.1040   495.6    4.311      38.677
2015    8       22    19  22    3.0979   495.5    4.303      38.600
2015    8       22    19  29    3.0917   495.4    4.294      38.523
2015    8       22    19  36    3.0856   495.3    4.285      38.447
2015    8       22    19  42    3.0794   495.1    4.277      38.370
2015    8       22    19  49    3.0734   495.0    4.268      38.293
2015    8       22    19  56    3.0673   494.9    4.260      38.216
2015    8       22    20   3    3.0613   494.7    4.251      38.139
2015    8       22    20  10    3.0554   494.6    4.243      38.063
2015    8       22    20  17    3.0495   494.5    4.235      37.986
2015    8       22    20  24    3.0436   494.3    4.226      37.909
2015    8       22    20  30    3.0378   494.1    4.218      37.832
2015    8       22    20  37    3.0320   494.0    4.211      37.755
2015    8       22    20  44    3.0263   493.8    4.203      37.677
2015    8       22    20  51    3.0207   493.6    4.195      37.598
2015    8       22    20  58    3.0151   493.4    4.188      37.518
2015    8       22    21   5    3.0096   493.2    4.181      37.438
2015    8       22    21  11    3.0041   493.0    4.174      37.359
2015    8       22    21  18    2.9987   492.8    4.168      37.280
2015    8       22    21  25    2.9935   492.5    4.162      37.203
2015    8       22    21  32    2.9882   492.3    4.157      37.126
2015    8       22    21  39    2.9832   492.1    4.153      37.050
2015    8       22    21  46    2.9782   491.9    4.149      36.979
2015    8       22    21  53    2.9734   491.6    4.145      36.912
2015    8       22    22   0    2.9686   491.4    4.142      36.847
2015    8       22    22   6    2.9640   491.2    4.139      36.785
2015    8       22    22  13    2.9594   491.0    4.136      36.725
2015    8       22    22  20    2.9548   490.8    4.133      36.668
2015    8       22    22  27    2.9502   490.6    4.130      36.612
2015    8       22    22  34    2.9457   490.4    4.127      36.556
2015    8       22    22  41    2.9411   490.2    4.123      36.498
2015    8       22    22  48    2.9365   490.0    4.120      36.440
2015    8       22    22  55    2.9320   489.8    4.117      36.382
2015    8       22    23   1    2.9275   489.6    4.114      36.324
2015    8       22    23   8    2.9229   489.4    4.111      36.265
2015    8       22    23  15    2.9184   489.2    4.108      36.206
2015    8       22    23  22    2.9138   489.0    4.105      36.147
2015    8       22    23  29    2.9093   488.8    4.102      36.088
2015    8       22    23  36    2.9047   488.6    4.098      36.029
2015    8       22    23  42    2.9002   488.4    4.095      35.971
2015    8       22    23  49    2.8957   488.2    4.092      35.911
2015    8       22    23  56    2.8912   488.0    4.088      35.852
2015    8       23     0   3    2.8866   487.8    4.084      35.792
2015    8       23     0  10    2.8821   487.6    4.081      35.732
2015    8       23     0  16    2.8776   487.4    4.077      35.671
2015    8       23     0  23    2.8731   487.2    4.073      35.610
2015    8       23     0  30    2.8685   487.0    4.070      35.548
2015    8       23     0  37    2.8640   486.8    4.066      35.486
2015    8       23     0  44    2.8595   486.6    4.062      35.423
2015    8       23     0  50    2.8550   486.3    4.058      35.361
2015    8       23     0  57    2.8505   486.1    4.054      35.297
2015    8       23     1   4    2.8460   485.9    4.050      35.233
2015    8       23     1  11    2.8415   485.7    4.046      35.168
2015    8       23     1  18    2.8370   485.5    4.042      35.104
2015    8       23     1  24    2.8326   485.3    4.037      35.039
2015    8       23     1  31    2.8281   485.1    4.033      34.974
2015    8       23     1  38    2.8237   484.9    4.029      34.907
2015    8       23     1  45    2.8192   484.6    4.025      34.842
2015    8       23     1  52    2.8148   484.4    4.021      34.775
2015    8       23     1  58    2.8103   484.2    4.016      34.709
2015    8       23     2   5    2.8059   484.0    4.012      34.642
2015    8       23     2  12    2.8015   483.8    4.008      34.575
2015    8       23     2  19    2.7971   483.5    4.003      34.508
2015    8       23     2  26    2.7927   483.3    3.999      34.440
2015    8       23     2  33    2.7884   483.1    3.995      34.373
2015    8       23     2  39    2.7841   482.9    3.991      34.305
2015    8       23     2  46    2.7797   482.6    3.986      34.237
2015    8       23     2  53    2.7754   482.4    3.982      34.169
2015    8       23     3   0    2.7712   482.2    3.978      34.100
2015    8       23     3   7    2.7669   481.9    3.974      34.032
2015    8       23     3  14    2.7627   481.7    3.969      33.963
2015    8       23     3  20    2.7585   481.4    3.965      33.894
2015    8       23     3  27    2.7543   481.2    3.961      33.825
2015    8       23     3  34    2.7501   480.9    3.957      33.756
2015    8       23     3  41    2.7460   480.7    3.953      33.686
2015    8       23     3  48    2.7419   480.4    3.949      33.617
2015    8       23     3  55    2.7378   480.2    3.945      33.548
2015    8       23     4   2    2.7338   479.9    3.942      33.479
2015    8       23     4   8    2.7298   479.6    3.938      33.410
2015    8       23     4  15    2.7259   479.4    3.935      33.342
2015    8       23     4  22    2.7220   479.1    3.932      33.274
2015    8       23     4  29    2.7182   478.8    3.929      33.207
2015    8       23     4  36    2.7144   478.6    3.926      33.141
2015    8       23     4  43    2.7107   478.3    3.923      33.075
2015    8       23     4  50    2.7070   478.0    3.920      33.010
2015    8       23     4  56    2.7034   477.7    3.918      32.946
2015    8       23     5   3    2.6999   477.5    3.916      32.883
2015    8       23     5  10    2.6965   477.2    3.914      32.821
2015    8       23     5  17    2.6930   476.9    3.912      32.760
2015    8       23     5  24    2.6897   476.6    3.911      32.700
2015    8       23     5  31    2.6864   476.3    3.910      32.640
2015    8       23     5  38    2.6832   476.0    3.908      32.583
2015    8       23     5  44    2.6800   475.8    3.907      32.525
2015    8       23     5  51    2.6769   475.5    3.906      32.469
2015    8       23     5  58    2.6737   475.2    3.906      32.412
2015    8       23     6   5    2.6707   474.9    3.905      32.357
2015    8       23     6  12    2.6676   474.6    3.904      32.302
2015    8       23     6  19    2.6645   474.3    3.904      32.248
2015    8       23     6  26    2.6615   474.0    3.903      32.193
2015    8       23     6  32    2.6585   473.7    3.903      32.140
2015    8       23     6  39    2.6554   473.4    3.902      32.086
2015    8       23     6  46    2.6525   473.1    3.901      32.033
2015    8       23     6  53    2.6495   472.8    3.900      31.979
2015    8       23     7   0    2.6465   472.5    3.899      31.926
2015    8       23     7   7    2.6436   472.2    3.898      31.872
2015    8       23     7  13    2.6406   471.9    3.897      31.818
2015    8       23     7  20    2.6377   471.6    3.896      31.763
2015    8       23     7  25    2.6356   471.4    3.895      31.727
2015    8       23     7  30    2.6334   471.1    3.894      31.690
2015    8       23     7  35    2.6313   470.9    3.893      31.652
2015    8       23     7  40    2.6291   470.7    3.892      31.615
2015    8       23     7  45    2.6270   470.5    3.891      31.578
2015    8       23     7  50    2.6249   470.3    3.890      31.541
2015    8       23     7  55    2.6228   470.1    3.889      31.503
2015    8       23     8   0    2.6207   469.9    3.888      31.466
2015    8       23     8   4    2.6186   469.6    3.886      31.429
2015    8       23     8   9    2.6166   469.4    3.885      31.392
2015    8       23     8  14    2.6145   469.2    3.884      31.355
2015    8       23     8  19    2.6124   469.0    3.883      31.318
2015    8       23     8  24    2.6104   468.8    3.881      31.280
2015    8       23     8  28    2.6083   468.6    3.880      31.243
2015    8       23     8  33    2.6063   468.4    3.879      31.206
2015    8       23     8  38    2.6043   468.2    3.877      31.169
2015    8       23     8  43    2.6022   468.0    3.876      31.130
2015    8       23     8  48    2.6002   467.8    3.875      31.092
2015    8       23     8  52    2.5981   467.6    3.873      31.053
2015    8       23     8  57    2.5961   467.3    3.872      31.014
2015    8       23     9   2    2.5940   467.1    3.870      30.975
2015    8       23     9   7    2.5920   466.9    3.869      30.936
2015    8       23     9  12    2.5899   466.7    3.867      30.897
2015    8       23     9  17    2.5880   466.5    3.866      30.858
2015    8       23     9  21    2.5859   466.3    3.864      30.819
2015    8       23     9  26    2.5839   466.1    3.863      30.779
2015    8       23     9  31    2.5819   465.9    3.861      30.740
2015    8       23     9  36    2.5799   465.7    3.859      30.700
2015    8       23     9  41    2.5778   465.4    3.858      30.659
2015    8       23     9  46    2.5758   465.2    3.856      30.619
2015    8       23     9  51    2.5738   465.0    3.855      30.578
2015    8       23     9  56    2.5717   464.8    3.853      30.537
2015    8       23    10   1    2.5697   464.6    3.851      30.495
2015    8       23    10   6    2.5676   464.4    3.850      30.453
2015    8       23    10  11    2.5656   464.1    3.848      30.411
2015    8       23    10  16    2.5635   463.9    3.846      30.367
2015    8       23    10  21    2.5615   463.7    3.845      30.324
2015    8       23    10  27    2.5594   463.4    3.843      30.280
2015    8       23    10  32    2.5573   463.2    3.841      30.236
2015    8       23    10  37    2.5552   463.0    3.840      30.190
2015    8       23    10  43    2.5531   462.7    3.838      30.144
2015    8       23    10  48    2.5509   462.5    3.837      30.097
2015    8       23    10  54    2.5488   462.2    3.835      30.050
2015    8       23    10  59    2.5467   462.0    3.833      30.002
2015    8       23    11   5    2.5446   461.7    3.832      29.955
2015    8       23    11  10    2.5424   461.5    3.830      29.907
2015    8       23    11  16    2.5403   461.2    3.829      29.858
2015    8       23    11  22    2.5382   461.0    3.827      29.810
2015    8       23    11  27    2.5361   460.7    3.826      29.762
2015    8       23    11  33    2.5340   460.4    3.825      29.713
2015    8       23    11  39    2.5319   460.2    3.823      29.664
2015    8       23    11  45    2.5298   459.9    3.822      29.616
2015    8       23    11  51    2.5278   459.6    3.821      29.567
2015    8       23    11  57    2.5257   459.4    3.820      29.518
2015    8       23    12   3    2.5236   459.1    3.819      29.470
2015    8       23    12   9    2.5216   458.8    3.818      29.421
2015    8       23    12  15    2.5196   458.5    3.818      29.373
2015    8       23    12  21    2.5176   458.3    3.817      29.325
2015    8       23    12  27    2.5156   458.0    3.817      29.277
2015    8       23    12  33    2.5137   457.7    3.816      29.230
2015    8       23    12  39    2.5117   457.4    3.816      29.183
2015    8       23    12  45    2.5098   457.1    3.816      29.136
2015    8       23    12  52    2.5079   456.9    3.816      29.090
2015    8       23    12  58    2.5060   456.6    3.816      29.043
2015    8       23    13   4    2.5041   456.3    3.816      28.997
2015    8       23    13  11    2.5022   456.0    3.816      28.952
2015    8       23    13  17    2.5003   455.7    3.816      28.907
2015    8       23    13  23    2.4985   455.4    3.817      28.862
2015    8       23    13  30    2.4966   455.1    3.817      28.818
2015    8       23    13  36    2.4948   454.8    3.817      28.774
2015    8       23    13  43    2.4930   454.5    3.818      28.730
2015    8       23    13  49    2.4912   454.2    3.818      28.687
2015    8       23    13  56    2.4894   453.9    3.818      28.643
2015    8       23    14   2    2.4876   453.6    3.819      28.599
2015    8       23    14   9    2.4858   453.3    3.819      28.554
2015    8       23    14  16    2.4840   453.0    3.819      28.509
2015    8       23    14  22    2.4822   452.7    3.819      28.464
2015    8       23    14  29    2.4804   452.4    3.819      28.418
2015    8       23    14  36    2.4786   452.0    3.819      28.371
2015    8       23    14  42    2.4768   451.7    3.819      28.325
2015    8       23    14  49    2.4750   451.4    3.819      28.277
2015    8       23    14  56    2.4732   451.1    3.819      28.229
2015    8       23    15   3    2.4714   450.7    3.819      28.181
2015    8       23    15  10    2.4697   450.4    3.819      28.133
2015    8       23    15  16    2.4679   450.1    3.819      28.085
2015    8       23    15  23    2.4661   449.8    3.819      28.037
2015    8       23    15  30    2.4644   449.4    3.819      27.989
2015    8       23    15  37    2.4627   449.1    3.819      27.940
2015    8       23    15  43    2.4610   448.8    3.819      27.893
2015    8       23    15  50    2.4593   448.4    3.820      27.845
2015    8       23    15  57    2.4576   448.1    3.820      27.797
2015    8       23    16   4    2.4560   447.8    3.820      27.750
2015    8       23    16  11    2.4543   447.5    3.821      27.703
2015    8       23    16  17    2.4527   447.1    3.822      27.656
2015    8       23    16  24    2.4512   446.8    3.823      27.610
2015    8       23    16  31    2.4496   446.4    3.823      27.563
2015    8       23    16  38    2.4481   446.1    3.824      27.518
2015    8       23    16  45    2.4466   445.8    3.826      27.472
2015    8       23    16  51    2.4451   445.4    3.827      27.427
2015    8       23    16  58    2.4436   445.1    3.828      27.383
2015    8       23    17   5    2.4422   444.8    3.830      27.338
2015    8       23    17  12    2.4408   444.4    3.831      27.294
2015    8       23    17  18    2.4394   444.1    3.833      27.251
2015    8       23    17  25    2.4381   443.8    3.835      27.207
2015    8       23    17  32    2.4368   443.4    3.837      27.164
2015    8       23    17  39    2.4354   443.1    3.838      27.120
2015    8       23    17  46    2.4341   442.8    3.840      27.078
2015    8       23    17  52    2.4328   442.4    3.842      27.035
2015    8       23    17  59    2.4315   442.1    3.844      26.992
2015    8       23    18   6    2.4302   441.8    3.846      26.949
2015    8       23    18  13    2.4289   441.4    3.848      26.906
2015    8       23    18  20    2.4275   441.1    3.850      26.863
2015    8       23    18  27    2.4262   440.8    3.852      26.820
2015    8       23    18  33    2.4249   440.4    3.854      26.776
2015    8       23    18  40    2.4236   440.1    3.855      26.733
2015    8       23    18  47    2.4223   439.7    3.857      26.690
2015    8       23    18  54    2.4210   439.4    3.859      26.646
2015    8       23    19   1    2.4197   439.0    3.861      26.602
2015    8       23    19   8    2.4184   438.7    3.862      26.559
2015    8       23    19  14    2.4172   438.3    3.864      26.515
2015    8       23    19  21    2.4159   438.0    3.865      26.471
2015    8       23    19  28    2.4147   437.7    3.867      26.428
2015    8       23    19  35    2.4135   437.3    3.868      26.384
2015    8       23    19  42    2.4123   437.0    3.869      26.340
2015    8       23    19  49    2.4111   436.6    3.871      26.297
2015    8       23    19  55    2.4100   436.3    3.872      26.253
2015    8       23    20   2    2.4089   435.9    3.873      26.209
2015    8       23    20   9    2.4078   435.6    3.875      26.165
2015    8       23    20  16    2.4067   435.2    3.876      26.121
2015    8       23    20  23    2.4056   434.9    3.877      26.076
2015    8       23    20  30    2.4046   434.5    3.878      26.032
2015    8       23    20  37    2.4036   434.2    3.879      25.988
2015    8       23    20  44    2.4026   433.8    3.880      25.944
2015    8       23    20  50    2.4016   433.5    3.881      25.899
2015    8       23    20  57    2.4007   433.1    3.882      25.855
2015    8       23    21   4    2.3998   432.8    3.883      25.810
2015    8       23    21  11    2.3989   432.4    3.884      25.766
2015    8       23    21  18    2.3980   432.1    3.885      25.721
2015    8       23    21  25    2.3971   431.7    3.886      25.676
2015    8       23    21  31    2.3963   431.4    3.887      25.631
2015    8       23    21  38    2.3955   431.0    3.888      25.587
2015    8       23    21  45    2.3947   430.7    3.889      25.542
2015    8       23    21  52    2.3939   430.3    3.890      25.497
2015    8       23    21  59    2.3932   430.0    3.891      25.452
2015    8       23    22   6    2.3925   429.6    3.892      25.408
2015    8       23    22  12    2.3917   429.3    3.893      25.363
2015    8       23    22  19    2.3910   428.9    3.895      25.320
2015    8       23    22  26    2.3904   428.5    3.896      25.275
2015    8       23    22  33    2.3897   428.2    3.897      25.232
2015    8       23    22  40    2.3891   427.8    3.899      25.188
2015    8       23    22  46    2.3884   427.5    3.900      25.145
2015    8       23    22  53    2.3879   427.1    3.902      25.102
2015    8       23    23   0    2.3873   426.7    3.904      25.060
2015    8       23    23   7    2.3868   426.4    3.906      25.018
2015    8       23    23  13    2.3862   426.0    3.908      24.977
2015    8       23    23  20    2.3858   425.7    3.910      24.936
2015    8       23    23  27    2.3853   425.3    3.912      24.896
2015    8       23    23  34    2.3849   424.9    3.915      24.856
2015    8       23    23  41    2.3845   424.6    3.917      24.817
2015    8       23    23  47    2.3842   424.2    3.920      24.778
2015    8       23    23  54    2.3839   423.8    3.923      24.740
2015    8       24     0   1    2.3836   423.5    3.926      24.702
2015    8       24     0   8    2.3834   423.1    3.930      24.665
2015    8       24     0  15    2.3831   422.8    3.933      24.629
2015    8       24     0  21    2.3830   422.4    3.937      24.593
2015    8       24     0  28    2.3828   422.0    3.941      24.557
2015    8       24     0  35    2.3827   421.7    3.945      24.523
2015    8       24     0  42    2.3826   421.3    3.949      24.488
2015    8       24     0  48    2.3826   421.0    3.954      24.454
2015    8       24     0  55    2.3826   420.6    3.958      24.420
2015    8       24     1   2    2.3825   420.2    3.963      24.387
2015    8       24     1   9    2.3826   419.9    3.967      24.354
2015    8       24     1  16    2.3826   419.5    3.972      24.321
2015    8       24     1  23    2.3826   419.1    3.977      24.288
2015    8       24     1  29    2.3827   418.8    3.982      24.256
2015    8       24     1  36    2.3828   418.4    3.987      24.224
2015    8       24     1  43    2.3829   418.0    3.992      24.192
2015    8       24     1  50    2.3830   417.7    3.998      24.160
2015    8       24     1  57    2.3832   417.3    4.003      24.128
2015    8       24     2   3    2.3834   416.9    4.009      24.097
2015    8       24     2  10    2.3836   416.5    4.014      24.066
2015    8       24     2  17    2.3838   416.1    4.020      24.035
2015    8       24     2  24    2.3841   415.8    4.025      24.004
2015    8       24     2  31    2.3845   415.4    4.031      23.974
2015    8       24     2  38    2.3849   415.0    4.037      23.944
2015    8       24     2  45    2.3853   414.6    4.043      23.915
2015    8       24     2  51    2.3858   414.2    4.049      23.886
2015    8       24     2  58    2.3864   413.8    4.056      23.857
2015    8       24     3   5    2.3870   413.5    4.062      23.829
2015    8       24     3  12    2.3876   413.1    4.069      23.802
2015    8       24     3  19    2.3884   412.7    4.075      23.774
2015    8       24     3  26    2.3892   412.3    4.082      23.747
2015    8       24     3  33    2.3900   411.9    4.089      23.721
2015    8       24     3  39    2.3910   411.5    4.096      23.695
2015    8       24     3  46    2.3919   411.2    4.104      23.670
2015    8       24     3  53    2.3930   410.8    4.111      23.644
2015    8       24     4   0    2.3941   410.4    4.119      23.620
2015    8       24     4   7    2.3953   410.0    4.126      23.596
2015    8       24     4  14    2.3965   409.6    4.134      23.572
2015    8       24     4  21    2.3978   409.2    4.142      23.549
2015    8       24     4  27    2.3992   408.9    4.150      23.526
2015    8       24     4  34    2.4006   408.5    4.158      23.504
2015    8       24     4  41    2.4021   408.1    4.167      23.482
2015    8       24     4  48    2.4037   407.7    4.175      23.460
2015    8       24     4  55    2.4053   407.4    4.184      23.439
2015    8       24     5   2    2.4069   407.0    4.192      23.418
2015    8       24     5   8    2.4086   406.6    4.201      23.398
2015    8       24     5  15    2.4103   406.2    4.210      23.377
2015    8       24     5  22    2.4121   405.9    4.219      23.358
2015    8       24     5  29    2.4139   405.5    4.228      23.338
2015    8       24     5  36    2.4157   405.1    4.237      23.319
2015    8       24     5  42    2.4176   404.8    4.246      23.300
2015    8       24     5  49    2.4195   404.4    4.255      23.281
2015    8       24     5  56    2.4215   404.0    4.265      23.262
2015    8       24     6   3    2.4234   403.7    4.274      23.244
2015    8       24     6  10    2.4254   403.3    4.283      23.226
2015    8       24     6  16    2.4274   402.9    4.293      23.208
2015    8       24     6  23    2.4295   402.6    4.302      23.190
2015    8       24     6  30    2.4315   402.2    4.311      23.172
2015    8       24     6  37    2.4336   401.9    4.321      23.154
2015    8       24     6  43    2.4357   401.5    4.330      23.137
2015    8       24     6  50    2.4379   401.1    4.340      23.119
2015    8       24     6  57    2.4400   400.8    4.350      23.101
2015    8       24     7   4    2.4422   400.4    4.359      23.084
2015    8       24     7  11    2.4444   400.1    4.369      23.066
2015    8       24     7  17    2.4466   399.7    4.378      23.048
2015    8       24     7  24    2.4489   399.4    4.388      23.031
2015    8       24     7  31    2.4512   399.0    4.398      23.013
2015    8       24     7  38    2.4534   398.7    4.408      22.996
2015    8       24     7  45    2.4558   398.3    4.417      22.979
2015    8       24     7  51    2.4581   397.9    4.427      22.961
2015    8       24     7  58    2.4605   397.6    4.437      22.944
2015    8       24     8   5    2.4629   397.2    4.447      22.927
2015    8       24     8  12    2.4653   396.9    4.457      22.910
2015    8       24     8  19    2.4678   396.5    4.467      22.893
2015    8       24     8  25    2.4703   396.2    4.477      22.876
2015    8       24     8  32    2.4728   395.8    4.487      22.860
2015    8       24     8  39    2.4754   395.5    4.497      22.843
2015    8       24     8  46    2.4780   395.1    4.508      22.827
2015    8       24     8  53    2.4807   394.8    4.518      22.811
2015    8       24     8  59    2.4834   394.4    4.529      22.795
2015    8       24     9   6    2.4861   394.1    4.539      22.780
2015    8       24     9  13    2.4889   393.7    4.550      22.765
2015    8       24     9  20    2.4917   393.4    4.561      22.750
2015    8       24     9  27    2.4946   393.1    4.572      22.736
2015    8       24     9  34    2.4976   392.7    4.584      22.722
2015    8       24     9  40    2.5006   392.4    4.595      22.708
2015    8       24     9  47    2.5037   392.0    4.607      22.695
2015    8       24     9  54    2.5068   391.7    4.618      22.683
2015    8       24    10   1    2.5100   391.4    4.630      22.672
2015    8       24    10   8    2.5132   391.0    4.642      22.660
2015    8       24    10  15    2.5166   390.7    4.655      22.650
2015    8       24    10  22    2.5200   390.4    4.667      22.640
2015    8       24    10  28    2.5235   390.0    4.680      22.631
2015    8       24    10  35    2.5270   389.7    4.693      22.622
2015    8       24    10  42    2.5306   389.4    4.706      22.614
2015    8       24    10  49    2.5343   389.1    4.720      22.607
2015    8       24    10  56    2.5381   388.7    4.734      22.601
2015    8       24    11   3    2.5419   388.4    4.747      22.596
2015    8       24    11  10    2.5458   388.1    4.762      22.591
2015    8       24    11  16    2.5498   387.8    4.776      22.587
2015    8       24    11  23    2.5539   387.5    4.791      22.583
2015    8       24    11  30    2.5580   387.2    4.805      22.581
2015    8       24    11  37    2.5622   386.9    4.820      22.578
2015    8       24    11  44    2.5664   386.6    4.836      22.577
2015    8       24    11  51    2.5708   386.3    4.851      22.577
2015    8       24    11  58    2.5752   386.0    4.867      22.577
2015    8       24    12   4    2.5797   385.7    4.883      22.578
2015    8       24    12  11    2.5842   385.4    4.899      22.579
2015    8       24    12  18    2.5888   385.1    4.915      22.581
2015    8       24    12  25    2.5934   384.8    4.931      22.584
2015    8       24    12  32    2.5981   384.5    4.948      22.587
2015    8       24    12  38    2.6029   384.2    4.964      22.591
2015    8       24    12  45    2.6077   383.9    4.981      22.595
2015    8       24    12  52    2.6124   383.7    4.998      22.600
2015    8       24    12  59    2.6173   383.4    5.015      22.605
2015    8       24    13   6    2.6222   383.1    5.032      22.610
2015    8       24    13  12    2.6271   382.9    5.050      22.616
2015    8       24    13  19    2.6320   382.6    5.067      22.622
2015    8       24    13  26    2.6370   382.3    5.085      22.629
2015    8       24    13  33    2.6420   382.1    5.102      22.636
2015    8       24    13  40    2.6470   381.8    5.120      22.643
2015    8       24    13  46    2.6520   381.6    5.137      22.651
2015    8       24    13  53    2.6571   381.3    5.155      22.658
2015    8       24    14   0    2.6622   381.0    5.173      22.666
2015    8       24    14   7    2.6673   380.8    5.191      22.675
2015    8       24    14  13    2.6724   380.5    5.209      22.683
2015    8       24    14  20    2.6776   380.3    5.227      22.692
2015    8       24    14  27    2.6828   380.0    5.244      22.700
2015    8       24    14  34    2.6880   379.8    5.262      22.709
2015    8       24    14  41    2.6932   379.5    5.280      22.718
2015    8       24    14  47    2.6984   379.3    5.298      22.728
2015    8       24    14  54    2.7037   379.1    5.316      22.737
2015    8       24    15   1    2.7090   378.8    5.334      22.746
2015    8       24    15   8    2.7142   378.6    5.352      22.756
2015    8       24    15  15    2.7196   378.3    5.371      22.765
2015    8       24    15  21    2.7249   378.1    5.389      22.775
2015    8       24    15  28    2.7303   377.9    5.407      22.785
2015    8       24    15  35    2.7356   377.6    5.425      22.795
2015    8       24    15  42    2.7411   377.4    5.444      22.805
2015    8       24    15  49    2.7465   377.1    5.462      22.815
2015    8       24    15  55    2.7520   376.9    5.480      22.825
2015    8       24    16   2    2.7574   376.7    5.499      22.835
2015    8       24    16   9    2.7630   376.4    5.517      22.846
2015    8       24    16  16    2.7685   376.2    5.536      22.857
2015    8       24    16  23    2.7742   376.0    5.555      22.868
2015    8       24    16  30    2.7797   375.7    5.574      22.879
2015    8       24    16  36    2.7854   375.5    5.593      22.890
2015    8       24    16  43    2.7911   375.3    5.611      22.902
2015    8       24    16  50    2.7969   375.1    5.631      22.914
2015    8       24    16  57    2.8026   374.8    5.650      22.926
2015    8       24    17   4    2.8085   374.6    5.669      22.939
2015    8       24    17  11    2.8143   374.4    5.689      22.952
2015    8       24    17  17    2.8203   374.2    5.708      22.965
2015    8       24    17  24    2.8262   374.0    5.728      22.979
2015    8       24    17  31    2.8322   373.8    5.748      22.993
2015    8       24    17  38    2.8382   373.5    5.768      23.007
2015    8       24    17  45    2.8443   373.3    5.788      23.021
2015    8       24    17  52    2.8504   373.1    5.808      23.037
2015    8       24    17  59    2.8566   372.9    5.828      23.052
2015    8       24    18   5    2.8628   372.7    5.849      23.068
2015    8       24    18  12    2.8690   372.5    5.869      23.084
2015    8       24    18  19    2.8753   372.3    5.890      23.100
2015    8       24    18  26    2.8817   372.1    5.911      23.117
2015    8       24    18  33    2.8880   371.9    5.931      23.134
2015    8       24    18  40    2.8944   371.7    5.952      23.152
2015    8       24    18  47    2.9008   371.5    5.973      23.170
2015    8       24    18  53    2.9074   371.4    5.994      23.188
2015    8       24    19   0    2.9138   371.2    6.016      23.206
2015    8       24    19   7    2.9204   371.0    6.037      23.225
2015    8       24    19  14    2.9270   370.8    6.058      23.244
2015    8       24    19  21    2.9336   370.6    6.080      23.264
2015    8       24    19  28    2.9403   370.4    6.101      23.284
2015    8       24    19  34    2.9470   370.3    6.123      23.304
2015    8       24    19  41    2.9537   370.1    6.145      23.324
2015    8       24    19  48    2.9606   369.9    6.167      23.345
2015    8       24    19  55    2.9674   369.8    6.188      23.366
2015    8       24    20   2    2.9742   369.6    6.211      23.388
2015    8       24    20   8    2.9811   369.4    6.233      23.410
2015    8       24    20  15    2.9880   369.3    6.255      23.432
2015    8       24    20  22    2.9948   369.1    6.277      23.455
2015    8       24    20  29    3.0018   369.0    6.300      23.480
2015    8       24    20  36    3.0086   368.8    6.322      23.504
2015    8       24    20  42    3.0156   368.7    6.344      23.530
2015    8       24    20  49    3.0224   368.5    6.366      23.556
2015    8       24    20  56    3.0294   368.4    6.389      23.583
2015    8       24    21   3    3.0362   368.2    6.411      23.610
2015    8       24    21  10    3.0432   368.1    6.433      23.637
2015    8       24    21  16    3.0501   367.9    6.455      23.665
2015    8       24    21  23    3.0571   367.8    6.477      23.692
2015    8       24    21  30    3.0640   367.6    6.499      23.720
2015    8       24    21  37    3.0710   367.5    6.521      23.748
2015    8       24    21  43    3.0779   367.4    6.542      23.776
2015    8       24    21  50    3.0849   367.2    6.564      23.804
2015    8       24    21  57    3.0919   367.1    6.586      23.832
2015    8       24    22   4    3.0989   366.9    6.608      23.860
2015    8       24    22  11    3.1060   366.8    6.630      23.889
2015    8       24    22  17    3.1130   366.7    6.651      23.917
2015    8       24    22  24    3.1201   366.5    6.673      23.945
2015    8       24    22  31    3.1272   366.4    6.695      23.974
2015    8       24    22  38    3.1342   366.3    6.717      24.002
2015    8       24    22  45    3.1414   366.1    6.739      24.031
2015    8       24    22  51    3.1485   366.0    6.761      24.059
2015    8       24    22  58    3.1557   365.9    6.783      24.088
2015    8       24    23   5    3.1628   365.8    6.804      24.117
2015    8       24    23  12    3.1700   365.6    6.826      24.147
2015    8       24    23  19    3.1772   365.5    6.848      24.176
2015    8       24    23  25    3.1844   365.4    6.870      24.206
2015    8       24    23  32    3.1916   365.3    6.892      24.236
2015    8       24    23  39    3.1989   365.2    6.914      24.267
2015    8       24    23  46    3.2061   365.0    6.936      24.297
2015    8       24    23  53    3.2134   364.9    6.958      24.328
2015    8       25     0   0    3.2207   364.8    6.979      24.358
2015    8       25     0   6    3.2280   364.7    7.001      24.389
2015    8       25     0  13    3.2353   364.6    7.023      24.420
2015    8       25     0  20    3.2427   364.5    7.045      24.451
2015    8       25     0  27    3.2501   364.4    7.067      24.482
2015    8       25     0  34    3.2576   364.3    7.089      24.513
2015    8       25     0  41    3.2650   364.1    7.111      24.544
2015    8       25     0  48    3.2725   364.0    7.134      24.576
2015    8       25     0  54    3.2799   363.9    7.156      24.607
2015    8       25     1   1    3.2875   363.8    7.178      24.639
2015    8       25     1   8    3.2950   363.7    7.200      24.671
2015    8       25     1  15    3.3027   363.6    7.222      24.703
2015    8       25     1  22    3.3103   363.5    7.245      24.735
2015    8       25     1  29    3.3180   363.4    7.267      24.768
2015    8       25     1  36    3.3256   363.4    7.289      24.800
2015    8       25     1  42    3.3334   363.3    7.312      24.833
2015    8       25     1  49    3.3411   363.2    7.335      24.866
2015    8       25     1  56    3.3490   363.1    7.357      24.900
2015    8       25     2   3    3.3568   363.0    7.380      24.933
2015    8       25     2  10    3.3647   362.9    7.403      24.968
2015    8       25     2  17    3.3726   362.8    7.426      25.002
2015    8       25     2  24    3.3807   362.7    7.449      25.037
2015    8       25     2  30    3.3886   362.7    7.472      25.072
2015    8       25     2  37    3.3968   362.6    7.496      25.108
2015    8       25     2  44    3.4049   362.5    7.520      25.144
2015    8       25     2  51    3.4131   362.4    7.544      25.180
2015    8       25     2  58    3.4213   362.4    7.568      25.217
2015    8       25     3   4    3.4297   362.3    7.592      25.254
2015    8       25     3  11    3.4380   362.2    7.616      25.292
2015    8       25     3  18    3.4465   362.2    7.642      25.330
2015    8       25     3  25    3.4549   362.1    7.667      25.369
2015    8       25     3  32    3.4634   362.0    7.692      25.409
2015    8       25     3  38    3.4719   362.0    7.718      25.449
2015    8       25     3  45    3.4804   361.9    7.744      25.491
2015    8       25     3  52    3.4888   361.9    7.769      25.534
2015    8       25     3  59    3.4974   361.8    7.795      25.578
2015    8       25     4   6    3.5058   361.8    7.821      25.624
2015    8       25     4  12    3.5142   361.7    7.846      25.672
2015    8       25     4  19    3.5226   361.7    7.871      25.721
2015    8       25     4  26    3.5310   361.6    7.896      25.771
2015    8       25     4  33    3.5393   361.6    7.921      25.822
2015    8       25     4  39    3.5476   361.6    7.945      25.874
2015    8       25     4  46    3.5559   361.5    7.969      25.926
2015    8       25     4  53    3.5642   361.5    7.993      25.978
2015    8       25     5   0    3.5724   361.5    8.016      26.030
2015    8       25     5   7    3.5807   361.4    8.039      26.081
2015    8       25     5  13    3.5889   361.4    8.062      26.131
2015    8       25     5  20    3.5971   361.3    8.085      26.182
2015    8       25     5  27    3.6052   361.3    8.107      26.231
2015    8       25     5  34    3.6135   361.3    8.129      26.281
2015    8       25     5  41    3.6216   361.3    8.151      26.329
2015    8       25     5  47    3.6298   361.2    8.172      26.377
2015    8       25     5  54    3.6379   361.2    8.194      26.425
2015    8       25     6   1    3.6460   361.2    8.215      26.472
2015    8       25     6   8    3.6541   361.1    8.236      26.519
2015    8       25     6  15    3.6623   361.1    8.257      26.565
2015    8       25     6  21    3.6704   361.1    8.278      26.611
2015    8       25     6  28    3.6785   361.1    8.298      26.657
2015    8       25     6  35    3.6865   361.0    8.318      26.702
2015    8       25     6  42    3.6947   361.0    8.339      26.748
2015    8       25     6  49    3.7027   361.0    8.358      26.793
2015    8       25     6  55    3.7109   361.0    8.378      26.837
2015    8       25     7   2    3.7189   361.0    8.398      26.882
2015    8       25     7   9    3.7271   360.9    8.417      26.926
2015    8       25     7  16    3.7351   360.9    8.437      26.970
2015    8       25     7  23    3.7433   360.9    8.456      27.013
2015    8       25     7  30    3.7514   360.9    8.475      27.057
2015    8       25     7  37    3.7595   360.9    8.494      27.100
2015    8       25     7  43    3.7677   360.9    8.513      27.142
2015    8       25     7  50    3.7759   360.9    8.532      27.185
2015    8       25     7  57    3.7840   360.8    8.551      27.227
2015    8       25     8   4    3.7923   360.8    8.570      27.269
2015    8       25     8  11    3.8005   360.8    8.588      27.311
2015    8       25     8  18    3.8087   360.8    8.607      27.352
2015    8       25     8  24    3.8170   360.8    8.625      27.394
2015    8       25     8  31    3.8254   360.8    8.644      27.436
2015    8       25     8  38    3.8337   360.8    8.662      27.477
2015    8       25     8  45    3.8421   360.8    8.681      27.519
2015    8       25     8  52    3.8505   360.8    8.700      27.561
2015    8       25     8  59    3.8590   360.8    8.718      27.603
2015    8       25     9   6    3.8675   360.8    8.737      27.645
2015    8       25     9  13    3.8761   360.8    8.756      27.688
2015    8       25     9  19    3.8847   360.8    8.775      27.731
2015    8       25     9  26    3.8933   360.8    8.794      27.775
2015    8       25     9  33    3.9020   360.8    8.813      27.818
2015    8       25     9  40    3.9108   360.8    8.833      27.863
2015    8       25     9  47    3.9196   360.8    8.852      27.908
2015    8       25     9  54    3.9285   360.8    8.872      27.953
2015    8       25    10   0    3.9375   360.8    8.892      28.000
2015    8       25    10   7    3.9465   360.8    8.913      28.046
2015    8       25    10  14    3.9556   360.8    8.933      28.094
2015    8       25    10  21    3.9648   360.8    8.954      28.142
2015    8       25    10  28    3.9740   360.8    8.975      28.191
2015    8       25    10  34    3.9834   360.8    8.997      28.241
2015    8       25    10  41    3.9928   360.9    9.019      28.292
2015    8       25    10  48    4.0023   360.9    9.042      28.343
2015    8       25    10  55    4.0118   360.9    9.065      28.396
2015    8       25    11   2    4.0214   360.9    9.088      28.449
2015    8       25    11   8    4.0309   360.9    9.112      28.504
2015    8       25    11  15    4.0404   361.0    9.136      28.561
2015    8       25    11  22    4.0498   361.0    9.159      28.620
2015    8       25    11  29    4.0593   361.1    9.183      28.682
2015    8       25    11  35    4.0686   361.1    9.206      28.745
2015    8       25    11  42    4.0780   361.2    9.229      28.811
2015    8       25    11  49    4.0872   361.2    9.252      28.879
2015    8       25    11  56    4.0965   361.3    9.275      28.948
2015    8       25    12   3    4.1056   361.3    9.297      29.017
2015    8       25    12   9    4.1148   361.4    9.318      29.088
2015    8       25    12  16    4.1238   361.4    9.339      29.157
2015    8       25    12  23    4.1329   361.5    9.360      29.227
2015    8       25    12  30    4.1418   361.5    9.381      29.296
2015    8       25    12  37    4.1508   361.6    9.401      29.364
2015    8       25    12  43    4.1596   361.6    9.421      29.431
2015    8       25    12  50    4.1685   361.7    9.440      29.498
2015    8       25    12  57    4.1773   361.7    9.459      29.563
2015    8       25    13   4    4.1861   361.8    9.478      29.628
2015    8       25    13  10    4.1949   361.8    9.497      29.692
2015    8       25    13  17    4.2037   361.9    9.515      29.756
2015    8       25    13  24    4.2124   361.9    9.533      29.818
2015    8       25    13  31    4.2212   362.0    9.551      29.880
2015    8       25    13  38    4.2299   362.1    9.569      29.941
2015    8       25    13  45    4.2387   362.1    9.586      30.002
2015    8       25    13  51    4.2475   362.2    9.604      30.061
2015    8       25    13  58    4.2563   362.2    9.621      30.121
2015    8       25    14   5    4.2651   362.3    9.638      30.180
2015    8       25    14  12    4.2739   362.3    9.655      30.238
2015    8       25    14  19    4.2827   362.4    9.672      30.296
2015    8       25    14  26    4.2916   362.5    9.689      30.354
2015    8       25    14  32    4.3004   362.5    9.705      30.411
2015    8       25    14  39    4.3093   362.6    9.722      30.467
2015    8       25    14  46    4.3182   362.7    9.738      30.524
2015    8       25    14  53    4.3272   362.7    9.755      30.580
2015    8       25    15   0    4.3361   362.8    9.771      30.635
2015    8       25    15   7    4.3451   362.9    9.787      30.691
2015    8       25    15  13    4.3541   362.9    9.804      30.746
2015    8       25    15  20    4.3632   363.0    9.820      30.801
2015    8       25    15  27    4.3722   363.1    9.836      30.855
2015    8       25    15  34    4.3813   363.1    9.852      30.910
2015    8       25    15  41    4.3904   363.2    9.868      30.964
2015    8       25    15  48    4.3996   363.3    9.884      31.019
2015    8       25    15  55    4.4087   363.4    9.900      31.073
2015    8       25    16   1    4.4180   363.4    9.916      31.128
2015    8       25    16   8    4.4272   363.5    9.932      31.182
2015    8       25    16  15    4.4365   363.6    9.948      31.237
2015    8       25    16  22    4.4458   363.7    9.964      31.292
2015    8       25    16  29    4.4551   363.7    9.980      31.347
2015    8       25    16  36    4.4645   363.8    9.996      31.403
2015    8       25    16  43    4.4739   363.9   10.012      31.459
2015    8       25    16  49    4.4833   364.0   10.028      31.515
2015    8       25    16  56    4.4929   364.1   10.045      31.571
2015    8       25    17   3    4.5024   364.1   10.061      31.628
2015    8       25    17  10    4.5120   364.2   10.078      31.686
2015    8       25    17  17    4.5217   364.3   10.095      31.744
2015    8       25    17  24    4.5314   364.4   10.112      31.803
2015    8       25    17  30    4.5412   364.5   10.129      31.862
2015    8       25    17  37    4.5511   364.5   10.146      31.922
2015    8       25    17  44    4.5609   364.6   10.164      31.983
2015    8       25    17  51    4.5709   364.7   10.182      32.045
2015    8       25    17  58    4.5809   364.8   10.199      32.108
2015    8       25    18   4    4.5909   364.9   10.217      32.172
2015    8       25    18  11    4.6009   365.0   10.235      32.236
2015    8       25    18  18    4.6110   365.1   10.254      32.302
2015    8       25    18  25    4.6210   365.2   10.272      32.368
2015    8       25    18  32    4.6311   365.3   10.291      32.436
2015    8       25    18  38    4.6410   365.4   10.309      32.504
2015    8       25    18  45    4.6511   365.5   10.327      32.573
2015    8       25    18  52    4.6610   365.6   10.346      32.643
2015    8       25    18  59    4.6710   365.7   10.364      32.714
2015    8       25    19   5    4.6808   365.8   10.382      32.785
2015    8       25    19  12    4.6908   365.9   10.400      32.857
2015    8       25    19  19    4.7006   366.0   10.417      32.929
2015    8       25    19  26    4.7104   366.1   10.435      33.002
2015    8       25    19  33    4.7202   366.2   10.452      33.074
2015    8       25    19  39    4.7300   366.3   10.469      33.145
2015    8       25    19  46    4.7397   366.4   10.486      33.217
2015    8       25    19  53    4.7495   366.5   10.502      33.288
2015    8       25    20   0    4.7592   366.6   10.519      33.358
2015    8       25    20   6    4.7690   366.7   10.535      33.429
2015    8       25    20  13    4.7787   366.9   10.551      33.498
2015    8       25    20  20    4.7885   367.0   10.568      33.568
2015    8       25    20  27    4.7983   367.1   10.584      33.636
2015    8       25    20  34    4.8081   367.2   10.601      33.705
2015    8       25    20  40    4.8180   367.3   10.617      33.773
2015    8       25    20  47    4.8279   367.4   10.634      33.843
2015    8       25    20  54    4.8379   367.5   10.650      33.912
2015    8       25    21   1    4.8479   367.6   10.667      33.982
2015    8       25    21   8    4.8579   367.7   10.684      34.052
2015    8       25    21  15    4.8680   367.9   10.700      34.124
2015    8       25    21  21    4.8780   368.0   10.717      34.198
2015    8       25    21  28    4.8882   368.1   10.733      34.274
2015    8       25    21  35    4.8983   368.3   10.749      34.351
2015    8       25    21  42    4.9085   368.4   10.765      34.430
2015    8       25    21  49    4.9187   368.6   10.781      34.510
2015    8       25    21  56    4.9289   368.7   10.797      34.592
2015    8       25    22   2    4.9391   368.9   10.812      34.674
2015    8       25    22   9    4.9493   369.0   10.828      34.757
2015    8       25    22  16    4.9595   369.2   10.843      34.841
2015    8       25    22  23    4.9698   369.3   10.858      34.925
2015    8       25    22  30    4.9800   369.5   10.873      35.008
2015    8       25    22  37    4.9902   369.7   10.887      35.092
2015    8       25    22  43    5.0005   369.8   10.902      35.177
2015    8       25    22  50    5.0108   370.0   10.917      35.262
2015    8       25    22  57    5.0212   370.1   10.931      35.346
2015    8       25    23   4    5.0315   370.3   10.946      35.432
2015    8       25    23  11    5.0419   370.5   10.961      35.517
2015    8       25    23  18    5.0524   370.6   10.975      35.603
2015    8       25    23  25    5.0628   370.8   10.990      35.688
2015    8       25    23  32    5.0733   371.0   11.005      35.775
2015    8       25    23  38    5.0837   371.2   11.019      35.861
2015    8       25    23  45    5.0942   371.3   11.034      35.948
2015    8       25    23  52    5.1047   371.5   11.049      36.035
2015    8       25    23  59    5.1154   371.7   11.064      36.123
2015    8       26     0   6    5.1259   371.8   11.079      36.211
2015    8       26     0  13    5.1366   372.0   11.094      36.300
2015    8       26     0  19    5.1473   372.2   11.109      36.390
2015    8       26     0  26    5.1582   372.4   11.124      36.481
2015    8       26     0  33    5.1690   372.6   11.140      36.572
2015    8       26     0  40    5.1801   372.8   11.156      36.666
2015    8       26     0  47    5.1912   372.9   11.173      36.759
2015    8       26     0  54    5.2024   373.1   11.189      36.855
2015    8       26     1   0    5.2137   373.3   11.206      36.951
2015    8       26     1   7    5.2252   373.5   11.224      37.048
2015    8       26     1  14    5.2367   373.7   11.242      37.145
2015    8       26     1  21    5.2484   373.9   11.260      37.244
2015    8       26     1  28    5.2601   374.1   11.279      37.343
2015    8       26     1  34    5.2720   374.3   11.298      37.443
2015    8       26     1  41    5.2839   374.5   11.318      37.541
2015    8       26     1  48    5.2960   374.7   11.338      37.641
2015    8       26     1  55    5.3082   375.0   11.359      37.742
2015    8       26     2   1    5.3206   375.2   11.379      37.847
2015    8       26     2   8    5.3330   375.4   11.400      37.952
2015    8       26     2  15    5.3455   375.6   11.421      38.059
2015    8       26     2  22    5.3580   375.9   11.441      38.166
2015    8       26     2  29    5.3705   376.1   11.461      38.276
2015    8       26     2  35    5.3830   376.4   11.480      38.386
2015    8       26     2  42    5.3954   376.6   11.499      38.495
2015    8       26     2  49    5.4075   376.9   11.516      38.602
2015    8       26     2  56    5.4196   377.1   11.533      38.707
2015    8       26     3   2    5.4314   377.4   11.549      38.810
2015    8       26     3   9    5.4432   377.6   11.564      38.911
2015    8       26     3  16    5.4547   377.8   11.578      39.010
2015    8       26     3  23    5.4661   378.1   11.592      39.109
2015    8       26     3  30    5.4772   378.3   11.604      39.206
2015    8       26     3  36    5.4883   378.6   11.615      39.301
2015    8       26     3  43    5.4991   378.9   11.626      39.396
2015    8       26     3  50    5.5098   379.1   11.635      39.491
2015    8       26     3  57    5.5203   379.4   11.643      39.584
2015    8       26     4   4    5.5307   379.6   11.651      39.677
2015    8       26     4  10    5.5408   379.9   11.657      39.769
2015    8       26     4  17    5.5509   380.1   11.663      39.860
2015    8       26     4  24    5.5607   380.4   11.667      39.949
2015    8       26     4  31    5.5704   380.6   11.671      40.037
2015    8       26     4  38    5.5799   380.9   11.673      40.124
2015    8       26     4  45    5.5893   381.2   11.675      40.209
2015    8       26     4  51    5.5984   381.4   11.676      40.294
2015    8       26     4  58    5.6075   381.7   11.676      40.376
2015    8       26     5   5    5.6163   381.9   11.676      40.457
2015    8       26     5  12    5.6251   382.2   11.675      40.537
2015    8       26     5  19    5.6337   382.4   11.675      40.614
2015    8       26     5  26    5.6423   382.6   11.674      40.691
2015    8       26     5  32    5.6508   382.9   11.673      40.768
2015    8       26     5  39    5.6594   383.1   11.672      40.845
2015    8       26     5  46    5.6679   383.3   11.671      40.923
2015    8       26     5  53    5.6765   383.6   11.670      41.002
2015    8       26     6   0    5.6851   383.8   11.669      41.082
2015    8       26     6   7    5.6939   384.1   11.669      41.165
2015    8       26     6  14    5.7028   384.3   11.669      41.250
2015    8       26     6  20    5.7120   384.6   11.669      41.338
2015    8       26     6  27    5.7213   384.9   11.671      41.429
2015    8       26     6  34    5.7307   385.2   11.673      41.526
2015    8       26     6  41    5.7402   385.4   11.675      41.624
2015    8       26     6  48    5.7498   385.7   11.678      41.726
2015    8       26     6  55    5.7593   386.0   11.681      41.829
2015    8       26     7   2    5.7688   386.4   11.684      41.936
2015    8       26     7   8    5.7782   386.7   11.687      42.042
2015    8       26     7  15    5.7875   387.0   11.690      42.149
2015    8       26     7  22    5.7966   387.3   11.693      42.255
2015    8       26     7  29    5.8057   387.6   11.695      42.361
2015    8       26     7  36    5.8145   387.9   11.697      42.466
2015    8       26     7  43    5.8232   388.2   11.699      42.570
2015    8       26     7  49    5.8318   388.5   11.700      42.672
2015    8       26     7  56    5.8402   388.8   11.702      42.772
2015    8       26     8   3    5.8486   389.1   11.703      42.870
2015    8       26     8  10    5.8569   389.4   11.705      42.967
2015    8       26     8  17    5.8650   389.7   11.706      43.062
2015    8       26     8  23    5.8732   390.0   11.708      43.157
2015    8       26     8  30    5.8813   390.3   11.710      43.251
2015    8       26     8  37    5.8894   390.6   11.712      43.342
2015    8       26     8  44    5.8975   390.8   11.715      43.431
2015    8       26     8  51    5.9057   391.1   11.719      43.523
2015    8       26     8  57    5.9139   391.4   11.723      43.614
2015    8       26     9   4    5.9222   391.7   11.728      43.707
2015    8       26     9  11    5.9306   391.9   11.733      43.800
2015    8       26     9  18    5.9390   392.2   11.739      43.895
2015    8       26     9  24    5.9473   392.5   11.744      43.992
2015    8       26     9  31    5.9557   392.8   11.749      44.090
2015    8       26     9  38    5.9640   393.1   11.755      44.188
2015    8       26     9  45    5.9723   393.4   11.760      44.287
2015    8       26     9  52    5.9804   393.7   11.765      44.384
2015    8       26     9  58    5.9885   394.0   11.771      44.482
2015    8       26    10   5    5.9965   394.3   11.776      44.578
2015    8       26    10  12    6.0044   394.7   11.782      44.676
2015    8       26    10  19    6.0123   395.0   11.787      44.775
2015    8       26    10  26    6.0202   395.3   11.793      44.875
2015    8       26    10  32    6.0281   395.6   11.799      44.974
2015    8       26    10  39    6.0360   395.9   11.806      45.072
2015    8       26    10  46    6.0439   396.2   11.813      45.171
2015    8       26    10  53    6.0521   396.6   11.821      45.275
2015    8       26    11   0    6.0603   396.9   11.829      45.384
2015    8       26    11   6    6.0688   397.3   11.837      45.498
2015    8       26    11  13    6.0774   397.7   11.844      45.615
2015    8       26    11  20    6.0861   398.1   11.851      45.738
2015    8       26    11  27    6.0949   398.5   11.857      45.864
2015    8       26    11  34    6.1038   398.9   11.861      45.995
2015    8       26    11  40    6.1126   399.3   11.865      46.126
2015    8       26    11  47    6.1212   399.8   11.867      46.255
2015    8       26    11  54    6.1296   400.2   11.868      46.381
2015    8       26    12   1    6.1380   400.6   11.868      46.506
2015    8       26    12   8    6.1460   401.1   11.866      46.629
2015    8       26    12  15    6.1539   401.5   11.863      46.751
2015    8       26    12  21    6.1615   401.9   11.858      46.871
2015    8       26    12  28    6.1691   402.4   11.852      46.989
2015    8       26    12  35    6.1763   402.8   11.845      47.104
2015    8       26    12  42    6.1834   403.3   11.837      47.218
2015    8       26    12  49    6.1903   403.7   11.827      47.330
2015    8       26    12  56    6.1971   404.2   11.817      47.441
2015    8       26    13   2    6.2036   404.6   11.806      47.551
2015    8       26    13   9    6.2099   405.1   11.793      47.660
2015    8       26    13  16    6.2160   405.6   11.781      47.768
2015    8       26    13  23    6.2219   406.0   11.767      47.874
2015    8       26    13  30    6.2276   406.5   11.753      47.979
2015    8       26    13  37    6.2332   407.0   11.739      48.082
2015    8       26    13  44    6.2387   407.4   11.725      48.184
2015    8       26    13  50    6.2442   407.8   11.711      48.286
2015    8       26    13  57    6.2497   408.3   11.697      48.386
2015    8       26    14   4    6.2552   408.7   11.682      48.488
2015    8       26    14  11    6.2607   409.2   11.668      48.590
2015    8       26    14  18    6.2663   409.6   11.654      48.695
2015    8       26    14  25    6.2718   410.0   11.640      48.799
2015    8       26    14  32    6.2773   410.5   11.626      48.906
2015    8       26    14  38    6.2828   410.9   11.612      49.015
2015    8       26    14  45    6.2883   411.4   11.598      49.128
2015    8       26    14  52    6.2938   411.8   11.584      49.243
2015    8       26    14  59    6.2994   412.3   11.570      49.359
2015    8       26    15   6    6.3050   412.8   11.556      49.476
2015    8       26    15  13    6.3107   413.3   11.542      49.594
2015    8       26    15  19    6.3163   413.8   11.529      49.710
2015    8       26    15  26    6.3220   414.2   11.515      49.825
2015    8       26    15  33    6.3275   414.7   11.502      49.936
2015    8       26    15  40    6.3331   415.2   11.488      50.047
2015    8       26    15  47    6.3387   415.6   11.474      50.157
2015    8       26    15  53    6.3442   416.1   11.461      50.266
2015    8       26    16   0    6.3497   416.6   11.448      50.374
2015    8       26    16   7    6.3553   417.0   11.434      50.483
2015    8       26    16  14    6.3609   417.5   11.421      50.590
2015    8       26    16  21    6.3665   417.9   11.409      50.699
2015    8       26    16  27    6.3720   418.4   11.396      50.807
2015    8       26    16  34    6.3776   418.9   11.384      50.917
2015    8       26    16  41    6.3831   419.3   11.372      51.026
2015    8       26    16  48    6.3886   419.8   11.361      51.137
2015    8       26    16  54    6.3941   420.2   11.349      51.247
2015    8       26    17   1    6.3997   420.7   11.339      51.358
2015    8       26    17   8    6.4052   421.2   11.328      51.469
2015    8       26    17  15    6.4107   421.6   11.318      51.581
2015    8       26    17  21    6.4162   422.1   11.308      51.695
2015    8       26    17  28    6.4218   422.6   11.299      51.812
2015    8       26    17  35    6.4275   423.0   11.291      51.930
2015    8       26    17  42    6.4331   423.5   11.283      52.048
2015    8       26    17  49    6.4387   423.9   11.276      52.165
2015    8       26    17  55    6.4444   424.4   11.270      52.287
2015    8       26    18   2    6.4501   424.9   11.263      52.413
2015    8       26    18   9    6.4557   425.3   11.256      52.543
2015    8       26    18  16    6.4610   425.8   11.249      52.671
2015    8       26    18  23    6.4661   426.3   11.241      52.800
2015    8       26    18  29    6.4710   426.8   11.232      52.931
2015    8       26    18  36    6.4757   427.3   11.222      53.064
2015    8       26    18  43    6.4801   427.8   11.211      53.192
2015    8       26    18  50    6.4842   428.3   11.200      53.318
2015    8       26    18  57    6.4881   428.8   11.188      53.443
2015    8       26    19   4    6.4918   429.4   11.174      53.568
2015    8       26    19  10    6.4953   429.9   11.160      53.692
2015    8       26    19  17    6.4985   430.5   11.144      53.816
2015    8       26    19  24    6.5013   431.0   11.127      53.938
2015    8       26    19  31    6.5038   431.6   11.109      54.057
2015    8       26    19  38    6.5060   432.2   11.089      54.174
2015    8       26    19  45    6.5080   432.8   11.068      54.289
2015    8       26    19  51    6.5097   433.3   11.046      54.402
2015    8       26    19  58    6.5111   433.9   11.023      54.512
2015    8       26    20   5    6.5124   434.5   10.999      54.620
2015    8       26    20  12    6.5134   435.1   10.974      54.725
2015    8       26    20  19    6.5144   435.7   10.949      54.827
2015    8       26    20  26    6.5152   436.3   10.922      54.928
2015    8       26    20  32    6.5159   436.9   10.896      55.025
2015    8       26    20  39    6.5165   437.5   10.869      55.120
2015    8       26    20  46    6.5171   438.1   10.842      55.212
2015    8       26    20  53    6.5177   438.7   10.815      55.303
2015    8       26    21   0    6.5183   439.2   10.787      55.392
2015    8       26    21   7    6.5189   439.8   10.759      55.480
2015    8       26    21  14    6.5194   440.4   10.732      55.565
2015    8       26    21  21    6.5200   441.0   10.703      55.649
2015    8       26    21  27    6.5206   441.6   10.675      55.732
2015    8       26    21  34    6.5213   442.1   10.647      55.814
2015    8       26    21  41    6.5219   442.7   10.618      55.895
2015    8       26    21  48    6.5226   443.3   10.589      55.974
2015    8       26    21  55    6.5233   443.9   10.560      56.052
2015    8       26    22   2    6.5240   444.5   10.530      56.130
2015    8       26    22   8    6.5246   445.2   10.500      56.207
2015    8       26    22  15    6.5251   445.8   10.470      56.284
2015    8       26    22  22    6.5255   446.4   10.438      56.358
2015    8       26    22  29    6.5258   447.1   10.406      56.433
2015    8       26    22  36    6.5258   447.8   10.372      56.508
2015    8       26    22  43    6.5254   448.5   10.337      56.581
2015    8       26    22  49    6.5245   449.2   10.301      56.649
2015    8       26    22  56    6.5231   449.9   10.263      56.712
2015    8       26    23   3    6.5211   450.6   10.223      56.772
2015    8       26    23  10    6.5185   451.3   10.180      56.829
2015    8       26    23  16    6.5151   452.0   10.136      56.871
2015    8       26    23  23    6.5108   452.7   10.089      56.904
2015    8       26    23  30    6.5061   453.4   10.043      56.927
2015    8       26    23  37    6.5008   454.1    9.995      56.946
2015    8       26    23  44    6.4954   454.8    9.948      56.964
2015    8       26    23  50    6.4896   455.4    9.899      56.977
2015    8       26    23  57    6.4837   456.1    9.852      56.993
2015    8       27     0   4    6.4779   456.8    9.805      57.007
2015    8       27     0  11    6.4721   457.4    9.759      57.017
2015    8       27     0  17    6.4664   458.1    9.714      57.027
2015    8       27     0  24    6.4611   458.7    9.671      57.035
2015    8       27     0  31    6.4560   459.2    9.631      57.035
2015    8       27     0  38    6.4514   459.7    9.593      57.029
2015    8       27     0  45    6.4474   460.1    9.558      57.020
2015    8       27     0  51    6.4441   460.6    9.527      57.017
2015    8       27     0  58    6.4414   460.9    9.497      57.016
2015    8       27     1   5    6.4392   461.2    9.471      57.018
2015    8       27     1  12    6.4373   461.5    9.446      57.027
2015    8       27     1  19    6.4359   461.9    9.423      57.046
2015    8       27     1  25    6.4350   462.2    9.402      57.084
2015    8       27     1  32    6.4345   462.7    9.382      57.145
2015    8       27     1  39    6.4347   463.1    9.365      57.224
2015    8       27     1  46    6.4357   463.6    9.350      57.318
2015    8       27     1  53    6.4375   464.1    9.337      57.436
2015    8       27     1  59    6.4399   464.7    9.326      57.574
2015    8       27     2   6    6.4427   465.4    9.317      57.730
2015    8       27     2  13    6.4457   466.0    9.308      57.889
2015    8       27     2  20    6.4485   466.6    9.299      58.052
2015    8       27     2  27    6.4510   467.3    9.289      58.221
2015    8       27     2  33    6.4530   467.9    9.278      58.392
2015    8       27     2  40    6.4546   468.6    9.266      58.554
2015    8       27     2  47    6.4557   469.2    9.251      58.712
2015    8       27     2  54    6.4565   469.9    9.236      58.864
2015    8       27     3   1    6.4568   470.5    9.219      59.011
2015    8       27     3   8    6.4569   471.2    9.201      59.154
2015    8       27     3  15    6.4567   471.9    9.182      59.294
2015    8       27     3  21    6.4562   472.5    9.162      59.430
2015    8       27     3  28    6.4556   473.2    9.142      59.564
2015    8       27     3  35    6.4548   473.8    9.121      59.693
2015    8       27     3  42    6.4538   474.5    9.100      59.819
2015    8       27     3  49    6.4527   475.1    9.079      59.943
2015    8       27     3  56    6.4513   475.8    9.056      60.067
2015    8       27     4   2    6.4498   476.5    9.033      60.188
2015    8       27     4   9    6.4480   477.2    9.009      60.307
2015    8       27     4  16    6.4460   478.0    8.984      60.426
2015    8       27     4  23    6.4437   478.7    8.957      60.548
2015    8       27     4  30    6.4410   479.5    8.930      60.672
2015    8       27     4  37    6.4377   480.3    8.900      60.794
2015    8       27     4  44    6.4338   481.1    8.868      60.910
2015    8       27     4  51    6.4291   481.9    8.835      61.020
2015    8       27     4  57    6.4237   482.7    8.799      61.123
2015    8       27     5   4    6.4173   483.5    8.759      61.223
2015    8       27     5  11    6.4098   484.3    8.718      61.297
2015    8       27     5  18    6.4014   485.0    8.674      61.353
2015    8       27     5  25    6.3925   485.8    8.630      61.395
2015    8       27     5  32    6.3831   486.4    8.585      61.427
2015    8       27     5  38    6.3737   487.1    8.541      61.449
2015    8       27     5  45    6.3639   487.7    8.498      61.457
2015    8       27     5  52    6.3548   488.3    8.457      61.469
2015    8       27     5  59    6.3459   488.9    8.417      61.487
2015    8       27     6   6    6.3374   489.5    8.379      61.511
2015    8       27     6  12    6.3291   490.1    8.343      61.540
2015    8       27     6  19    6.3212   490.7    8.307      61.573
2015    8       27     6  26    6.3133   491.3    8.274      61.609
2015    8       27     6  33    6.3060   491.9    8.241      61.651
2015    8       27     6  40    6.2987   492.6    8.210      61.698
2015    8       27     6  46    6.2917   493.2    8.181      61.750
2015    8       27     6  53    6.2848   493.8    8.151      61.806
2015    8       27     7   0    6.2781   494.5    8.123      61.866
2015    8       27     7   7    6.2714   495.1    8.095      61.928
2015    8       27     7  13    6.2648   495.8    8.068      61.992
2015    8       27     7  20    6.2581   496.4    8.041      62.057
2015    8       27     7  27    6.2516   497.0    8.014      62.123
2015    8       27     7  34    6.2448   497.7    7.988      62.191
2015    8       27     7  40    6.2382   498.3    7.962      62.259
2015    8       27     7  47    6.2314   499.0    7.935      62.327
2015    8       27     7  54    6.2246   499.6    7.909      62.394
2015    8       27     8   1    6.2176   500.2    7.883      62.461
2015    8       27     8   8    6.2107   500.9    7.857      62.528
2015    8       27     8  14    6.2036   501.5    7.830      62.594
2015    8       27     8  21    6.1966   502.2    7.804      62.658
2015    8       27     8  28    6.1894   502.9    7.777      62.721
2015    8       27     8  35    6.1823   503.5    7.751      62.783
2015    8       27     8  42    6.1750   504.2    7.724      62.843
2015    8       27     8  48    6.1677   504.9    7.697      62.903
2015    8       27     8  55    6.1602   505.6    7.669      62.961
2015    8       27     9   2    6.1526   506.3    7.641      63.018
2015    8       27     9   9    6.1446   507.1    7.611      63.077
2015    8       27     9  16    6.1365   507.8    7.581      63.136
2015    8       27     9  22    6.1278   508.6    7.550      63.194
2015    8       27     9  29    6.1188   509.4    7.517      63.248
2015    8       27     9  36    6.1091   510.2    7.482      63.296
2015    8       27     9  43    6.0990   510.9    7.446      63.339
2015    8       27     9  50    6.0881   511.7    7.407      63.375
2015    8       27     9  57    6.0768   512.5    7.368      63.394
2015    8       27    10   3    6.0649   513.2    7.328      63.399
2015    8       27    10  10    6.0530   514.0    7.288      63.394
2015    8       27    10  17    6.0408   514.7    7.247      63.384
2015    8       27    10  24    6.0287   515.4    7.207      63.370
2015    8       27    10  31    6.0167   516.0    7.168      63.350
2015    8       27    10  38    6.0049   516.6    7.130      63.328
2015    8       27    10  44    5.9931   517.3    7.093      63.309
2015    8       27    10  51    5.9815   517.9    7.056      63.292
2015    8       27    10  58    5.9699   518.6    7.020      63.278
2015    8       27    11   5    5.9584   519.2    6.984      63.264
2015    8       27    11  12    5.9467   519.9    6.948      63.250
2015    8       27    11  19    5.9352   520.5    6.913      63.235
2015    8       27    11  26    5.9236   521.2    6.878      63.220
2015    8       27    11  33    5.9120   521.9    6.843      63.206
2015    8       27    11  39    5.9002   522.5    6.807      63.189
2015    8       27    11  46    5.8885   523.2    6.772      63.173
2015    8       27    11  53    5.8765   523.9    6.736      63.155
2015    8       27    12   0    5.8644   524.6    6.700      63.132
2015    8       27    12   7    5.8521   525.3    6.664      63.098
2015    8       27    12  14    5.8397   525.9    6.629      63.055
2015    8       27    12  20    5.8272   526.5    6.594      63.003
2015    8       27    12  27    5.8149   527.1    6.560      62.945
2015    8       27    12  34    5.8026   527.6    6.527      62.885
2015    8       27    12  41    5.7906   528.1    6.495      62.828
2015    8       27    12  48    5.7787   528.7    6.465      62.772
2015    8       27    12  55    5.7673   529.2    6.435      62.720
2015    8       27    13   1    5.7559   529.7    6.407      62.671
2015    8       27    13   8    5.7449   530.2    6.380      62.627
2015    8       27    13  15    5.7340   530.7    6.354      62.587
2015    8       27    13  22    5.7235   531.1    6.329      62.552
2015    8       27    13  29    5.7130   531.6    6.304      62.523
2015    8       27    13  35    5.7028   532.1    6.281      62.498
2015    8       27    13  42    5.6927   532.6    6.259      62.477
2015    8       27    13  49    5.6828   533.1    6.237      62.459
2015    8       27    13  56    5.6728   533.5    6.216      62.443
2015    8       27    14   3    5.6631   534.0    6.195      62.431
2015    8       27    14   9    5.6533   534.5    6.175      62.422
2015    8       27    14  16    5.6437   534.9    6.155      62.416
2015    8       27    14  23    5.6340   535.4    6.136      62.411
2015    8       27    14  30    5.6244   535.8    6.117      62.409
2015    8       27    14  36    5.6147   536.3    6.097      62.409
2015    8       27    14  43    5.6050   536.7    6.078      62.410
2015    8       27    14  50    5.5952   537.2    6.059      62.411
2015    8       27    14  57    5.5855   537.7    6.040      62.413
2015    8       27    15   4    5.5756   538.1    6.020      62.416
2015    8       27    15  10    5.5658   538.6    6.001      62.418
2015    8       27    15  17    5.5558   539.1    5.982      62.420
2015    8       27    15  24    5.5458   539.6    5.962      62.423
2015    8       27    15  31    5.5356   540.1    5.942      62.425
2015    8       27    15  37    5.5253   540.6    5.922      62.426
2015    8       27    15  44    5.5147   541.1    5.901      62.422
2015    8       27    15  51    5.5039   541.6    5.879      62.417
2015    8       27    15  58    5.4927   542.2    5.855      62.409
2015    8       27    16   5    5.4811   542.7    5.831      62.386
2015    8       27    16  11    5.4691   543.2    5.806      62.348
2015    8       27    16  18    5.4570   543.6    5.781      62.299
2015    8       27    16  25    5.4446   544.0    5.756      62.237
2015    8       27    16  32    5.4323   544.4    5.732      62.166
2015    8       27    16  39    5.4201   544.8    5.708      62.090
2015    8       27    16  46    5.4082   545.2    5.685      62.018
2015    8       27    16  52    5.3963   545.5    5.662      61.948
2015    8       27    16  59    5.3847   545.9    5.641      61.879
2015    8       27    17   6    5.3732   546.2    5.620      61.812
2015    8       27    17  13    5.3619   546.5    5.600      61.747
2015    8       27    17  20    5.3507   546.8    5.580      61.684
2015    8       27    17  27    5.3397   547.1    5.561      61.625
2015    8       27    17  33    5.3287   547.5    5.542      61.567
2015    8       27    17  40    5.3179   547.8    5.523      61.513
2015    8       27    17  47    5.3071   548.1    5.504      61.460
2015    8       27    17  54    5.2965   548.4    5.486      61.410
2015    8       27    18   1    5.2858   548.8    5.468      61.361
2015    8       27    18   8    5.2752   549.1    5.450      61.312
2015    8       27    18  14    5.2646   549.5    5.432      61.263
2015    8       27    18  21    5.2539   549.8    5.413      61.211
2015    8       27    18  28    5.2431   550.2    5.394      61.154
2015    8       27    18  35    5.2322   550.6    5.376      61.092
2015    8       27    18  42    5.2213   550.9    5.357      61.025
2015    8       27    18  49    5.2104   551.3    5.339      60.952
2015    8       27    18  56    5.1994   551.6    5.320      60.875
2015    8       27    19   2    5.1885   551.9    5.302      60.797
2015    8       27    19   9    5.1777   552.3    5.284      60.718
2015    8       27    19  16    5.1669   552.6    5.265      60.639
2015    8       27    19  23    5.1561   552.9    5.247      60.558
2015    8       27    19  30    5.1455   553.1    5.230      60.478
2015    8       27    19  37    5.1349   553.4    5.212      60.399
2015    8       27    19  44    5.1245   553.7    5.195      60.322
2015    8       27    19  50    5.1142   554.0    5.178      60.246
2015    8       27    19  57    5.1040   554.3    5.161      60.171
2015    8       27    20   4    5.0940   554.6    5.145      60.096
2015    8       27    20  11    5.0842   554.9    5.128      60.024
2015    8       27    20  18    5.0745   555.2    5.113      59.952
2015    8       27    20  24    5.0650   555.4    5.097      59.882
2015    8       27    20  31    5.0557   555.6    5.083      59.812
2015    8       27    20  38    5.0466   555.8    5.068      59.744
2015    8       27    20  45    5.0376   556.0    5.055      59.677
2015    8       27    20  52    5.0289   556.2    5.042      59.614
2015    8       27    20  58    5.0202   556.3    5.029      59.553
2015    8       27    21   5    5.0119   556.5    5.017      59.494
2015    8       27    21  12    5.0036   556.7    5.005      59.437
2015    8       27    21  19    4.9954   556.8    4.994      59.384
2015    8       27    21  26    4.9873   557.0    4.983      59.334
2015    8       27    21  32    4.9794   557.2    4.972      59.289
2015    8       27    21  39    4.9715   557.4    4.961      59.245
2015    8       27    21  46    4.9637   557.6    4.951      59.203
2015    8       27    21  53    4.9559   557.8    4.940      59.161
2015    8       27    21  59    4.9482   558.0    4.930      59.119
2015    8       27    22   6    4.9404   558.2    4.919      59.075
2015    8       27    22  13    4.9326   558.4    4.909      59.031
2015    8       27    22  20    4.9248   558.7    4.898      58.986
2015    8       27    22  27    4.9169   558.9    4.887      58.940
2015    8       27    22  33    4.9089   559.1    4.876      58.894
2015    8       27    22  40    4.9009   559.3    4.865      58.847
2015    8       27    22  47    4.8930   559.5    4.854      58.800
2015    8       27    22  54    4.8850   559.7    4.843      58.753
2015    8       27    23   1    4.8770   560.0    4.832      58.703
2015    8       27    23   7    4.8690   560.2    4.821      58.653
2015    8       27    23  14    4.8610   560.4    4.809      58.601
2015    8       27    23  21    4.8529   560.7    4.797      58.549
2015    8       27    23  28    4.8448   560.9    4.784      58.490
2015    8       27    23  35    4.8365   561.1    4.772      58.427
2015    8       27    23  41    4.8283   561.3    4.759      58.359
2015    8       27    23  48    4.8200   561.5    4.747      58.289
2015    8       27    23  55    4.8118   561.7    4.734      58.215
2015    8       28     0   2    4.8036   561.9    4.723      58.142
2015    8       28     0   9    4.7956   562.0    4.711      58.070
2015    8       28     0  15    4.7876   562.2    4.699      58.001
2015    8       28     0  22    4.7797   562.4    4.688      57.933
2015    8       28     0  29    4.7719   562.5    4.677      57.865
2015    8       28     0  36    4.7642   562.6    4.667      57.799
2015    8       28     0  43    4.7566   562.8    4.657      57.735
2015    8       28     0  50    4.7490   562.9    4.647      57.673
2015    8       28     0  56    4.7415   563.0    4.638      57.611
2015    8       28     1   3    4.7341   563.1    4.629      57.552
2015    8       28     1  10    4.7268   563.2    4.620      57.494
2015    8       28     1  17    4.7196   563.2    4.611      57.437
2015    8       28     1  24    4.7124   563.3    4.603      57.380
2015    8       28     1  31    4.7053   563.4    4.595      57.325
2015    8       28     1  38    4.6983   563.5    4.587      57.273
2015    8       28     1  44    4.6913   563.6    4.580      57.222
2015    8       28     1  51    4.6844   563.8    4.572      57.172
2015    8       28     1  58    4.6774   563.9    4.565      57.122
2015    8       28     2   5    4.6706   564.1    4.557      57.072
2015    8       28     2  12    4.6637   564.2    4.550      57.020
2015    8       28     2  19    4.6568   564.3    4.542      56.967
2015    8       28     2  26    4.6498   564.4    4.534      56.913
2015    8       28     2  32    4.6429   564.5    4.527      56.859
2015    8       28     2  39    4.6358   564.7    4.519      56.804
2015    8       28     2  46    4.6288   564.8    4.511      56.749
2015    8       28     2  53    4.6217   564.9    4.502      56.694
2015    8       28     3   0    4.6146   565.0    4.494      56.639
2015    8       28     3   7    4.6074   565.1    4.486      56.584
2015    8       28     3  13    4.6002   565.3    4.477      56.529
2015    8       28     3  20    4.5931   565.5    4.468      56.471
2015    8       28     3  27    4.5859   565.6    4.459      56.413
2015    8       28     3  34    4.5788   565.8    4.450      56.352
2015    8       28     3  41    4.5717   565.9    4.441      56.290
2015    8       28     3  48    4.5647   566.0    4.432      56.227
2015    8       28     3  54    4.5578   566.1    4.423      56.163
2015    8       28     4   1    4.5510   566.2    4.414      56.099
2015    8       28     4   8    4.5442   566.3    4.406      56.036
2015    8       28     4  15    4.5376   566.4    4.398      55.973
2015    8       28     4  21    4.5311   566.4    4.390      55.912
2015    8       28     4  28    4.5247   566.5    4.382      55.849
2015    8       28     4  35    4.5184   566.5    4.374      55.790
2015    8       28     4  42    4.5121   566.6    4.366      55.730
2015    8       28     4  49    4.5059   566.7    4.359      55.675
2015    8       28     4  55    4.4997   566.7    4.352      55.620
2015    8       28     5   2    4.4937   566.8    4.345      55.569
2015    8       28     5   9    4.4876   566.9    4.338      55.518
2015    8       28     5  16    4.4816   567.0    4.332      55.469
2015    8       28     5  22    4.4756   567.1    4.325      55.420
2015    8       28     5  29    4.4696   567.2    4.318      55.370
2015    8       28     5  36    4.4636   567.3    4.311      55.318
2015    8       28     5  43    4.4576   567.4    4.305      55.265
2015    8       28     5  50    4.4515   567.5    4.298      55.211
2015    8       28     5  56    4.4454   567.6    4.291      55.157
2015    8       28     6   3    4.4392   567.7    4.284      55.101
2015    8       28     6  10    4.4331   567.8    4.277      55.044
2015    8       28     6  17    4.4269   567.8    4.270      54.987
2015    8       28     6  23    4.4208   567.9    4.263      54.930
2015    8       28     6  30    4.4147   568.0    4.256      54.872
2015    8       28     6  37    4.4087   568.0    4.249      54.814
2015    8       28     6  44    4.4027   568.1    4.243      54.756
2015    8       28     6  51    4.3967   568.2    4.236      54.699
2015    8       28     6  58    4.3908   568.2    4.229      54.641
2015    8       28     7   4    4.3849   568.3    4.222      54.585
2015    8       28     7  11    4.3790   568.3    4.216      54.529
2015    8       28     7  18    4.3732   568.4    4.209      54.473
2015    8       28     7  25    4.3674   568.4    4.203      54.419
2015    8       28     7  32    4.3617   568.5    4.197      54.365
2015    8       28     7  38    4.3559   568.5    4.191      54.312
2015    8       28     7  45    4.3502   568.5    4.185      54.260
2015    8       28     7  52    4.3445   568.6    4.179      54.208
2015    8       28     7  59    4.3389   568.6    4.173      54.158
2015    8       28     8   6    4.3333   568.6    4.167      54.108
2015    8       28     8  13    4.3277   568.7    4.162      54.059
2015    8       28     8  19    4.3220   568.7    4.157      54.011
2015    8       28     8  26    4.3165   568.7    4.152      53.963
2015    8       28     8  33    4.3109   568.7    4.147      53.915
2015    8       28     8  40    4.3054   568.7    4.142      53.867
2015    8       28     8  47    4.2998   568.8    4.137      53.819
2015    8       28     8  54    4.2943   568.8    4.132      53.772
2015    8       28     9   1    4.2888   568.8    4.127      53.723
2015    8       28     9   7    4.2834   568.8    4.122      53.674
2015    8       28     9  14    4.2779   568.8    4.117      53.625
2015    8       28     9  21    4.2725   568.8    4.112      53.576
2015    8       28     9  28    4.2670   568.8    4.108      53.527
2015    8       28     9  35    4.2617   568.8    4.103      53.477
2015    8       28     9  42    4.2563   568.9    4.098      53.427
2015    8       28     9  49    4.2510   568.9    4.093      53.377
2015    8       28     9  55    4.2456   568.9    4.089      53.327
2015    8       28    10   2    4.2404   568.9    4.084      53.276
2015    8       28    10   9    4.2351   568.9    4.079      53.225
2015    8       28    10  16    4.2299   568.9    4.075      53.174
2015    8       28    10  23    4.2246   568.9    4.070      53.123
2015    8       28    10  30    4.2195   568.9    4.065      53.072
2015    8       28    10  36    4.2143   568.9    4.061      53.020
2015    8       28    10  43    4.2092   568.9    4.056      52.968
2015    8       28    10  50    4.2041   568.9    4.051      52.916
2015    8       28    10  57    4.1990   568.8    4.047      52.864
2015    8       28    11   4    4.1940   568.8    4.042      52.811
2015    8       28    11  10    4.1890   568.8    4.038      52.759
2015    8       28    11  17    4.1840   568.8    4.033      52.706
2015    8       28    11  24    4.1790   568.8    4.029      52.654
2015    8       28    11  31    4.1741   568.8    4.024      52.601
2015    8       28    11  38    4.1692   568.8    4.020      52.549
2015    8       28    11  44    4.1643   568.8    4.015      52.497
2015    8       28    11  51    4.1595   568.7    4.011      52.445
2015    8       28    11  58    4.1546   568.7    4.007      52.393
2015    8       28    12   5    4.1498   568.7    4.003      52.341
2015    8       28    12  12    4.1451   568.7    3.998      52.289
2015    8       28    12  18    4.1403   568.6    3.994      52.238
2015    8       28    12  25    4.1356   568.6    3.990      52.187
2015    8       28    12  32    4.1309   568.6    3.986      52.136
2015    8       28    12  39    4.1261   568.6    3.982      52.085
2015    8       28    12  45    4.1215   568.5    3.978      52.034
2015    8       28    12  52    4.1168   568.5    3.974      51.983
2015    8       28    12  59    4.1121   568.5    3.970      51.933
2015    8       28    13   6    4.1075   568.4    3.966      51.883
2015    8       28    13  12    4.1028   568.4    3.962      51.833
2015    8       28    13  19    4.0982   568.4    3.958      51.782
2015    8       28    13  26    4.0936   568.3    3.955      51.732
2015    8       28    13  33    4.0890   568.3    3.951      51.682
2015    8       28    13  40    4.0844   568.3    3.947      51.632
2015    8       28    13  46    4.0798   568.2    3.943      51.581
2015    8       28    13  53    4.0752   568.2    3.939      51.532
2015    8       28    14   0    4.0707   568.2    3.935      51.481
2015    8       28    14   7    4.0662   568.1    3.932      51.431
2015    8       28    14  14    4.0617   568.1    3.928      51.381
2015    8       28    14  20    4.0572   568.0    3.924      51.331
2015    8       28    14  27    4.0526   568.0    3.920      51.281
2015    8       28    14  34    4.0482   568.0    3.917      51.231
2015    8       28    14  41    4.0437   567.9    3.913      51.181
2015    8       28    14  48    4.0393   567.9    3.909      51.131
2015    8       28    14  55    4.0348   567.8    3.906      51.081
2015    8       28    15   1    4.0304   567.8    3.902      51.031
2015    8       28    15   8    4.0259   567.7    3.899      50.981
2015    8       28    15  15    4.0215   567.7    3.895      50.932
2015    8       28    15  22    4.0171   567.6    3.892      50.883
2015    8       28    15  29    4.0127   567.6    3.888      50.833
2015    8       28    15  36    4.0083   567.5    3.885      50.784
2015    8       28    15  42    4.0040   567.5    3.882      50.735
2015    8       28    15  49    3.9996   567.4    3.878      50.686
2015    8       28    15  56    3.9952   567.4    3.875      50.638
2015    8       28    16   3    3.9909   567.3    3.872      50.589
2015    8       28    16  10    3.9865   567.2    3.869      50.541
2015    8       28    16  17    3.9822   567.2    3.866      50.492
2015    8       28    16  24    3.9779   567.1    3.862      50.444
2015    8       28    16  30    3.9736   567.1    3.859      50.396
2015    8       28    16  37    3.9693   567.0    3.856      50.348
2015    8       28    16  44    3.9650   566.9    3.853      50.300
2015    8       28    16  51    3.9608   566.9    3.851      50.252
2015    8       28    16  58    3.9566   566.8    3.848      50.204
2015    8       28    17   5    3.9523   566.7    3.845      50.157
2015    8       28    17  12    3.9481   566.6    3.842      50.109
2015    8       28    17  18    3.9440   566.6    3.839      50.061
2015    8       28    17  25    3.9398   566.5    3.836      50.013
2015    8       28    17  32    3.9357   566.4    3.834      49.966
2015    8       28    17  39    3.9316   566.4    3.831      49.918
2015    8       28    17  46    3.9275   566.3    3.828      49.870
2015    8       28    17  53    3.9234   566.2    3.825      49.822
2015    8       28    17  59    3.9194   566.1    3.823      49.774
2015    8       28    18   6    3.9154   566.0    3.820      49.726
2015    8       28    18  13    3.9114   566.0    3.817      49.678
2015    8       28    18  20    3.9075   565.9    3.815      49.629
2015    8       28    18  27    3.9036   565.8    3.812      49.581
2015    8       28    18  33    3.8996   565.7    3.809      49.533
2015    8       28    18  40    3.8958   565.6    3.807      49.484
2015    8       28    18  47    3.8919   565.5    3.804      49.436
2015    8       28    18  54    3.8881   565.5    3.801      49.388
2015    8       28    19   1    3.8842   565.4    3.799      49.339
2015    8       28    19   7    3.8805   565.3    3.796      49.291
2015    8       28    19  14    3.8767   565.2    3.794      49.243
2015    8       28    19  21    3.8730   565.1    3.791      49.196
2015    8       28    19  28    3.8692   565.0    3.788      49.148
2015    8       28    19  34    3.8655   564.9    3.786      49.100
2015    8       28    19  41    3.8618   564.8    3.784      49.052
2015    8       28    19  48    3.8582   564.7    3.781      49.005
2015    8       28    19  55    3.8545   564.6    3.779      48.958
2015    8       28    20   2    3.8509   564.5    3.776      48.911
2015    8       28    20   8    3.8472   564.4    3.774      48.864
2015    8       28    20  15    3.8436   564.3    3.772      48.818
2015    8       28    20  22    3.8400   564.2    3.769      48.772
2015    8       28    20  29    3.8365   564.1    3.767      48.726
2015    8       28    20  35    3.8329   564.0    3.765      48.680
2015    8       28    20  42    3.8293   563.9    3.763      48.635
2015    8       28    20  49    3.8258   563.8    3.761      48.589
2015    8       28    20  56    3.8223   563.7    3.759      48.544
2015    8       28    21   3    3.8188   563.6    3.757      48.499
2015    8       28    21   9    3.8153   563.5    3.755      48.455
2015    8       28    21  16    3.8118   563.4    3.753      48.410
2015    8       28    21  23    3.8083   563.3    3.751      48.366
2015    8       28    21  30    3.8049   563.2    3.749      48.322
2015    8       28    21  37    3.8014   563.1    3.747      48.278
2015    8       28    21  43    3.7979   563.0    3.745      48.234
2015    8       28    21  50    3.7945   562.9    3.744      48.191
2015    8       28    21  57    3.7910   562.8    3.742      48.147
2015    8       28    22   4    3.7875   562.7    3.740      48.104
2015    8       28    22  11    3.7841   562.6    3.738      48.060
2015    8       28    22  18    3.7806   562.5    3.737      48.017
2015    8       28    22  24    3.7771   562.4    3.735      47.973
2015    8       28    22  31    3.7736   562.3    3.733      47.929
2015    8       28    22  38    3.7701   562.2    3.731      47.886
2015    8       28    22  45    3.7667   562.1    3.730      47.842
2015    8       28    22  52    3.7632   562.0    3.728      47.798
2015    8       28    22  59    3.7597   561.9    3.726      47.754
2015    8       28    23   5    3.7563   561.7    3.725      47.709
2015    8       28    23  12    3.7529   561.6    3.723      47.665
2015    8       28    23  19    3.7494   561.5    3.721      47.621
2015    8       28    23  26    3.7460   561.4    3.719      47.576
2015    8       28    23  33    3.7426   561.3    3.718      47.532
2015    8       28    23  40    3.7392   561.2    3.716      47.487
2015    8       28    23  47    3.7358   561.1    3.714      47.442
2015    8       28    23  53    3.7324   561.0    3.712      47.397
2015    8       29     0   0    3.7291   560.8    3.711      47.352
2015    8       29     0   7    3.7258   560.7    3.709      47.307
2015    8       29     0  14    3.7224   560.6    3.707      47.262
2015    8       29     0  21    3.7191   560.5    3.705      47.217
2015    8       29     0  28    3.7158   560.4    3.703      47.172
2015    8       29     0  35    3.7126   560.2    3.702      47.127
2015    8       29     0  41    3.7093   560.1    3.700      47.081
2015    8       29     0  48    3.7061   560.0    3.698      47.036
2015    8       29     0  55    3.7029   559.9    3.696      46.990
2015    8       29     1   2    3.6997   559.8    3.694      46.945
2015    8       29     1   9    3.6965   559.6    3.693      46.900
2015    8       29     1  16    3.6933   559.5    3.691      46.855
2015    8       29     1  22    3.6902   559.4    3.689      46.809
2015    8       29     1  29    3.6871   559.3    3.687      46.763
2015    8       29     1  36    3.6840   559.1    3.685      46.718
2015    8       29     1  43    3.6809   559.0    3.683      46.672
2015    8       29     1  50    3.6778   558.9    3.681      46.626
2015    8       29     1  56    3.6748   558.8    3.680      46.581
2015    8       29     2   3    3.6718   558.6    3.678      46.535
2015    8       29     2  10    3.6688   558.5    3.676      46.489
2015    8       29     2  17    3.6658   558.4    3.674      46.443
2015    8       29     2  24    3.6628   558.2    3.672      46.398
2015    8       29     2  30    3.6599   558.1    3.671      46.352
2015    8       29     2  37    3.6570   558.0    3.669      46.307
2015    8       29     2  44    3.6541   557.8    3.667      46.261
2015    8       29     2  51    3.6512   557.7    3.665      46.217
2015    8       29     2  57    3.6483   557.6    3.664      46.172
2015    8       29     3   4    3.6455   557.4    3.662      46.127
2015    8       29     3  11    3.6427   557.3    3.661      46.083
2015    8       29     3  18    3.6399   557.2    3.659      46.039
2015    8       29     3  25    3.6371   557.0    3.658      45.995
2015    8       29     3  31    3.6344   556.9    3.657      45.952
2015    8       29     3  38    3.6316   556.7    3.655      45.909
2015    8       29     3  45    3.6289   556.6    3.654      45.867
2015    8       29     3  52    3.6262   556.5    3.653      45.824
2015    8       29     3  58    3.6236   556.3    3.652      45.783
2015    8       29     4   5    3.6209   556.2    3.651      45.741
2015    8       29     4  12    3.6182   556.0    3.650      45.700
2015    8       29     4  19    3.6156   555.9    3.649      45.660
2015    8       29     4  26    3.6130   555.7    3.648      45.619
2015    8       29     4  32    3.6103   555.6    3.647      45.579
2015    8       29     4  39    3.6077   555.5    3.646      45.539
2015    8       29     4  46    3.6050   555.3    3.645      45.499
2015    8       29     4  53    3.6024   555.2    3.644      45.459
2015    8       29     5   0    3.5998   555.0    3.644      45.420
2015    8       29     5   6    3.5971   554.9    3.643      45.381
2015    8       29     5  13    3.5945   554.7    3.642      45.341
2015    8       29     5  20    3.5918   554.6    3.642      45.303
2015    8       29     5  27    3.5892   554.5    3.641      45.264
2015    8       29     5  34    3.5865   554.3    3.640      45.225
2015    8       29     5  41    3.5839   554.2    3.640      45.187
2015    8       29     5  47    3.5812   554.0    3.639      45.148
2015    8       29     5  54    3.5786   553.9    3.639      45.110
2015    8       29     6   1    3.5760   553.7    3.638      45.073
2015    8       29     6   8    3.5734   553.6    3.638      45.035
2015    8       29     6  15    3.5708   553.5    3.637      44.998
2015    8       29     6  22    3.5682   553.3    3.637      44.961
2015    8       29     6  28    3.5656   553.2    3.637      44.925
2015    8       29     6  35    3.5631   553.0    3.636      44.888
2015    8       29     6  42    3.5606   552.9    3.636      44.853
2015    8       29     6  49    3.5581   552.7    3.636      44.817
2015    8       29     6  56    3.5556   552.6    3.636      44.782
2015    8       29     7   3    3.5532   552.5    3.636      44.746
2015    8       29     7  10    3.5508   552.3    3.635      44.712
2015    8       29     7  16    3.5484   552.2    3.635      44.678
2015    8       29     7  23    3.5459   552.0    3.635      44.645
2015    8       29     7  30    3.5436   551.9    3.635      44.611
2015    8       29     7  37    3.5412   551.8    3.635      44.578
2015    8       29     7  44    3.5388   551.6    3.635      44.544
2015    8       29     7  51    3.5364   551.5    3.634      44.510
2015    8       29     7  58    3.5341   551.3    3.634      44.475
2015    8       29     8   4    3.5318   551.2    3.633      44.441
2015    8       29     8  11    3.5295   551.1    3.633      44.405
2015    8       29     8  18    3.5272   550.9    3.632      44.370
2015    8       29     8  25    3.5249   550.8    3.632      44.333
2015    8       29     8  32    3.5226   550.6    3.631      44.297
2015    8       29     8  39    3.5203   550.5    3.631      44.259
2015    8       29     8  45    3.5181   550.4    3.630      44.222
2015    8       29     8  52    3.5158   550.2    3.629      44.184
2015    8       29     8  59    3.5136   550.1    3.628      44.145
2015    8       29     9   6    3.5113   549.9    3.627      44.107
2015    8       29     9  13    3.5091   549.8    3.626      44.068
2015    8       29     9  19    3.5069   549.7    3.625      44.028
2015    8       29     9  26    3.5046   549.5    3.624      43.988
2015    8       29     9  33    3.5024   549.4    3.623      43.947
2015    8       29     9  40    3.5002   549.2    3.622      43.907
2015    8       29     9  47    3.4979   549.1    3.620      43.865
2015    8       29     9  53    3.4957   548.9    3.619      43.823
2015    8       29    10   0    3.4935   548.8    3.617      43.781
2015    8       29    10   7    3.4913   548.6    3.616      43.738
2015    8       29    10  14    3.4891   548.5    3.615      43.695
2015    8       29    10  20    3.4870   548.3    3.613      43.652
2015    8       29    10  27    3.4848   548.2    3.612      43.609
2015    8       29    10  34    3.4826   548.0    3.610      43.566
2015    8       29    10  41    3.4805   547.9    3.609      43.522
2015    8       29    10  47    3.4783   547.7    3.607      43.478
2015    8       29    10  54    3.4762   547.6    3.606      43.434
2015    8       29    11   1    3.4741   547.4    3.604      43.391
2015    8       29    11   8    3.4720   547.3    3.603      43.347
2015    8       29    11  15    3.4699   547.1    3.601      43.303
2015    8       29    11  21    3.4677   547.0    3.600      43.259
2015    8       29    11  28    3.4656   546.8    3.598      43.215
2015    8       29    11  35    3.4635   546.7    3.597      43.170
2015    8       29    11  42    3.4614   546.5    3.595      43.126
2015    8       29    11  49    3.4593   546.4    3.594      43.081
2015    8       29    11  55    3.4572   546.2    3.593      43.037
2015    8       29    12   2    3.4551   546.0    3.591      42.992
2015    8       29    12   9    3.4531   545.9    3.590      42.947
2015    8       29    12  16    3.4510   545.7    3.588      42.903
2015    8       29    12  23    3.4489   545.6    3.587      42.858
2015    8       29    12  29    3.4468   545.4    3.586      42.814
2015    8       29    12  36    3.4447   545.2    3.585      42.770
2015    8       29    12  43    3.4427   545.1    3.584      42.726
2015    8       29    12  50    3.4406   544.9    3.583      42.683
2015    8       29    12  57    3.4386   544.7    3.582      42.640
2015    8       29    13   4    3.4366   544.6    3.581      42.598
2015    8       29    13  10    3.4346   544.4    3.580      42.557
2015    8       29    13  17    3.4326   544.3    3.579      42.517
2015    8       29    13  24    3.4307   544.1    3.579      42.477
2015    8       29    13  31    3.4288   543.9    3.579      42.439
2015    8       29    13  38    3.4269   543.8    3.579      42.402
2015    8       29    13  45    3.4250   543.6    3.579      42.366
2015    8       29    13  52    3.4232   543.4    3.579      42.332
2015    8       29    13  58    3.4215   543.3    3.580      42.299
2015    8       29    14   5    3.4198   543.1    3.580      42.268
2015    8       29    14  12    3.4181   542.9    3.581      42.239
2015    8       29    14  19    3.4165   542.8    3.582      42.212
2015    8       29    14  26    3.4148   542.6    3.584      42.187
2015    8       29    14  33    3.4133   542.5    3.585      42.165
2015    8       29    14  40    3.4118   542.3    3.587      42.143
2015    8       29    14  46    3.4103   542.1    3.589      42.123
2015    8       29    14  53    3.4089   542.0    3.592      42.106
2015    8       29    15   0    3.4076   541.8    3.594      42.090
2015    8       29    15   7    3.4062   541.7    3.596      42.076
2015    8       29    15  14    3.4048   541.6    3.599      42.063
2015    8       29    15  21    3.4033   541.4    3.601      42.050
2015    8       29    15  27    3.4019   541.3    3.603      42.036
2015    8       29    15  34    3.4004   541.2    3.605      42.021
2015    8       29    15  41    3.3989   541.0    3.607      42.003
2015    8       29    15  48    3.3974   540.9    3.608      41.985
2015    8       29    15  55    3.3958   540.8    3.609      41.965
2015    8       29    16   2    3.3942   540.7    3.610      41.944
2015    8       29    16   8    3.3926   540.5    3.611      41.921
2015    8       29    16  15    3.3910   540.4    3.612      41.897
2015    8       29    16  22    3.3893   540.3    3.613      41.872
2015    8       29    16  29    3.3876   540.1    3.613      41.846
2015    8       29    16  36    3.3860   540.0    3.613      41.817
2015    8       29    16  42    3.3843   539.9    3.613      41.788
2015    8       29    16  49    3.3825   539.7    3.613      41.758
2015    8       29    16  56    3.3808   539.6    3.613      41.726
2015    8       29    17   3    3.3791   539.5    3.613      41.694
2015    8       29    17   9    3.3773   539.3    3.612      41.660
2015    8       29    17  16    3.3756   539.2    3.612      41.626
2015    8       29    17  23    3.3739   539.0    3.611      41.591
2015    8       29    17  30    3.3721   538.9    3.610      41.555
2015    8       29    17  37    3.3704   538.7    3.610      41.519
2015    8       29    17  43    3.3687   538.6    3.609      41.483
2015    8       29    17  50    3.3670   538.4    3.608      41.447
2015    8       29    17  57    3.3653   538.3    3.607      41.410
2015    8       29    18   4    3.3636   538.1    3.606      41.373
2015    8       29    18  10    3.3619   538.0    3.605      41.336
2015    8       29    18  17    3.3602   537.8    3.604      41.298
2015    8       29    18  24    3.3585   537.7    3.602      41.260
2015    8       29    18  31    3.3569   537.5    3.601      41.221
2015    8       29    18  38    3.3552   537.4    3.600      41.182
2015    8       29    18  44    3.3535   537.2    3.598      41.142
2015    8       29    18  51    3.3519   537.1    3.597      41.102
2015    8       29    18  58    3.3502   536.9    3.595      41.061
2015    8       29    19   5    3.3485   536.8    3.593      41.020
2015    8       29    19  12    3.3469   536.6    3.592      40.978
2015    8       29    19  18    3.3452   536.4    3.590      40.935
2015    8       29    19  25    3.3435   536.3    3.588      40.893
2015    8       29    19  32    3.3418   536.1    3.586      40.849
2015    8       29    19  39    3.3402   536.0    3.584      40.806
2015    8       29    19  46    3.3385   535.8    3.582      40.762
2015    8       29    19  52    3.3368   535.7    3.581      40.718
2015    8       29    19  59    3.3352   535.5    3.579      40.674
2015    8       29    20   6    3.3335   535.3    3.577      40.630
2015    8       29    20  13    3.3318   535.2    3.575      40.585
2015    8       29    20  20    3.3302   535.0    3.573      40.541
2015    8       29    20  27    3.3285   534.8    3.572      40.497
2015    8       29    20  33    3.3269   534.7    3.570      40.454
2015    8       29    20  40    3.3253   534.5    3.568      40.411
2015    8       29    20  47    3.3237   534.3    3.567      40.368
2015    8       29    20  54    3.3221   534.2    3.566      40.326
2015    8       29    21   1    3.3206   534.0    3.564      40.285
2015    8       29    21   8    3.3190   533.8    3.563      40.244
2015    8       29    21  15    3.3175   533.7    3.562      40.204
2015    8       29    21  21    3.3160   533.5    3.562      40.165
2015    8       29    21  28    3.3146   533.3    3.561      40.128
2015    8       29    21  35    3.3131   533.1    3.561      40.091
2015    8       29    21  42    3.3117   533.0    3.561      40.057
2015    8       29    21  49    3.3104   532.8    3.561      40.024
2015    8       29    21  56    3.3091   532.6    3.561      39.992
2015    8       29    22   3    3.3078   532.5    3.562      39.963
2015    8       29    22   9    3.3066   532.3    3.563      39.937
2015    8       29    22  16    3.3054   532.1    3.565      39.914
2015    8       29    22  23    3.3042   532.0    3.566      39.892
2015    8       29    22  30    3.3030   531.8    3.568      39.873
2015    8       29    22  37    3.3018   531.7    3.569      39.853
2015    8       29    22  44    3.3005   531.5    3.570      39.832
2015    8       29    22  50    3.2992   531.4    3.572      39.812
2015    8       29    22  57    3.2979   531.2    3.573      39.790
2015    8       29    23   4    3.2966   531.1    3.575      39.769
2015    8       29    23  11    3.2952   530.9    3.576      39.747
2015    8       29    23  18    3.2939   530.8    3.578      39.725
2015    8       29    23  25    3.2926   530.6    3.579      39.702
2015    8       29    23  31    3.2912   530.5    3.581      39.679
2015    8       29    23  38    3.2899   530.3    3.582      39.655
2015    8       29    23  45    3.2886   530.2    3.584      39.632
2015    8       29    23  52    3.2872   530.0    3.586      39.608
2015    8       29    23  58    3.2860   529.9    3.587      39.584
2015    8       30     0   5    3.2847   529.7    3.589      39.561
2015    8       30     0  12    3.2834   529.5    3.591      39.538
2015    8       30     0  19    3.2822   529.4    3.593      39.514
2015    8       30     0  26    3.2809   529.2    3.595      39.492
2015    8       30     0  32    3.2798   529.0    3.598      39.469
2015    8       30     0  39    3.2787   528.9    3.600      39.447
2015    8       30     0  46    3.2776   528.7    3.603      39.428
2015    8       30     0  53    3.2766   528.5    3.605      39.411
2015    8       30     0  59    3.2757   528.3    3.608      39.396
2015    8       30     1   6    3.2748   528.2    3.610      39.384
2015    8       30     1  13    3.2739   528.0    3.613      39.373
2015    8       30     1  20    3.2730   527.9    3.615      39.362
2015    8       30     1  27    3.2722   527.7    3.617      39.350
2015    8       30     1  33    3.2713   527.5    3.619      39.337
2015    8       30     1  40    3.2704   527.4    3.620      39.324
2015    8       30     1  47    3.2695   527.2    3.622      39.310
2015    8       30     1  54    3.2686   527.1    3.623      39.295
2015    8       30     2   0    3.2677   527.0    3.624      39.279
2015    8       30     2   7    3.2667   526.8    3.625      39.261
2015    8       30     2  14    3.2658   526.7    3.626      39.242
2015    8       30     2  21    3.2647   526.5    3.626      39.222
2015    8       30     2  28    3.2637   526.4    3.627      39.201
2015    8       30     2  35    3.2626   526.2    3.627      39.178
2015    8       30     2  41    3.2614   526.1    3.626      39.154
2015    8       30     2  48    3.2602   526.0    3.626      39.129
2015    8       30     2  55    3.2590   525.8    3.626      39.103
2015    8       30     3   2    3.2578   525.7    3.625      39.075
2015    8       30     3   9    3.2565   525.5    3.624      39.046
2015    8       30     3  15    3.2552   525.4    3.623      39.016
2015    8       30     3  22    3.2538   525.2    3.622      38.985
2015    8       30     3  29    3.2525   525.1    3.621      38.953
2015    8       30     3  36    3.2511   524.9    3.620      38.920
2015    8       30     3  43    3.2496   524.8    3.619      38.887
2015    8       30     3  50    3.2482   524.6    3.617      38.852
2015    8       30     3  56    3.2468   524.5    3.616      38.817
2015    8       30     4   3    3.2453   524.3    3.614      38.782
2015    8       30     4  10    3.2439   524.2    3.612      38.745
2015    8       30     4  17    3.2424   524.0    3.611      38.709
2015    8       30     4  24    3.2409   523.8    3.609      38.672
2015    8       30     4  31    3.2395   523.7    3.607      38.635
2015    8       30     4  38    3.2380   523.5    3.605      38.597
2015    8       30     4  44    3.2365   523.3    3.603      38.559
2015    8       30     4  51    3.2350   523.1    3.601      38.521
2015    8       30     4  58    3.2335   523.0    3.599      38.482
2015    8       30     5   5    3.2320   522.8    3.598      38.442
2015    8       30     5  12    3.2305   522.6    3.596      38.403
2015    8       30     5  19    3.2290   522.5    3.594      38.362
2015    8       30     5  26    3.2276   522.3    3.592      38.322
2015    8       30     5  32    3.2261   522.1    3.590      38.281
2015    8       30     5  39    3.2246   521.9    3.589      38.241
2015    8       30     5  46    3.2231   521.7    3.587      38.200
2015    8       30     5  53    3.2217   521.6    3.586      38.160
2015    8       30     6   0    3.2203   521.4    3.585      38.120
2015    8       30     6   7    3.2189   521.2    3.583      38.080
2015    8       30     6  13    3.2174   521.0    3.582      38.041
2015    8       30     6  20    3.2161   520.8    3.582      38.002
2015    8       30     6  27    3.2147   520.6    3.581      37.964
2015    8       30     6  34    3.2135   520.4    3.580      37.927
2015    8       30     6  41    3.2122   520.2    3.580      37.891
2015    8       30     6  47    3.2110   520.0    3.580      37.856
2015    8       30     6  54    3.2098   519.9    3.580      37.821
2015    8       30     7   1    3.2087   519.7    3.581      37.789
2015    8       30     7   8    3.2076   519.5    3.582      37.757
2015    8       30     7  15    3.2066   519.3    3.583      37.728
2015    8       30     7  21    3.2057   519.1    3.584      37.700
2015    8       30     7  28    3.2048   518.9    3.586      37.674
2015    8       30     7  35    3.2041   518.7    3.588      37.650
2015    8       30     7  42    3.2034   518.5    3.591      37.628
2015    8       30     7  49    3.2029   518.3    3.594      37.607
2015    8       30     7  55    3.2024   518.1    3.597      37.591
2015    8       30     8   2    3.2021   518.0    3.601      37.578
2015    8       30     8   9    3.2018   517.8    3.605      37.568
2015    8       30     8  16    3.2016   517.6    3.609      37.561
2015    8       30     8  22    3.2014   517.5    3.613      37.556
2015    8       30     8  29    3.2011   517.3    3.617      37.553
2015    8       30     8  36    3.2008   517.1    3.621      37.551
2015    8       30     8  43    3.2005   517.0    3.625      37.549
2015    8       30     8  49    3.2001   516.8    3.629      37.548
2015    8       30     8  56    3.1997   516.7    3.633      37.547
2015    8       30     9   3    3.1992   516.5    3.636      37.545
2015    8       30     9  10    3.1986   516.4    3.639      37.541
2015    8       30     9  17    3.1980   516.3    3.642      37.536
2015    8       30     9  23    3.1973   516.1    3.645      37.529
2015    8       30     9  30    3.1966   516.0    3.647      37.521
2015    8       30     9  37    3.1958   515.8    3.649      37.511
2015    8       30     9  44    3.1950   515.7    3.651      37.499
2015    8       30     9  51    3.1941   515.5    3.653      37.486
2015    8       30     9  57    3.1932   515.3    3.655      37.472
2015    8       30    10   4    3.1922   515.2    3.656      37.456
2015    8       30    10  11    3.1912   515.0    3.657      37.439
2015    8       30    10  18    3.1902   514.9    3.658      37.420
2015    8       30    10  25    3.1891   514.7    3.659      37.401
2015    8       30    10  32    3.1881   514.5    3.660      37.380
2015    8       30    10  38    3.1870   514.4    3.660      37.359
2015    8       30    10  45    3.1859   514.2    3.661      37.336
2015    8       30    10  52    3.1848   514.0    3.662      37.313
2015    8       30    10  59    3.1836   513.9    3.662      37.290
2015    8       30    11   6    3.1825   513.7    3.662      37.266
2015    8       30    11  13    3.1814   513.5    3.663      37.241
2015    8       30    11  19    3.1803   513.3    3.663      37.217
2015    8       30    11  26    3.1792   513.2    3.663      37.193
2015    8       30    11  33    3.1781   513.0    3.664      37.168
2015    8       30    11  40    3.1771   512.8    3.664      37.144
2015    8       30    11  47    3.1760   512.6    3.664      37.120
2015    8       30    11  54    3.1749   512.5    3.664      37.096
2015    8       30    12   1    3.1739   512.3    3.664      37.071
2015    8       30    12   7    3.1729   512.1    3.665      37.047
2015    8       30    12  14    3.1718   511.9    3.665      37.022
2015    8       30    12  21    3.1708   511.7    3.665      36.997
2015    8       30    12  28    3.1698   511.6    3.665      36.973
2015    8       30    12  35    3.1688   511.4    3.665      36.948
2015    8       30    12  42    3.1678   511.2    3.665      36.923
2015    8       30    12  49    3.1668   511.0    3.665      36.897
2015    8       30    12  55    3.1658   510.8    3.665      36.871
2015    8       30    13   2    3.1648   510.7    3.665      36.845
2015    8       30    13   9    3.1638   510.5    3.665      36.819
2015    8       30    13  16    3.1628   510.3    3.665      36.792
2015    8       30    13  23    3.1618   510.1    3.665      36.766
2015    8       30    13  30    3.1608   509.9    3.665      36.738
2015    8       30    13  36    3.1598   509.7    3.664      36.711
2015    8       30    13  43    3.1588   509.5    3.664      36.682
2015    8       30    13  50    3.1579   509.4    3.664      36.654
2015    8       30    13  57    3.1569   509.2    3.664      36.626
2015    8       30    14   4    3.1560   509.0    3.664      36.597
2015    8       30    14  10    3.1552   508.8    3.664      36.569
2015    8       30    14  17    3.1543   508.6    3.664      36.541
2015    8       30    14  24    3.1535   508.4    3.664      36.513
2015    8       30    14  31    3.1528   508.2    3.664      36.486
2015    8       30    14  38    3.1521   508.0    3.665      36.460
2015    8       30    14  44    3.1514   507.8    3.665      36.434
2015    8       30    14  51    3.1508   507.6    3.666      36.409
2015    8       30    14  58    3.1503   507.5    3.667      36.386
2015    8       30    15   5    3.1497   507.3    3.668      36.363
2015    8       30    15  11    3.1493   507.1    3.669      36.341
2015    8       30    15  18    3.1488   506.9    3.671      36.319
2015    8       30    15  25    3.1484   506.7    3.673      36.299
2015    8       30    15  32    3.1480   506.6    3.674      36.279
2015    8       30    15  39    3.1475   506.4    3.676      36.260
2015    8       30    15  45    3.1470   506.2    3.679      36.242
2015    8       30    15  52    3.1464   506.1    3.681      36.224
2015    8       30    15  59    3.1458   505.9    3.683      36.208
2015    8       30    16   6    3.1452   505.7    3.685      36.192
2015    8       30    16  12    3.1445   505.5    3.687      36.176
2015    8       30    16  19    3.1438   505.3    3.689      36.159
2015    8       30    16  26    3.1430   505.2    3.691      36.142
2015    8       30    16  33    3.1423   505.0    3.693      36.124
2015    8       30    16  40    3.1415   504.8    3.694      36.105
2015    8       30    16  46    3.1407   504.6    3.696      36.087
2015    8       30    16  53    3.1399   504.4    3.698      36.067
2015    8       30    17   0    3.1391   504.2    3.699      36.048
2015    8       30    17   7    3.1383   504.0    3.701      36.028
2015    8       30    17  14    3.1376   503.8    3.702      36.008
2015    8       30    17  20    3.1368   503.7    3.704      35.987
2015    8       30    17  27    3.1360   503.5    3.706      35.967
2015    8       30    17  34    3.1353   503.3    3.707      35.947
2015    8       30    17  41    3.1346   503.1    3.709      35.926
2015    8       30    17  48    3.1339   502.9    3.711      35.906
2015    8       30    17  55    3.1332   502.7    3.712      35.886
2015    8       30    18   1    3.1325   502.5    3.714      35.866
2015    8       30    18   8    3.1319   502.3    3.716      35.846
2015    8       30    18  15    3.1313   502.1    3.718      35.826
2015    8       30    18  22    3.1307   501.9    3.720      35.806
2015    8       30    18  29    3.1301   501.7    3.722      35.787
2015    8       30    18  36    3.1295   501.5    3.724      35.768
2015    8       30    18  42    3.1290   501.3    3.726      35.749
2015    8       30    18  49    3.1285   501.1    3.728      35.731
2015    8       30    18  56    3.1280   500.9    3.730      35.713
2015    8       30    19   3    3.1276   500.7    3.732      35.695
2015    8       30    19  10    3.1272   500.5    3.735      35.678
2015    8       30    19  17    3.1268   500.3    3.737      35.662
2015    8       30    19  24    3.1264   500.2    3.740      35.646
2015    8       30    19  30    3.1260   500.0    3.742      35.631
2015    8       30    19  37    3.1257   499.8    3.745      35.616
2015    8       30    19  44    3.1254   499.6    3.747      35.602
2015    8       30    19  51    3.1251   499.4    3.750      35.589
2015    8       30    19  58    3.1248   499.2    3.753      35.576
2015    8       30    20   5    3.1245   499.1    3.755      35.564
2015    8       30    20  12    3.1243   498.9    3.758      35.553
2015    8       30    20  18    3.1240   498.7    3.761      35.542
2015    8       30    20  25    3.1238   498.5    3.764      35.531
2015    8       30    20  32    3.1235   498.3    3.767      35.522
2015    8       30    20  39    3.1232   498.2    3.770      35.512
2015    8       30    20  46    3.1229   498.0    3.773      35.502
2015    8       30    20  53    3.1226   497.8    3.775      35.493
2015    8       30    20  59    3.1223   497.6    3.778      35.483
2015    8       30    21   6    3.1219   497.5    3.781      35.474
2015    8       30    21  13    3.1215   497.3    3.784      35.463
2015    8       30    21  20    3.1211   497.1    3.787      35.453
2015    8       30    21  27    3.1207   497.0    3.789      35.443
2015    8       30    21  33    3.1203   496.8    3.792      35.432
2015    8       30    21  40    3.1198   496.6    3.794      35.421
2015    8       30    21  47    3.1193   496.4    3.797      35.409
2015    8       30    21  54    3.1189   496.2    3.799      35.397
2015    8       30    22   1    3.1184   496.1    3.801      35.385
2015    8       30    22   7    3.1179   495.9    3.803      35.372
2015    8       30    22  14    3.1174   495.7    3.805      35.359
2015    8       30    22  21    3.1169   495.5    3.807      35.345
2015    8       30    22  28    3.1163   495.3    3.809      35.331
2015    8       30    22  34    3.1158   495.2    3.811      35.315
2015    8       30    22  41    3.1153   495.0    3.813      35.300
2015    8       30    22  48    3.1147   494.8    3.815      35.284
2015    8       30    22  55    3.1142   494.6    3.817      35.268
2015    8       30    23   1    3.1137   494.4    3.819      35.251
2015    8       30    23   8    3.1131   494.2    3.820      35.234
2015    8       30    23  15    3.1126   494.0    3.822      35.217
2015    8       30    23  22    3.1121   493.9    3.824      35.199
2015    8       30    23  29    3.1115   493.7    3.825      35.181
2015    8       30    23  35    3.1110   493.5    3.827      35.163
2015    8       30    23  42    3.1105   493.3    3.829      35.145
2015    8       30    23  49    3.1101   493.1    3.831      35.127
2015    8       30    23  56    3.1096   492.9    3.832      35.108
2015    8       31     0   3    3.1091   492.7    3.834      35.090
2015    8       31     0   9    3.1087   492.5    3.836      35.071
2015    8       31     0  16    3.1082   492.3    3.838      35.053
2015    8       31     0  23    3.1078   492.1    3.839      35.034
2015    8       31     0  30    3.1074   492.0    3.841      35.015
2015    8       31     0  37    3.1070   491.8    3.843      34.996
2015    8       31     0  43    3.1066   491.6    3.845      34.978
2015    8       31     0  50    3.1063   491.4    3.847      34.959
2015    8       31     0  57    3.1059   491.2    3.849      34.941
2015    8       31     1   4    3.1055   491.0    3.850      34.922
2015    8       31     1  11    3.1052   490.8    3.852      34.903
2015    8       31     1  18    3.1048   490.6    3.854      34.885
2015    8       31     1  24    3.1045   490.4    3.856      34.866
2015    8       31     1  31    3.1042   490.3    3.858      34.847
2015    8       31     1  38    3.1039   490.1    3.860      34.828
2015    8       31     1  45    3.1036   489.9    3.862      34.810
2015    8       31     1  52    3.1033   489.7    3.864      34.791
2015    8       31     1  59    3.1030   489.5    3.866      34.772
2015    8       31     2   5    3.1027   489.3    3.868      34.754
2015    8       31     2  12    3.1024   489.1    3.870      34.736
2015    8       31     2  19    3.1022   488.9    3.872      34.718
2015    8       31     2  26    3.1019   488.7    3.874      34.700
2015    8       31     2  33    3.1017   488.5    3.876      34.682
2015    8       31     2  40    3.1015   488.4    3.879      34.665
2015    8       31     2  47    3.1014   488.2    3.881      34.649
2015    8       31     2  53    3.1012   488.0    3.884      34.633
2015    8       31     3   0    3.1011   487.8    3.886      34.618
2015    8       31     3   7    3.1010   487.6    3.889      34.603
2015    8       31     3  14    3.1009   487.4    3.892      34.589
2015    8       31     3  21    3.1009   487.3    3.895      34.576
2015    8       31     3  28    3.1008   487.1    3.898      34.564
2015    8       31     3  35    3.1008   486.9    3.901      34.552
2015    8       31     3  41    3.1009   486.7    3.904      34.541
2015    8       31     3  48    3.1009   486.5    3.908      34.531
2015    8       31     3  55    3.1009   486.4    3.912      34.522
2015    8       31     4   2    3.1009   486.2    3.915      34.513
2015    8       31     4   9    3.1009   486.0    3.919      34.505
2015    8       31     4  16    3.1009   485.9    3.923      34.497
2015    8       31     4  22    3.1009   485.7    3.927      34.490
2015    8       31     4  29    3.1008   485.6    3.931      34.483
2015    8       31     4  36    3.1008   485.4    3.935      34.477
2015    8       31     4  43    3.1008   485.2    3.939      34.471
2015    8       31     4  50    3.1007   485.1    3.943      34.465
2015    8       31     4  56    3.1006   484.9    3.948      34.459
2015    8       31     5   3    3.1006   484.7    3.952      34.454
2015    8       31     5  10    3.1004   484.6    3.956      34.449
2015    8       31     5  17    3.1003   484.4    3.960      34.444
2015    8       31     5  23    3.1002   484.3    3.964      34.438
2015    8       31     5  30    3.1000   484.1    3.968      34.432
2015    8       31     5  37    3.0998   483.9    3.972      34.427
2015    8       31     5  44    3.0996   483.8    3.976      34.422
2015    8       31     5  51    3.0994   483.6    3.979      34.416
2015    8       31     5  57    3.0992   483.5    3.983      34.410
2015    8       31     6   4    3.0990   483.3    3.987      34.404
2015    8       31     6  11    3.0988   483.1    3.990      34.398
2015    8       31     6  18    3.0986   483.0    3.993      34.391
2015    8       31     6  24    3.0983   482.8    3.997      34.385
2015    8       31     6  31    3.0981   482.7    4.000      34.377
2015    8       31     6  38    3.0979   482.5    4.003      34.370
2015    8       31     6  45    3.0976   482.3    4.006      34.362
2015    8       31     6  52    3.0974   482.2    4.009      34.354
2015    8       31     6  58    3.0971   482.0    4.012      34.345
2015    8       31     7   5    3.0969   481.8    4.015      34.336
2015    8       31     7  12    3.0966   481.7    4.018      34.327
2015    8       31     7  19    3.0964   481.5    4.021      34.317
2015    8       31     7  26    3.0961   481.4    4.023      34.307
2015    8       31     7  32    3.0958   481.2    4.026      34.297
2015    8       31     7  39    3.0955   481.0    4.029      34.286
2015    8       31     7  46    3.0953   480.9    4.031      34.275
2015    8       31     7  53    3.0950   480.7    4.033      34.263
2015    8       31     8   0    3.0947   480.6    4.036      34.251
2015    8       31     8   6    3.0944   480.4    4.038      34.239
2015    8       31     8  13    3.0941   480.2    4.040      34.227
2015    8       31     8  20    3.0937   480.1    4.043      34.213
2015    8       31     8  27    3.0934   479.9    4.045      34.200
2015    8       31     8  34    3.0931   479.7    4.047      34.186
2015    8       31     8  41    3.0927   479.6    4.049      34.172
2015    8       31     8  47    3.0924   479.4    4.051      34.158
2015    8       31     8  54    3.0920   479.2    4.053      34.144
2015    8       31     9   1    3.0917   479.1    4.055      34.129
2015    8       31     9   8    3.0913   478.9    4.057      34.114
2015    8       31     9  15    3.0909   478.7    4.059      34.098
2015    8       31     9  22    3.0906   478.6    4.061      34.083
2015    8       31     9  28    3.0902   478.4    4.063      34.067
2015    8       31     9  35    3.0899   478.3    4.065      34.051
2015    8       31     9  42    3.0895   478.1    4.067      34.035
2015    8       31     9  49    3.0891   477.9    4.069      34.019
2015    8       31     9  56    3.0888   477.7    4.071      34.003
2015    8       31    10   3    3.0884   477.6    4.073      33.987
2015    8       31    10  10    3.0881   477.4    4.075      33.971
2015    8       31    10  16    3.0878   477.2    4.077      33.956
2015    8       31    10  23    3.0875   477.1    4.079      33.940
2015    8       31    10  30    3.0871   476.9    4.081      33.925
2015    8       31    10  37    3.0869   476.7    4.083      33.910
2015    8       31    10  44    3.0866   476.6    4.086      33.895
2015    8       31    10  51    3.0863   476.4    4.088      33.881
2015    8       31    10  58    3.0861   476.3    4.091      33.867
2015    8       31    11   4    3.0859   476.1    4.093      33.854
2015    8       31    11  11    3.0857   475.9    4.096      33.841
2015    8       31    11  18    3.0855   475.8    4.099      33.828
2015    8       31    11  25    3.0854   475.6    4.102      33.816
2015    8       31    11  32    3.0852   475.5    4.105      33.804
2015    8       31    11  38    3.0851   475.3    4.108      33.793
2015    8       31    11  45    3.0850   475.1    4.111      33.782
2015    8       31    11  52    3.0849   475.0    4.114      33.771
2015    8       31    11  59    3.0849   474.8    4.118      33.761
2015    8       31    12   6    3.0848   474.7    4.121      33.751
2015    8       31    12  13    3.0847   474.5    4.125      33.741
2015    8       31    12  19    3.0846   474.4    4.129      33.732
2015    8       31    12  26    3.0845   474.2    4.132      33.723
2015    8       31    12  33    3.0843   474.1    4.136      33.714
2015    8       31    12  40    3.0841   473.9    4.140      33.706
2015    8       31    12  46    3.0839   473.8    4.143      33.697
2015    8       31    12  53    3.0837   473.7    4.147      33.689
2015    8       31    13   0    3.0834   473.5    4.151      33.681
2015    8       31    13   7    3.0832   473.4    4.154      33.673
2015    8       31    13  13    3.0829   473.2    4.158      33.666
2015    8       31    13  20    3.0826   473.1    4.161      33.657
2015    8       31    13  27    3.0822   472.9    4.165      33.650
2015    8       31    13  34    3.0819   472.8    4.168      33.642
2015    8       31    13  41    3.0816   472.6    4.171      33.633
2015    8       31    13  47    3.0812   472.5    4.175      33.625
2015    8       31    13  54    3.0808   472.3    4.178      33.616
2015    8       31    14   1    3.0804   472.2    4.181      33.608
2015    8       31    14   8    3.0800   472.0    4.184      33.599
2015    8       31    14  15    3.0796   471.9    4.187      33.590
2015    8       31    14  21    3.0792   471.7    4.190      33.580
2015    8       31    14  28    3.0788   471.6    4.193      33.571
2015    8       31    14  35    3.0783   471.4    4.196      33.561
2015    8       31    14  42    3.0779   471.3    4.198      33.551
2015    8       31    14  48    3.0774   471.1    4.201      33.541
2015    8       31    14  55    3.0770   471.0    4.204      33.531
2015    8       31    15   2    3.0765   470.8    4.207      33.521
2015    8       31    15   9    3.0760   470.7    4.209      33.510
2015    8       31    15  16    3.0756   470.6    4.212      33.499
2015    8       31    15  23    3.0751   470.4    4.214      33.488
2015    8       31    15  29    3.0746   470.3    4.217      33.477
2015    8       31    15  36    3.0741   470.1    4.219      33.465
2015    8       31    15  43    3.0735   470.0    4.221      33.453
2015    8       31    15  50    3.0730   469.8    4.224      33.441
2015    8       31    15  57    3.0725   469.7    4.226      33.429
2015    8       31    16   4    3.0719   469.5    4.228      33.416
2015    8       31    16  10    3.0714   469.3    4.231      33.404
2015    8       31    16  17    3.0708   469.2    4.233      33.391
2015    8       31    16  24    3.0703   469.0    4.235      33.378
2015    8       31    16  31    3.0697   468.9    4.237      33.364
2015    8       31    16  38    3.0692   468.7    4.239      33.351
2015    8       31    16  45    3.0686   468.6    4.241      33.337
2015    8       31    16  51    3.0680   468.4    4.244      33.324
2015    8       31    16  58    3.0675   468.3    4.246      33.310
2015    8       31    17   5    3.0669   468.1    4.248      33.296
2015    8       31    17  12    3.0663   468.0    4.250      33.282
2015    8       31    17  19    3.0658   467.8    4.252      33.269
2015    8       31    17  26    3.0652   467.7    4.254      33.255
2015    8       31    17  33    3.0647   467.5    4.256      33.241
2015    8       31    17  39    3.0642   467.3    4.259      33.227
2015    8       31    17  46    3.0637   467.2    4.261      33.214
2015    8       31    17  53    3.0631   467.0    4.263      33.200
2015    8       31    18   0    3.0627   466.9    4.265      33.187
2015    8       31    18   7    3.0622   466.7    4.268      33.174
2015    8       31    18  14    3.0617   466.6    4.270      33.161
2015    8       31    18  21    3.0612   466.4    4.273      33.148
2015    8       31    18  27    3.0608   466.3    4.275      33.135
2015    8       31    18  34    3.0604   466.1    4.278      33.122
2015    8       31    18  41    3.0599   466.0    4.280      33.110
2015    8       31    18  48    3.0595   465.8    4.283      33.098
2015    8       31    18  55    3.0591   465.7    4.286      33.086
2015    8       31    19   1    3.0587   465.5    4.288      33.074
2015    8       31    19   8    3.0583   465.4    4.291      33.062
2015    8       31    19  15    3.0579   465.2    4.294      33.050
2015    8       31    19  22    3.0574   465.1    4.297      33.039
2015    8       31    19  29    3.0570   464.9    4.300      33.027
2015    8       31    19  35    3.0565   464.8    4.302      33.016
2015    8       31    19  42    3.0560   464.6    4.305      33.004
2015    8       31    19  49    3.0555   464.5    4.308      32.993
2015    8       31    19  56    3.0549   464.4    4.311      32.981
2015    8       31    20   3    3.0544   464.2    4.314      32.970
2015    8       31    20   9    3.0538   464.1    4.316      32.958
2015    8       31    20  16    3.0532   463.9    4.319      32.946
2015    8       31    20  23    3.0526   463.8    4.322      32.934
2015    8       31    20  30    3.0520   463.6    4.325      32.923
2015    8       31    20  36    3.0514   463.5    4.327      32.911
2015    8       31    20  43    3.0508   463.3    4.330      32.899
2015    8       31    20  50    3.0501   463.2    4.332      32.887
2015    8       31    20  57    3.0495   463.0    4.335      32.875
2015    8       31    21   4    3.0488   462.9    4.337      32.863
2015    8       31    21  10    3.0482   462.7    4.340      32.851
2015    8       31    21  17    3.0475   462.6    4.342      32.838
2015    8       31    21  24    3.0468   462.4    4.344      32.825
2015    8       31    21  31    3.0461   462.3    4.347      32.812
2015    8       31    21  37    3.0454   462.2    4.349      32.799
2015    8       31    21  44    3.0446   462.0    4.351      32.786
2015    8       31    21  51    3.0439   461.9    4.353      32.772
2015    8       31    21  58    3.0432   461.7    4.355      32.758
2015    8       31    22   5    3.0424   461.6    4.358      32.744
2015    8       31    22  11    3.0417   461.4    4.360      32.730
2015    8       31    22  18    3.0409   461.3    4.362      32.716
2015    8       31    22  25    3.0401   461.1    4.364      32.701
2015    8       31    22  32    3.0394   461.0    4.365      32.686
2015    8       31    22  39    3.0386   460.8    4.367      32.671
2015    8       31    22  45    3.0378   460.7    4.369      32.656
2015    8       31    22  52    3.0370   460.5    4.371      32.640
2015    8       31    22  59    3.0362   460.4    4.373      32.625
2015    8       31    23   6    3.0354   460.2    4.375      32.609
2015    8       31    23  13    3.0346   460.1    4.376      32.593
2015    8       31    23  20    3.0338   459.9    4.378      32.577
2015    8       31    23  26    3.0330   459.8    4.380      32.560
2015    8       31    23  33    3.0322   459.6    4.382      32.544
2015    8       31    23  40    3.0314   459.5    4.383      32.527
2015    8       31    23  47    3.0305   459.3    4.385      32.510
2015    8       31    23  54    3.0297   459.2    4.386      32.494
2015    9        1     0   1    3.0289   459.0    4.388      32.477
