year    month   day   hour  minute  B_enl V_enl   n_enl       T_enl
[year] [month] [day] [hour][minute] [nT]  [km/s]  [cm-3]      [kK]
2015    8       22     0   4    4.4937   502.7    5.815      50.796
2015    8       22     0  11    4.4901   502.9    5.805      50.804
2015    8       22     0  17    4.4866   503.1    5.795      50.812
2015    8       22     0  23    4.4829   503.3    5.784      50.819
2015    8       22     0  30    4.4793   503.5    5.774      50.825
2015    8       22     0  36    4.4755   503.7    5.764      50.832
2015    8       22     0  42    4.4719   503.9    5.754      50.839
2015    8       22     0  49    4.4681   504.0    5.744      50.846
2015    8       22     0  55    4.4645   504.2    5.735      50.853
2015    8       22     1   1    4.4607   504.4    5.725      50.861
2015    8       22     1   7    4.4570   504.6    5.716      50.869
2015    8       22     1  14    4.4531   504.7    5.707      50.878
2015    8       22     1  20    4.4493   504.9    5.698      50.890
2015    8       22     1  26    4.4453   505.1    5.690      50.902
2015    8       22     1  33    4.4413   505.3    5.681      50.916
2015    8       22     1  39    4.4372   505.5    5.672      50.930
2015    8       22     1  45    4.4331   505.7    5.664      50.945
2015    8       22     1  52    4.4287   505.9    5.655      50.957
2015    8       22     1  58    4.4244   506.1    5.646      50.968
2015    8       22     2   4    4.4199   506.3    5.637      50.978
2015    8       22     2  11    4.4154   506.6    5.627      50.986
2015    8       22     2  17    4.4107   506.8    5.618      50.993
2015    8       22     2  23    4.4059   507.0    5.608      50.999
2015    8       22     2  30    4.4010   507.2    5.597      51.004
2015    8       22     2  36    4.3960   507.4    5.587      51.009
2015    8       22     2  42    4.3908   507.7    5.576      51.012
2015    8       22     2  48    4.3856   507.9    5.565      51.013
2015    8       22     2  55    4.3801   508.1    5.553      51.012
2015    8       22     3   1    4.3746   508.3    5.542      51.010
2015    8       22     3   7    4.3689   508.5    5.530      51.006
2015    8       22     3  14    4.3632   508.7    5.518      50.999
2015    8       22     3  20    4.3574   508.9    5.506      50.991
2015    8       22     3  26    4.3516   509.1    5.495      50.983
2015    8       22     3  33    4.3456   509.3    5.483      50.974
2015    8       22     3  39    4.3397   509.4    5.471      50.965
2015    8       22     3  45    4.3336   509.6    5.459      50.954
2015    8       22     3  52    4.3275   509.8    5.447      50.943
2015    8       22     3  58    4.3214   509.9    5.436      50.931
2015    8       22     4   4    4.3153   510.1    5.424      50.920
2015    8       22     4  11    4.3091   510.3    5.412      50.907
2015    8       22     4  17    4.3030   510.4    5.401      50.894
2015    8       22     4  23    4.2968   510.6    5.389      50.880
2015    8       22     4  30    4.2906   510.7    5.378      50.866
2015    8       22     4  36    4.2843   510.9    5.366      50.851
2015    8       22     4  42    4.2782   511.0    5.354      50.835
2015    8       22     4  49    4.2718   511.2    5.343      50.819
2015    8       22     4  55    4.2656   511.4    5.331      50.801
2015    8       22     5   1    4.2592   511.5    5.319      50.783
2015    8       22     5   8    4.2529   511.7    5.307      50.764
2015    8       22     5  14    4.2465   511.8    5.296      50.745
2015    8       22     5  20    4.2402   512.0    5.284      50.725
2015    8       22     5  27    4.2337   512.1    5.272      50.703
2015    8       22     5  33    4.2273   512.3    5.260      50.681
2015    8       22     5  39    4.2208   512.4    5.248      50.658
2015    8       22     5  46    4.2143   512.5    5.236      50.634
2015    8       22     5  52    4.2077   512.7    5.224      50.609
2015    8       22     5  58    4.2012   512.8    5.212      50.583
2015    8       22     6   5    4.1945   513.0    5.200      50.554
2015    8       22     6  11    4.1878   513.1    5.188      50.525
2015    8       22     6  17    4.1810   513.2    5.176      50.493
2015    8       22     6  24    4.1743   513.4    5.164      50.460
2015    8       22     6  30    4.1674   513.5    5.152      50.425
2015    8       22     6  36    4.1605   513.6    5.139      50.389
2015    8       22     6  43    4.1536   513.7    5.127      50.352
2015    8       22     6  49    4.1467   513.8    5.115      50.315
2015    8       22     6  55    4.1396   513.9    5.103      50.276
2015    8       22     7   1    4.1327   514.0    5.091      50.237
2015    8       22     7   8    4.1257   514.1    5.079      50.196
2015    8       22     7  14    4.1187   514.2    5.067      50.156
2015    8       22     7  20    4.1117   514.3    5.055      50.114
2015    8       22     7  27    4.1047   514.4    5.042      50.072
2015    8       22     7  33    4.0976   514.5    5.030      50.029
2015    8       22     7  39    4.0906   514.6    5.018      49.987
2015    8       22     7  46    4.0834   514.7    5.006      49.943
2015    8       22     7  52    4.0764   514.8    4.994      49.898
2015    8       22     7  58    4.0692   514.8    4.982      49.853
2015    8       22     8   5    4.0621   514.9    4.970      49.808
2015    8       22     8  11    4.0550   515.0    4.958      49.762
2015    8       22     8  17    4.0479   515.1    4.945      49.717
2015    8       22     8  24    4.0407   515.1    4.933      49.669
2015    8       22     8  30    4.0336   515.2    4.921      49.623
2015    8       22     8  36    4.0265   515.3    4.909      49.574
2015    8       22     8  43    4.0194   515.3    4.897      49.525
2015    8       22     8  49    4.0122   515.4    4.885      49.475
2015    8       22     8  54    4.0071   515.4    4.876      49.443
2015    8       22     8  58    4.0019   515.5    4.867      49.410
2015    8       22     9   3    3.9967   515.5    4.858      49.377
2015    8       22     9   7    3.9916   515.6    4.850      49.343
2015    8       22     9  12    3.9865   515.6    4.841      49.309
2015    8       22     9  17    3.9814   515.6    4.832      49.275
2015    8       22     9  21    3.9763   515.7    4.824      49.240
2015    8       22     9  26    3.9713   515.7    4.815      49.206
2015    8       22     9  30    3.9664   515.8    4.807      49.172
2015    8       22     9  34    3.9614   515.8    4.798      49.138
2015    8       22     9  39    3.9565   515.8    4.790      49.105
2015    8       22     9  43    3.9515   515.9    4.781      49.071
2015    8       22     9  48    3.9465   515.9    4.773      49.037
2015    8       22     9  52    3.9415   515.9    4.764      49.002
2015    8       22     9  57    3.9365   516.0    4.756      48.966
2015    8       22    10   1    3.9314   516.0    4.747      48.928
2015    8       22    10   5    3.9264   516.0    4.738      48.889
2015    8       22    10  10    3.9213   516.0    4.730      48.850
2015    8       22    10  14    3.9163   516.0    4.721      48.809
2015    8       22    10  19    3.9112   516.0    4.713      48.766
2015    8       22    10  23    3.9061   516.0    4.705      48.722
2015    8       22    10  28    3.9012   516.0    4.697      48.679
2015    8       22    10  32    3.8962   516.0    4.689      48.635
2015    8       22    10  36    3.8912   516.0    4.681      48.591
2015    8       22    10  41    3.8863   516.0    4.673      48.547
2015    8       22    10  45    3.8813   516.0    4.666      48.502
2015    8       22    10  50    3.8763   516.0    4.658      48.457
2015    8       22    10  54    3.8713   515.9    4.651      48.412
2015    8       22    10  59    3.8664   515.9    4.644      48.367
2015    8       22    11   3    3.8615   515.9    4.637      48.323
2015    8       22    11   8    3.8566   515.9    4.630      48.279
2015    8       22    11  13    3.8518   515.9    4.624      48.237
2015    8       22    11  17    3.8470   515.8    4.618      48.194
2015    8       22    11  22    3.8422   515.8    4.612      48.151
2015    8       22    11  26    3.8375   515.8    4.606      48.110
2015    8       22    11  31    3.8327   515.8    4.600      48.068
2015    8       22    11  35    3.8280   515.7    4.594      48.027
2015    8       22    11  40    3.8233   515.7    4.589      47.987
2015    8       22    11  45    3.8186   515.7    4.583      47.948
2015    8       22    11  49    3.8139   515.7    4.578      47.909
2015    8       22    11  54    3.8092   515.7    4.573      47.870
2015    8       22    11  59    3.8044   515.6    4.567      47.832
2015    8       22    12   3    3.7997   515.6    4.562      47.793
2015    8       22    12   8    3.7949   515.6    4.556      47.754
2015    8       22    12  13    3.7901   515.6    4.551      47.714
2015    8       22    12  17    3.7854   515.6    4.546      47.673
2015    8       22    12  22    3.7805   515.6    4.540      47.632
2015    8       22    12  27    3.7757   515.5    4.535      47.591
2015    8       22    12  32    3.7708   515.5    4.530      47.549
2015    8       22    12  36    3.7660   515.5    4.525      47.507
2015    8       22    12  41    3.7611   515.5    4.519      47.464
2015    8       22    12  46    3.7562   515.4    4.514      47.420
2015    8       22    12  51    3.7513   515.4    4.509      47.376
2015    8       22    12  55    3.7464   515.4    4.503      47.332
2015    8       22    13   0    3.7414   515.4    4.498      47.286
2015    8       22    13   5    3.7364   515.3    4.492      47.239
2015    8       22    13  10    3.7315   515.3    4.487      47.191
2015    8       22    13  15    3.7264   515.3    4.482      47.143
2015    8       22    13  20    3.7213   515.2    4.476      47.092
2015    8       22    13  25    3.7163   515.2    4.471      47.041
2015    8       22    13  30    3.7112   515.1    4.465      46.989
2015    8       22    13  35    3.7061   515.1    4.460      46.936
2015    8       22    13  40    3.7008   515.1    4.454      46.881
2015    8       22    13  45    3.6957   515.0    4.449      46.826
2015    8       22    13  50    3.6905   515.0    4.443      46.771
2015    8       22    13  55    3.6853   514.9    4.438      46.715
2015    8       22    14   0    3.6801   514.8    4.433      46.658
2015    8       22    14   5    3.6749   514.8    4.427      46.601
2015    8       22    14  10    3.6697   514.7    4.422      46.544
2015    8       22    14  16    3.6645   514.6    4.416      46.486
2015    8       22    14  21    3.6592   514.6    4.411      46.427
2015    8       22    14  26    3.6540   514.5    4.405      46.368
2015    8       22    14  31    3.6488   514.4    4.400      46.308
2015    8       22    14  37    3.6435   514.4    4.394      46.248
2015    8       22    14  42    3.6383   514.3    4.388      46.187
2015    8       22    14  47    3.6330   514.2    4.383      46.125
2015    8       22    14  53    3.6278   514.1    4.377      46.063
2015    8       22    14  58    3.6225   514.0    4.371      46.000
2015    8       22    15   4    3.6173   513.9    4.365      45.937
2015    8       22    15   9    3.6121   513.8    4.360      45.873
2015    8       22    15  14    3.6069   513.8    4.354      45.808
2015    8       22    15  20    3.6017   513.7    4.348      45.743
2015    8       22    15  26    3.5964   513.6    4.342      45.678
2015    8       22    15  31    3.5913   513.5    4.336      45.612
2015    8       22    15  37    3.5861   513.4    4.330      45.546
2015    8       22    15  42    3.5809   513.3    4.324      45.479
2015    8       22    15  48    3.5758   513.2    4.318      45.412
2015    8       22    15  53    3.5707   513.1    4.312      45.345
2015    8       22    15  59    3.5655   513.0    4.306      45.277
2015    8       22    16   5    3.5604   512.9    4.300      45.209
2015    8       22    16  10    3.5553   512.8    4.293      45.141
2015    8       22    16  16    3.5503   512.6    4.287      45.072
2015    8       22    16  22    3.5452   512.5    4.281      45.003
2015    8       22    16  28    3.5402   512.4    4.275      44.934
2015    8       22    16  33    3.5352   512.3    4.269      44.863
2015    8       22    16  39    3.5302   512.2    4.263      44.793
2015    8       22    16  45    3.5252   512.0    4.257      44.722
2015    8       22    16  51    3.5202   511.9    4.251      44.651
2015    8       22    16  57    3.5153   511.7    4.245      44.578
2015    8       22    17   3    3.5104   511.6    4.239      44.505
2015    8       22    17   8    3.5055   511.4    4.233      44.432
2015    8       22    17  14    3.5006   511.3    4.227      44.357
2015    8       22    17  20    3.4958   511.1    4.221      44.282
2015    8       22    17  26    3.4910   511.0    4.216      44.206
2015    8       22    17  32    3.4862   510.8    4.210      44.129
2015    8       22    17  38    3.4815   510.7    4.205      44.052
2015    8       22    17  44    3.4767   510.5    4.200      43.975
2015    8       22    17  50    3.4720   510.3    4.195      43.898
2015    8       22    17  56    3.4674   510.2    4.190      43.822
2015    8       22    18   2    3.4627   510.0    4.185      43.746
2015    8       22    18   8    3.4581   509.8    4.180      43.670
2015    8       22    18  14    3.4535   509.6    4.176      43.596
2015    8       22    18  20    3.4489   509.5    4.172      43.522
2015    8       22    18  26    3.4444   509.3    4.168      43.449
2015    8       22    18  32    3.4399   509.1    4.164      43.377
2015    8       22    18  39    3.4355   509.0    4.161      43.306
2015    8       22    18  45    3.4310   508.8    4.158      43.236
2015    8       22    18  51    3.4266   508.6    4.154      43.168
2015    8       22    18  57    3.4222   508.5    4.151      43.101
2015    8       22    19   3    3.4178   508.3    4.149      43.035
2015    8       22    19  10    3.4134   508.2    4.146      42.969
2015    8       22    19  16    3.4090   508.0    4.143      42.904
2015    8       22    19  22    3.4046   507.9    4.140      42.838
2015    8       22    19  28    3.4002   507.7    4.137      42.772
2015    8       22    19  35    3.3958   507.6    4.134      42.706
2015    8       22    19  41    3.3913   507.4    4.132      42.639
2015    8       22    19  47    3.3869   507.2    4.129      42.571
2015    8       22    19  54    3.3824   507.1    4.126      42.503
2015    8       22    20   0    3.3780   506.9    4.124      42.435
2015    8       22    20   6    3.3736   506.7    4.121      42.366
2015    8       22    20  13    3.3692   506.6    4.118      42.297
2015    8       22    20  19    3.3647   506.4    4.116      42.227
2015    8       22    20  25    3.3604   506.2    4.113      42.158
2015    8       22    20  32    3.3560   506.0    4.111      42.088
2015    8       22    20  38    3.3517   505.9    4.109      42.018
2015    8       22    20  44    3.3474   505.7    4.106      41.948
2015    8       22    20  51    3.3431   505.5    4.104      41.878
2015    8       22    20  57    3.3388   505.3    4.102      41.808
2015    8       22    21   3    3.3346   505.1    4.100      41.738
2015    8       22    21  10    3.3304   504.9    4.098      41.667
2015    8       22    21  16    3.3263   504.8    4.096      41.598
2015    8       22    21  22    3.3221   504.6    4.095      41.527
2015    8       22    21  29    3.3180   504.4    4.093      41.458
2015    8       22    21  35    3.3139   504.2    4.091      41.387
2015    8       22    21  41    3.3099   504.0    4.090      41.317
2015    8       22    21  48    3.3058   503.8    4.088      41.246
2015    8       22    21  54    3.3019   503.6    4.086      41.176
2015    8       22    22   0    3.2979   503.4    4.085      41.105
2015    8       22    22   7    3.2940   503.2    4.083      41.035
2015    8       22    22  13    3.2901   503.0    4.082      40.965
2015    8       22    22  19    3.2863   502.8    4.081      40.895
2015    8       22    22  26    3.2824   502.6    4.079      40.824
2015    8       22    22  32    3.2787   502.4    4.078      40.755
2015    8       22    22  38    3.2749   502.2    4.077      40.685
2015    8       22    22  44    3.2712   501.9    4.076      40.616
2015    8       22    22  51    3.2676   501.7    4.075      40.547
2015    8       22    22  57    3.2639   501.5    4.074      40.479
2015    8       22    23   4    3.2603   501.3    4.073      40.410
2015    8       22    23  10    3.2568   501.1    4.072      40.343
2015    8       22    23  16    3.2532   500.9    4.071      40.276
2015    8       22    23  22    3.2497   500.7    4.071      40.209
2015    8       22    23  29    3.2462   500.5    4.070      40.142
2015    8       22    23  35    3.2428   500.2    4.069      40.077
2015    8       22    23  41    3.2393   500.0    4.069      40.011
2015    8       22    23  48    3.2359   499.8    4.068      39.946
2015    8       22    23  54    3.2325   499.6    4.068      39.880
2015    8       23     0   0    3.2292   499.4    4.067      39.816
2015    8       23     0   7    3.2259   499.1    4.067      39.751
2015    8       23     0  13    3.2226   498.9    4.066      39.688
2015    8       23     0  19    3.2193   498.7    4.066      39.624
2015    8       23     0  26    3.2160   498.5    4.065      39.561
2015    8       23     0  32    3.2127   498.3    4.065      39.498
2015    8       23     0  38    3.2095   498.0    4.064      39.436
2015    8       23     0  45    3.2063   497.8    4.063      39.372
2015    8       23     0  51    3.2031   497.6    4.063      39.309
2015    8       23     0  57    3.1999   497.4    4.062      39.245
2015    8       23     1   4    3.1968   497.1    4.061      39.182
2015    8       23     1  10    3.1937   496.9    4.060      39.118
2015    8       23     1  16    3.1906   496.7    4.059      39.055
2015    8       23     1  23    3.1875   496.5    4.058      38.990
2015    8       23     1  29    3.1844   496.2    4.056      38.926
2015    8       23     1  35    3.1813   496.0    4.055      38.862
2015    8       23     1  42    3.1783   495.8    4.054      38.797
2015    8       23     1  48    3.1752   495.6    4.053      38.732
2015    8       23     1  54    3.1722   495.3    4.051      38.667
2015    8       23     2   1    3.1691   495.1    4.050      38.601
2015    8       23     2   7    3.1661   494.9    4.048      38.536
2015    8       23     2  13    3.1631   494.7    4.046      38.469
2015    8       23     2  20    3.1601   494.4    4.045      38.404
2015    8       23     2  26    3.1571   494.2    4.043      38.336
2015    8       23     2  32    3.1541   494.0    4.041      38.270
2015    8       23     2  39    3.1511   493.8    4.040      38.202
2015    8       23     2  45    3.1482   493.5    4.038      38.135
2015    8       23     2  51    3.1452   493.3    4.036      38.067
2015    8       23     2  58    3.1423   493.1    4.034      37.999
2015    8       23     3   4    3.1394   492.9    4.032      37.931
2015    8       23     3  10    3.1365   492.6    4.030      37.863
2015    8       23     3  17    3.1336   492.4    4.028      37.793
2015    8       23     3  23    3.1307   492.2    4.026      37.725
2015    8       23     3  29    3.1279   491.9    4.024      37.655
2015    8       23     3  36    3.1250   491.7    4.022      37.586
2015    8       23     3  42    3.1222   491.5    4.020      37.516
2015    8       23     3  48    3.1194   491.2    4.019      37.447
2015    8       23     3  55    3.1166   491.0    4.017      37.376
2015    8       23     4   1    3.1138   490.8    4.015      37.306
2015    8       23     4   7    3.1111   490.5    4.013      37.236
2015    8       23     4  14    3.1084   490.3    4.011      37.166
2015    8       23     4  20    3.1057   490.0    4.009      37.095
2015    8       23     4  26    3.1030   489.8    4.007      37.025
2015    8       23     4  33    3.1004   489.6    4.006      36.955
2015    8       23     4  39    3.0978   489.3    4.004      36.885
2015    8       23     4  45    3.0952   489.1    4.002      36.814
2015    8       23     4  52    3.0926   488.8    4.001      36.745
2015    8       23     4  58    3.0901   488.6    4.000      36.675
2015    8       23     5   4    3.0876   488.3    3.998      36.605
2015    8       23     5  11    3.0851   488.1    3.997      36.536
2015    8       23     5  17    3.0826   487.9    3.996      36.467
2015    8       23     5  23    3.0802   487.6    3.994      36.398
2015    8       23     5  30    3.0778   487.4    3.993      36.330
2015    8       23     5  36    3.0754   487.1    3.992      36.262
2015    8       23     5  42    3.0731   486.9    3.992      36.194
2015    8       23     5  49    3.0707   486.6    3.991      36.127
2015    8       23     5  55    3.0684   486.4    3.990      36.061
2015    8       23     6   1    3.0662   486.1    3.989      35.994
2015    8       23     6   8    3.0639   485.9    3.989      35.929
2015    8       23     6  14    3.0617   485.6    3.988      35.864
2015    8       23     6  20    3.0595   485.4    3.988      35.800
2015    8       23     6  27    3.0573   485.1    3.988      35.735
2015    8       23     6  33    3.0552   484.9    3.987      35.672
2015    8       23     6  39    3.0530   484.6    3.987      35.609
2015    8       23     6  45    3.0509   484.3    3.987      35.548
2015    8       23     6  52    3.0488   484.1    3.987      35.486
2015    8       23     6  58    3.0468   483.8    3.987      35.426
2015    8       23     7   4    3.0447   483.6    3.987      35.365
2015    8       23     7  11    3.0427   483.3    3.988      35.306
2015    8       23     7  17    3.0407   483.1    3.988      35.247
2015    8       23     7  23    3.0387   482.8    3.988      35.189
2015    8       23     7  30    3.0367   482.6    3.989      35.131
2015    8       23     7  36    3.0348   482.3    3.989      35.074
2015    8       23     7  42    3.0328   482.1    3.990      35.017
2015    8       23     7  49    3.0309   481.8    3.990      34.961
2015    8       23     7  55    3.0290   481.5    3.991      34.905
2015    8       23     8   1    3.0271   481.3    3.991      34.849
2015    8       23     8   8    3.0253   481.0    3.992      34.792
2015    8       23     8  14    3.0234   480.7    3.992      34.737
2015    8       23     8  20    3.0215   480.5    3.993      34.680
2015    8       23     8  27    3.0197   480.2    3.993      34.624
2015    8       23     8  33    3.0178   479.9    3.994      34.567
2015    8       23     8  39    3.0160   479.7    3.994      34.511
2015    8       23     8  46    3.0142   479.4    3.995      34.455
2015    8       23     8  52    3.0124   479.1    3.995      34.399
2015    8       23     8  58    3.0105   478.9    3.996      34.342
2015    8       23     9   5    3.0088   478.6    3.997      34.286
2015    8       23     9  11    3.0070   478.3    3.997      34.229
2015    8       23     9  17    3.0052   478.0    3.998      34.173
2015    8       23     9  24    3.0034   477.8    3.999      34.117
2015    8       23     9  30    3.0017   477.5    4.000      34.061
2015    8       23     9  36    3.0000   477.2    4.000      34.004
2015    8       23     9  43    2.9982   476.9    4.001      33.949
2015    8       23     9  49    2.9965   476.6    4.002      33.892
2015    8       23     9  55    2.9949   476.4    4.003      33.837
2015    8       23    10   2    2.9932   476.1    4.004      33.780
2015    8       23    10   8    2.9916   475.8    4.006      33.725
2015    8       23    10  14    2.9900   475.5    4.007      33.669
2015    8       23    10  21    2.9884   475.2    4.008      33.614
2015    8       23    10  27    2.9868   474.9    4.009      33.558
2015    8       23    10  33    2.9853   474.7    4.011      33.504
2015    8       23    10  40    2.9838   474.4    4.012      33.448
2015    8       23    10  46    2.9823   474.1    4.013      33.394
2015    8       23    10  52    2.9809   473.8    4.015      33.339
2015    8       23    10  59    2.9794   473.5    4.017      33.285
2015    8       23    11   5    2.9780   473.2    4.018      33.231
2015    8       23    11  11    2.9767   472.9    4.020      33.178
2015    8       23    11  18    2.9753   472.6    4.021      33.124
2015    8       23    11  24    2.9740   472.4    4.023      33.071
2015    8       23    11  30    2.9727   472.1    4.025      33.018
2015    8       23    11  37    2.9715   471.8    4.026      32.965
2015    8       23    11  43    2.9703   471.5    4.028      32.912
2015    8       23    11  49    2.9691   471.2    4.030      32.860
2015    8       23    11  56    2.9679   470.9    4.031      32.808
2015    8       23    12   2    2.9667   470.6    4.033      32.756
2015    8       23    12   8    2.9656   470.3    4.035      32.704
2015    8       23    12  15    2.9645   470.0    4.036      32.653
2015    8       23    12  21    2.9634   469.7    4.038      32.601
2015    8       23    12  27    2.9624   469.5    4.040      32.550
2015    8       23    12  34    2.9613   469.2    4.041      32.499
2015    8       23    12  40    2.9603   468.9    4.043      32.448
2015    8       23    12  46    2.9593   468.6    4.045      32.397
2015    8       23    12  53    2.9583   468.3    4.046      32.347
2015    8       23    12  59    2.9573   468.0    4.048      32.296
2015    8       23    13   5    2.9563   467.7    4.049      32.246
2015    8       23    13  12    2.9553   467.4    4.051      32.196
2015    8       23    13  18    2.9543   467.1    4.052      32.146
2015    8       23    13  24    2.9534   466.8    4.053      32.095
2015    8       23    13  30    2.9524   466.5    4.055      32.046
2015    8       23    13  37    2.9515   466.2    4.056      31.996
2015    8       23    13  43    2.9505   465.9    4.058      31.946
2015    8       23    13  50    2.9496   465.6    4.059      31.896
2015    8       23    13  56    2.9487   465.3    4.061      31.847
2015    8       23    14   2    2.9478   465.0    4.062      31.797
2015    8       23    14   8    2.9469   464.7    4.063      31.747
2015    8       23    14  15    2.9460   464.4    4.065      31.697
2015    8       23    14  21    2.9452   464.1    4.066      31.648
2015    8       23    14  27    2.9443   463.8    4.068      31.598
2015    8       23    14  34    2.9435   463.5    4.069      31.549
2015    8       23    14  40    2.9427   463.2    4.071      31.500
2015    8       23    14  46    2.9419   462.8    4.072      31.451
2015    8       23    14  53    2.9411   462.5    4.074      31.401
2015    8       23    14  59    2.9404   462.2    4.076      31.352
2015    8       23    15   5    2.9396   461.9    4.077      31.303
2015    8       23    15  12    2.9389   461.6    4.079      31.255
2015    8       23    15  18    2.9382   461.3    4.081      31.206
2015    8       23    15  24    2.9375   461.0    4.083      31.158
2015    8       23    15  31    2.9369   460.7    4.085      31.109
2015    8       23    15  37    2.9363   460.4    4.087      31.061
2015    8       23    15  43    2.9357   460.0    4.089      31.013
2015    8       23    15  50    2.9351   459.7    4.091      30.966
2015    8       23    15  56    2.9346   459.4    4.094      30.918
2015    8       23    16   2    2.9340   459.1    4.096      30.871
2015    8       23    16   9    2.9335   458.8    4.099      30.824
2015    8       23    16  15    2.9331   458.4    4.101      30.777
2015    8       23    16  21    2.9327   458.1    4.104      30.730
2015    8       23    16  28    2.9323   457.8    4.107      30.684
2015    8       23    16  34    2.9319   457.5    4.110      30.638
2015    8       23    16  40    2.9316   457.2    4.113      30.593
2015    8       23    16  47    2.9314   456.8    4.117      30.547
2015    8       23    16  53    2.9311   456.5    4.120      30.502
2015    8       23    16  59    2.9309   456.2    4.124      30.457
2015    8       23    17   6    2.9308   455.9    4.127      30.413
2015    8       23    17  12    2.9307   455.5    4.131      30.369
2015    8       23    17  18    2.9307   455.2    4.135      30.326
2015    8       23    17  25    2.9307   454.9    4.140      30.282
2015    8       23    17  31    2.9307   454.5    4.144      30.240
2015    8       23    17  37    2.9309   454.2    4.149      30.198
2015    8       23    17  44    2.9310   453.9    4.153      30.157
2015    8       23    17  50    2.9313   453.5    4.158      30.116
2015    8       23    17  56    2.9316   453.2    4.163      30.076
2015    8       23    18   3    2.9319   452.9    4.168      30.037
2015    8       23    18   9    2.9324   452.5    4.174      29.998
2015    8       23    18  15    2.9328   452.2    4.179      29.960
2015    8       23    18  22    2.9334   451.9    4.185      29.923
2015    8       23    18  28    2.9340   451.5    4.191      29.886
2015    8       23    18  34    2.9347   451.2    4.197      29.851
2015    8       23    18  41    2.9354   450.9    4.203      29.815
2015    8       23    18  47    2.9362   450.5    4.210      29.781
2015    8       23    18  53    2.9371   450.2    4.216      29.747
2015    8       23    19   0    2.9380   449.9    4.223      29.715
2015    8       23    19   6    2.9390   449.6    4.230      29.682
2015    8       23    19  12    2.9400   449.2    4.237      29.651
2015    8       23    19  19    2.9411   448.9    4.244      29.619
2015    8       23    19  25    2.9423   448.6    4.251      29.589
2015    8       23    19  31    2.9435   448.2    4.259      29.560
2015    8       23    19  38    2.9447   447.9    4.266      29.531
2015    8       23    19  44    2.9461   447.6    4.274      29.502
2015    8       23    19  50    2.9474   447.3    4.282      29.475
2015    8       23    19  57    2.9489   446.9    4.290      29.448
2015    8       23    20   3    2.9503   446.6    4.298      29.421
2015    8       23    20   9    2.9518   446.3    4.306      29.395
2015    8       23    20  15    2.9533   446.0    4.314      29.370
2015    8       23    20  22    2.9549   445.6    4.322      29.345
2015    8       23    20  28    2.9564   445.3    4.331      29.321
2015    8       23    20  34    2.9581   445.0    4.339      29.297
2015    8       23    20  41    2.9597   444.7    4.348      29.274
2015    8       23    20  47    2.9614   444.4    4.356      29.251
2015    8       23    20  53    2.9631   444.0    4.365      29.229
2015    8       23    21   0    2.9648   443.7    4.374      29.207
2015    8       23    21   6    2.9666   443.4    4.383      29.186
2015    8       23    21  12    2.9684   443.1    4.392      29.165
2015    8       23    21  19    2.9703   442.8    4.400      29.145
2015    8       23    21  25    2.9722   442.5    4.409      29.125
2015    8       23    21  31    2.9741   442.1    4.418      29.105
2015    8       23    21  38    2.9760   441.8    4.428      29.086
2015    8       23    21  44    2.9780   441.5    4.437      29.067
2015    8       23    21  50    2.9801   441.2    4.446      29.048
2015    8       23    21  57    2.9822   440.9    4.455      29.029
2015    8       23    22   3    2.9843   440.6    4.465      29.011
2015    8       23    22   9    2.9865   440.3    4.474      28.993
2015    8       23    22  16    2.9887   440.0    4.483      28.975
2015    8       23    22  22    2.9909   439.7    4.493      28.958
2015    8       23    22  28    2.9933   439.4    4.503      28.941
2015    8       23    22  35    2.9956   439.1    4.512      28.924
2015    8       23    22  41    2.9980   438.8    4.522      28.907
2015    8       23    22  47    3.0004   438.5    4.532      28.891
2015    8       23    22  54    3.0029   438.2    4.541      28.875
2015    8       23    23   0    3.0054   437.9    4.551      28.859
2015    8       23    23   6    3.0080   437.6    4.561      28.843
2015    8       23    23  13    3.0105   437.3    4.571      28.827
2015    8       23    23  19    3.0132   437.0    4.581      28.812
2015    8       23    23  25    3.0158   436.7    4.591      28.797
2015    8       23    23  32    3.0186   436.4    4.601      28.782
2015    8       23    23  38    3.0213   436.1    4.611      28.767
2015    8       23    23  44    3.0241   435.8    4.621      28.752
2015    8       23    23  50    3.0269   435.5    4.631      28.738
2015    8       23    23  57    3.0298   435.2    4.641      28.724
2015    8       24     0   3    3.0327   434.9    4.651      28.710
2015    8       24     0   9    3.0357   434.6    4.661      28.696
2015    8       24     0  16    3.0387   434.4    4.672      28.683
2015    8       24     0  22    3.0418   434.1    4.682      28.669
2015    8       24     0  28    3.0449   433.8    4.692      28.657
2015    8       24     0  35    3.0481   433.5    4.703      28.644
2015    8       24     0  41    3.0513   433.2    4.713      28.631
2015    8       24     0  47    3.0545   432.9    4.724      28.619
2015    8       24     0  54    3.0578   432.7    4.734      28.608
2015    8       24     1   0    3.0612   432.4    4.745      28.596
2015    8       24     1   6    3.0646   432.1    4.756      28.585
2015    8       24     1  13    3.0681   431.8    4.767      28.574
2015    8       24     1  19    3.0716   431.6    4.777      28.564
2015    8       24     1  25    3.0753   431.3    4.789      28.554
2015    8       24     1  32    3.0789   431.0    4.800      28.544
2015    8       24     1  38    3.0827   430.7    4.811      28.535
2015    8       24     1  44    3.0864   430.5    4.822      28.527
2015    8       24     1  51    3.0903   430.2    4.834      28.518
2015    8       24     1  57    3.0942   429.9    4.845      28.511
2015    8       24     2   3    3.0982   429.7    4.857      28.503
2015    8       24     2  10    3.1022   429.4    4.869      28.497
2015    8       24     2  16    3.1064   429.1    4.881      28.491
2015    8       24     2  22    3.1105   428.9    4.893      28.485
2015    8       24     2  29    3.1148   428.6    4.905      28.480
2015    8       24     2  35    3.1190   428.4    4.918      28.476
2015    8       24     2  41    3.1235   428.1    4.930      28.471
2015    8       24     2  48    3.1279   427.8    4.943      28.468
2015    8       24     2  54    3.1324   427.6    4.956      28.465
2015    8       24     3   0    3.1370   427.3    4.969      28.463
2015    8       24     3   7    3.1416   427.1    4.982      28.462
2015    8       24     3  13    3.1463   426.8    4.996      28.462
2015    8       24     3  19    3.1511   426.6    5.009      28.462
2015    8       24     3  26    3.1560   426.4    5.023      28.463
2015    8       24     3  32    3.1609   426.1    5.037      28.465
2015    8       24     3  38    3.1658   425.9    5.051      28.468
2015    8       24     3  45    3.1709   425.6    5.066      28.473
2015    8       24     3  51    3.1760   425.4    5.080      28.478
2015    8       24     3  57    3.1812   425.2    5.095      28.485
2015    8       24     4   4    3.1864   425.0    5.110      28.492
2015    8       24     4  10    3.1917   424.7    5.125      28.502
2015    8       24     4  16    3.1970   424.5    5.140      28.512
2015    8       24     4  23    3.2025   424.3    5.155      28.525
2015    8       24     4  29    3.2079   424.1    5.170      28.539
2015    8       24     4  35    3.2135   423.9    5.186      28.556
2015    8       24     4  42    3.2191   423.7    5.202      28.576
2015    8       24     4  48    3.2249   423.5    5.218      28.601
2015    8       24     4  54    3.2307   423.3    5.234      28.632
2015    8       24     5   1    3.2367   423.1    5.251      28.671
2015    8       24     5   7    3.2428   423.0    5.269      28.720
2015    8       24     5  13    3.2493   422.8    5.287      28.785
2015    8       24     5  20    3.2560   422.7    5.306      28.870
2015    8       24     5  26    3.2633   422.5    5.326      28.984
2015    8       24     5  32    3.2711   422.4    5.347      29.137
2015    8       24     5  39    3.2801   422.4    5.371      29.344
2015    8       24     5  45    3.2899   422.4    5.397      29.621
2015    8       24     5  51    3.3018   422.4    5.426      29.998
2015    8       24     5  57    3.3152   422.6    5.459      30.500
2015    8       24     6   4    3.3319   422.8    5.497      31.177
2015    8       24     6  10    3.3510   423.2    5.542      32.068
2015    8       24     6  16    3.3750   423.7    5.594      33.248
2015    8       24     6  23    3.4023   424.5    5.656      34.765
2015    8       24     6  29    3.4364   425.5    5.729      36.740
2015    8       24     6  35    3.4751   426.7    5.814      39.189
2015    8       24     6  42    3.5220   428.3    5.915      42.280
2015    8       24     6  48    3.5755   430.4    6.033      46.025
2015    8       24     6  54    3.6407   432.6    6.172      50.561
2015    8       24     7   1    3.7133   435.4    6.338      55.715
2015    8       24     7   7    3.7953   438.8    6.528      61.901
2015    8       24     7  13    3.8818   442.6    6.734      68.962
2015    8       24     7  20    3.9736   446.7    6.957      76.610
2015    8       24     7  26    4.0651   451.1    7.182      84.414
2015    8       24     7  32    4.1603   455.2    7.412      92.254
2015    8       24     7  39    4.2556   459.1    7.640      99.402
2015    8       24     7  45    4.3552   462.8    7.873     106.085
2015    8       24     7  51    4.4555   466.2    8.106     112.126
2015    8       24     7  58    4.5613   469.4    8.347     117.814
2015    8       24     8   4    4.6723   472.5    8.592     123.021
2015    8       24     8  10    4.7919   475.4    8.852     127.931
2015    8       24     8  17    4.9162   478.1    9.126     132.438
2015    8       24     8  23    5.0492   481.0    9.418     136.911
2015    8       24     8  29    5.1851   483.8    9.722     141.394
2015    8       24     8  36    5.3277   486.6   10.043     145.903
2015    8       24     8  42    5.4723   489.4   10.370     150.363
2015    8       24     8  48    5.6242   492.1   10.710     154.844
2015    8       24     8  55    5.7803   494.6   11.058     159.055
2015    8       24     9   1    5.9472   497.1   11.423     163.186
2015    8       24     9   7    6.1185   499.2   11.811     166.968
2015    8       24     9  14    6.2961   501.4   12.224     170.667
2015    8       24     9  20    6.4733   503.8   12.647     174.597
2015    8       24     9  26    6.6490   506.2   13.082     178.676
2015    8       24     9  33    6.8163   508.7   13.509     182.757
2015    8       24     9  39    6.9774   511.2   13.924     186.904
2015    8       24     9  45    7.1291   513.5   14.316     190.823
2015    8       24     9  52    7.2736   515.6   14.691     194.388
2015    8       24     9  58    7.4079   517.5   15.042     197.514
2015    8       24    10   4    7.5366   519.3   15.376     200.323
2015    8       24    10  11    7.6598   521.0   15.688     202.812
2015    8       24    10  17    7.7774   522.3   15.991     204.962
2015    8       24    10  23    7.8875   523.7   16.284     206.718
2015    8       24    10  30    7.9884   525.0   16.570     208.307
2015    8       24    10  36    8.0762   526.2   16.839     209.835
2015    8       24    10  42    8.1503   527.4   17.094     211.313
2015    8       24    10  49    8.2113   528.6   17.320     212.774
2015    8       24    10  55    8.2587   529.8   17.519     214.218
2015    8       24    11   1    8.2945   530.8   17.687     215.467
2015    8       24    11   8    8.3171   531.8   17.830     216.523
2015    8       24    11  14    8.3292   532.6   17.944     217.371
2015    8       24    11  20    8.3293   533.4   18.033     218.069
2015    8       24    11  27    8.3209   534.0   18.097     218.610
2015    8       24    11  33    8.3019   534.6   18.141     218.982
2015    8       24    11  39    8.2760   535.1   18.164     219.186
2015    8       24    11  46    8.2409   535.5   18.170     219.244
2015    8       24    11  52    8.2008   535.8   18.160     219.175
2015    8       24    11  58    8.1532   536.1   18.137     218.981
2015    8       24    12   4    8.1023   536.3   18.100     218.678
2015    8       24    12  11    8.0459   536.5   18.052     218.266
2015    8       24    12  17    7.9877   536.6   17.992     217.754
2015    8       24    12  23    7.9255   536.7   17.923     217.144
2015    8       24    12  30    7.8630   536.8   17.846     216.462
2015    8       24    12  36    7.7972   536.9   17.760     215.703
2015    8       24    12  42    7.7311   536.9   17.669     214.883
2015    8       24    12  49    7.6619   536.9   17.572     214.009
2015    8       24    12  55    7.5923   537.0   17.470     213.105
2015    8       24    13   1    7.5195   537.0   17.362     212.155
2015    8       24    13   8    7.4460   537.0   17.250     211.182
2015    8       24    13  14    7.3693   537.0   17.133     210.178
2015    8       24    13  20    7.2922   536.9   17.014     209.164
2015    8       24    13  27    7.2119   536.9   16.891     208.109
2015    8       24    13  33    7.1308   536.8   16.766     207.036
2015    8       24    13  39    7.0472   536.8   16.636     205.913
2015    8       24    13  46    6.9636   536.7   16.505     204.770
2015    8       24    13  52    6.8782   536.6   16.369     203.579
2015    8       24    13  58    6.7936   536.5   16.233     202.363
2015    8       24    14   5    6.7081   536.4   16.093     201.083
2015    8       24    14  11    6.6238   536.3   15.952     199.771
2015    8       24    14  17    6.5390   536.2   15.809     198.398
2015    8       24    14  24    6.4555   536.1   15.667     196.996
2015    8       24    14  30    6.3719   536.0   15.522     195.552
2015    8       24    14  36    6.2896   535.9   15.377     194.104
2015    8       24    14  43    6.2073   535.8   15.230     192.623
2015    8       24    14  49    6.1266   535.7   15.083     191.135
2015    8       24    14  55    6.0466   535.6   14.933     189.622
2015    8       24    15   2    5.9688   535.5   14.782     188.104
2015    8       24    15   8    5.8922   535.4   14.630     186.548
2015    8       24    15  14    5.8185   535.3   14.478     184.995
2015    8       24    15  21    5.7465   535.2   14.326     183.416
2015    8       24    15  27    5.6771   535.1   14.176     181.836
2015    8       24    15  33    5.6093   535.0   14.025     180.240
2015    8       24    15  39    5.5439   534.9   13.877     178.680
2015    8       24    15  46    5.4801   534.8   13.728     177.126
2015    8       24    15  52    5.4185   534.8   13.582     175.615
2015    8       24    15  59    5.3583   534.7   13.434     174.115
2015    8       24    16   5    5.3000   534.7   13.290     172.667
2015    8       24    16  11    5.2431   534.6   13.146     171.233
2015    8       24    16  17    5.1879   534.6   13.005     169.842
2015    8       24    16  24    5.1341   534.6   12.864     168.459
2015    8       24    16  30    5.0818   534.5   12.726     167.118
2015    8       24    16  37    5.0308   534.5   12.589     165.788
2015    8       24    16  43    4.9813   534.4   12.455     164.501
2015    8       24    16  49    4.9331   534.4   12.322     163.224
2015    8       24    16  55    4.8862   534.3   12.192     161.986
2015    8       24    17   2    4.8406   534.3   12.062     160.761
2015    8       24    17   8    4.7962   534.2   11.936     159.578
2015    8       24    17  14    4.7529   534.2   11.810     158.411
2015    8       24    17  21    4.7106   534.1   11.688     157.289
2015    8       24    17  27    4.6693   534.1   11.565     156.186
2015    8       24    17  33    4.6289   534.0   11.446     155.127
2015    8       24    17  40    4.5893   534.0   11.327     154.085
2015    8       24    17  46    4.5506   533.9   11.211     153.081
2015    8       24    17  52    4.5126   533.9   11.095     152.088
2015    8       24    17  59    4.4754   533.8   10.981     151.128
2015    8       24    18   5    4.4390   533.8   10.868     150.175
2015    8       24    18  11    4.4033   533.7   10.758     149.245
2015    8       24    18  18    4.3684   533.7   10.649     148.317
2015    8       24    18  24    4.3342   533.6   10.542     147.410
2015    8       24    18  30    4.3007   533.6   10.435     146.505
2015    8       24    18  37    4.2679   533.5   10.330     145.620
2015    8       24    18  43    4.2359   533.5   10.226     144.737
2015    8       24    18  49    4.2045   533.5   10.124     143.875
2015    8       24    18  56    4.1739   533.4   10.021     143.016
2015    8       24    19   2    4.1440   533.4    9.920     142.178
2015    8       24    19   8    4.1149   533.4    9.819     141.343
2015    8       24    19  15    4.0866   533.4    9.719     140.528
2015    8       24    19  21    4.0592   533.4    9.618     139.716
2015    8       24    19  27    4.0328   533.4    9.518     138.922
2015    8       24    19  34    4.0075   533.4    9.417     138.128
2015    8       24    19  40    3.9831   533.4    9.317     137.348
2015    8       24    19  46    3.9599   533.4    9.215     136.565
2015    8       24    19  53    3.9376   533.4    9.114     135.793
2015    8       24    19  59    3.9167   533.4    9.011     135.013
2015    8       24    20   5    3.8967   533.4    8.908     134.238
2015    8       24    20  12    3.8780   533.3    8.803     133.449
2015    8       24    20  18    3.8603   533.3    8.699     132.662
2015    8       24    20  24    3.8440   533.3    8.592     131.859
2015    8       24    20  30    3.8287   533.3    8.486     131.055
2015    8       24    20  37    3.8150   533.3    8.378     130.234
2015    8       24    20  43    3.8022   533.3    8.270     129.409
2015    8       24    20  49    3.7911   533.3    8.160     128.562
2015    8       24    20  56    3.7808   533.2    8.050     127.709
2015    8       24    21   2    3.7721   533.2    7.939     126.833
2015    8       24    21   8    3.7643   533.2    7.828     125.951
2015    8       24    21  15    3.7581   533.2    7.716     125.035
2015    8       24    21  21    3.7528   533.2    7.604     124.108
2015    8       24    21  27    3.7491   533.1    7.491     123.157
2015    8       24    21  34    3.7461   533.1    7.379     122.204
2015    8       24    21  40    3.7448   533.1    7.265     121.239
2015    8       24    21  46    3.7442   533.1    7.152     120.286
2015    8       24    21  53    3.7451   533.1    7.038     119.333
2015    8       24    21  59    3.7467   533.1    6.925     118.391
2015    8       24    22   5    3.7498   533.1    6.811     117.442
2015    8       24    22  12    3.7534   533.1    6.699     116.506
2015    8       24    22  18    3.7586   533.1    6.587     115.562
2015    8       24    22  24    3.7641   533.0    6.478     114.631
2015    8       24    22  31    3.7710   533.0    6.369     113.700
2015    8       24    22  37    3.7782   532.9    6.263     112.793
2015    8       24    22  43    3.7866   532.9    6.157     111.886
2015    8       24    22  50    3.7950   532.8    6.054     111.002
2015    8       24    22  56    3.8046   532.7    5.952     110.116
2015    8       24    23   2    3.8143   532.7    5.853     109.248
2015    8       24    23   9    3.8249   532.6    5.754     108.376
2015    8       24    23  15    3.8356   532.6    5.659     107.519
2015    8       24    23  21    3.8470   532.5    5.564     106.657
2015    8       24    23  28    3.8584   532.4    5.472     105.808
2015    8       24    23  34    3.8706   532.4    5.381     104.951
2015    8       24    23  40    3.8826   532.3    5.292     104.108
2015    8       24    23  47    3.8954   532.3    5.204     103.256
2015    8       24    23  53    3.9082   532.2    5.119     102.417
2015    8       24    23  59    3.9217   532.1    5.033     101.570
2015    8       25     0   6    3.9351   532.1    4.950     100.734
2015    8       25     0  12    3.9492   532.1    4.868      99.887
2015    8       25     0  18    3.9633   532.0    4.787      99.049
2015    8       25     0  25    3.9779   532.0    4.706      98.202
2015    8       25     0  31    3.9926   532.0    4.628      97.366
2015    8       25     0  37    4.0077   531.9    4.548      96.509
2015    8       25     0  44    4.0227   531.9    4.471      95.651
2015    8       25     0  50    4.0380   531.9    4.393      94.778
2015    8       25     0  56    4.0533   531.9    4.316      93.917
2015    8       25     1   3    4.0687   531.9    4.239      93.057
2015    8       25     1   9    4.0841   531.9    4.162      92.214
2015    8       25     1  15    4.0996   531.8    4.085      91.379
2015    8       25     1  21    4.1151   531.8    4.010      90.571
2015    8       25     1  28    4.1308   531.7    3.935      89.768
2015    8       25     1  34    4.1465   531.6    3.862      88.981
2015    8       25     1  40    4.1623   531.4    3.790      88.185
2015    8       25     1  47    4.1781   531.2    3.721      87.397
2015    8       25     1  53    4.1940   531.1    3.654      86.602
2015    8       25     1  59    4.2099   530.9    3.588      85.819
2015    8       25     2   6    4.2260   530.7    3.524      85.031
2015    8       25     2  12    4.2422   530.5    3.463      84.254
2015    8       25     2  18    4.2586   530.3    3.402      83.468
2015    8       25     2  25    4.2751   530.1    3.345      82.692
2015    8       25     2  31    4.2917   529.9    3.288      81.907
2015    8       25     2  37    4.3085   529.6    3.234      81.133
2015    8       25     2  44    4.3255   529.4    3.181      80.352
2015    8       25     2  50    4.3427   529.1    3.130      79.582
2015    8       25     2  56    4.3601   528.9    3.080      78.808
2015    8       25     3   3    4.3776   528.6    3.033      78.043
2015    8       25     3   9    4.3953   528.3    2.987      77.277
2015    8       25     3  15    4.4131   528.1    2.942      76.522
2015    8       25     3  22    4.4312   527.8    2.899      75.766
2015    8       25     3  28    4.4494   527.5    2.858      75.023
2015    8       25     3  34    4.4679   527.2    2.818      74.279
2015    8       25     3  41    4.4865   526.9    2.780      73.549
2015    8       25     3  47    4.5055   526.6    2.742      72.818
2015    8       25     3  53    4.5246   526.4    2.707      72.100
2015    8       25     4   0    4.5438   526.1    2.672      71.383
2015    8       25     4   6    4.5631   525.8    2.639      70.678
2015    8       25     4  12    4.5824   525.6    2.607      69.971
2015    8       25     4  18    4.6015   525.3    2.576      69.275
2015    8       25     4  25    4.6205   525.1    2.546      68.574
2015    8       25     4  31    4.6393   524.8    2.518      67.884
2015    8       25     4  37    4.6579   524.6    2.491      67.188
2015    8       25     4  44    4.6763   524.4    2.464      66.501
2015    8       25     4  50    4.6945   524.2    2.439      65.807
2015    8       25     4  56    4.7125   524.0    2.415      65.123
2015    8       25     5   3    4.7302   523.9    2.392      64.432
2015    8       25     5   9    4.7477   523.7    2.370      63.749
2015    8       25     5  15    4.7649   523.5    2.349      63.061
2015    8       25     5  22    4.7820   523.4    2.329      62.381
2015    8       25     5  28    4.7989   523.2    2.309      61.697
2015    8       25     5  34    4.8155   523.1    2.291      61.021
2015    8       25     5  41    4.8319   523.0    2.274      60.340
2015    8       25     5  47    4.8481   522.9    2.257      59.669
2015    8       25     5  53    4.8642   522.7    2.241      58.991
2015    8       25     6   0    4.8800   522.7    2.226      58.323
2015    8       25     6   6    4.8955   522.6    2.212      57.649
2015    8       25     6  12    4.9106   522.5    2.199      56.985
2015    8       25     6  19    4.9255   522.5    2.186      56.313
2015    8       25     6  25    4.9399   522.4    2.173      55.651
2015    8       25     6  31    4.9538   522.4    2.162      54.981
2015    8       25     6  38    4.9672   522.4    2.151      54.322
2015    8       25     6  44    4.9801   522.4    2.141      53.656
2015    8       25     6  50    4.9926   522.5    2.131      53.001
2015    8       25     6  57    5.0045   522.5    2.122      52.340
2015    8       25     7   3    5.0159   522.6    2.113      51.692
2015    8       25     7   9    5.0268   522.7    2.105      51.040
2015    8       25     7  16    5.0373   522.8    2.098      50.402
2015    8       25     7  22    5.0472   522.9    2.091      49.763
2015    8       25     7  28    5.0567   523.0    2.084      49.140
2015    8       25     7  35    5.0658   523.1    2.078      48.519
2015    8       25     7  41    5.0745   523.2    2.073      47.915
2015    8       25     7  47    5.0827   523.3    2.069      47.315
2015    8       25     7  54    5.0907   523.4    2.065      46.736
2015    8       25     8   0    5.0982   523.5    2.061      46.163
2015    8       25     8   6    5.1055   523.6    2.058      45.611
2015    8       25     8  13    5.1123   523.7    2.055      45.068
2015    8       25     8  19    5.1189   523.8    2.053      44.547
2015    8       25     8  25    5.1251   523.9    2.051      44.038
2015    8       25     8  32    5.1311   524.0    2.050      43.550
2015    8       25     8  38    5.1366   524.1    2.049      43.075
2015    8       25     8  44    5.1420   524.2    2.049      42.620
2015    8       25     8  51    5.1469   524.3    2.049      42.178
2015    8       25     8  57    5.1517   524.5    2.050      41.756
2015    8       25     9   3    5.1560   524.6    2.051      41.344
2015    8       25     9   9    5.1601   524.7    2.052      40.951
2015    8       25     9  16    5.1639   524.8    2.055      40.569
2015    8       25     9  22    5.1675   524.9    2.057      40.204
2015    8       25     9  28    5.1707   525.0    2.061      39.849
2015    8       25     9  35    5.1738   525.1    2.064      39.511
2015    8       25     9  41    5.1765   525.2    2.069      39.183
2015    8       25     9  47    5.1790   525.4    2.073      38.872
2015    8       25     9  54    5.1811   525.4    2.079      38.571
2015    8       25    10   0    5.1831   525.5    2.085      38.286
2015    8       25    10   6    5.1847   525.6    2.091      38.012
2015    8       25    10  13    5.1861   525.7    2.098      37.753
2015    8       25    10  19    5.1872   525.8    2.105      37.505
2015    8       25    10  25    5.1881   525.9    2.113      37.271
2015    8       25    10  32    5.1886   526.0    2.121      37.047
2015    8       25    10  38    5.1890   526.1    2.130      36.836
2015    8       25    10  44    5.1890   526.2    2.139      36.633
2015    8       25    10  51    5.1888   526.3    2.148      36.442
2015    8       25    10  57    5.1882   526.4    2.158      36.256
2015    8       25    11   3    5.1874   526.5    2.169      36.079
2015    8       25    11  10    5.1861   526.7    2.180      35.907
2015    8       25    11  16    5.1848   526.8    2.191      35.743
2015    8       25    11  22    5.1829   526.9    2.203      35.583
2015    8       25    11  29    5.1809   527.0    2.215      35.431
2015    8       25    11  35    5.1783   527.1    2.228      35.284
2015    8       25    11  41    5.1756   527.3    2.241      35.145
2015    8       25    11  48    5.1722   527.4    2.254      35.011
2015    8       25    11  54    5.1688   527.5    2.268      34.886
2015    8       25    12   0    5.1647   527.6    2.282      34.766
2015    8       25    12   6    5.1606   527.7    2.297      34.655
2015    8       25    12  13    5.1558   527.8    2.312      34.550
2015    8       25    12  19    5.1509   527.9    2.327      34.452
2015    8       25    12  25    5.1453   528.1    2.343      34.359
2015    8       25    12  32    5.1397   528.2    2.359      34.274
2015    8       25    12  38    5.1335   528.2    2.376      34.194
2015    8       25    12  44    5.1272   528.3    2.393      34.121
2015    8       25    12  51    5.1203   528.4    2.410      34.053
2015    8       25    12  57    5.1133   528.5    2.428      33.992
2015    8       25    13   3    5.1058   528.6    2.446      33.937
2015    8       25    13  10    5.0983   528.6    2.464      33.889
2015    8       25    13  16    5.0902   528.7    2.483      33.849
2015    8       25    13  22    5.0821   528.7    2.502      33.816
2015    8       25    13  29    5.0736   528.8    2.522      33.792
2015    8       25    13  35    5.0651   528.8    2.542      33.778
2015    8       25    13  41    5.0561   528.9    2.563      33.772
2015    8       25    13  48    5.0472   528.9    2.583      33.777
2015    8       25    13  54    5.0378   528.9    2.605      33.791
2015    8       25    14   0    5.0285   528.9    2.626      33.815
2015    8       25    14   7    5.0187   528.9    2.648      33.849
2015    8       25    14  13    5.0091   528.9    2.671      33.893
2015    8       25    14  19    4.9989   528.9    2.694      33.947
2015    8       25    14  26    4.9889   528.9    2.717      34.011
2015    8       25    14  32    4.9783   528.9    2.741      34.085
2015    8       25    14  38    4.9680   528.9    2.765      34.167
2015    8       25    14  45    4.9571   528.9    2.789      34.260
2015    8       25    14  51    4.9465   528.8    2.814      34.360
2015    8       25    14  57    4.9354   528.8    2.840      34.468
2015    8       25    15   4    4.9245   528.8    2.866      34.586
2015    8       25    15  10    4.9131   528.8    2.892      34.713
2015    8       25    15  16    4.9020   528.8    2.918      34.845
2015    8       25    15  23    4.8904   528.8    2.945      34.985
2015    8       25    15  29    4.8791   528.8    2.971      35.130
2015    8       25    15  35    4.8674   528.9    2.998      35.280
2015    8       25    15  42    4.8560   528.9    3.024      35.431
2015    8       25    15  48    4.8442   528.9    3.051      35.586
2015    8       25    15  54    4.8326   528.9    3.077      35.742
2015    8       25    16   1    4.8208   528.9    3.104      35.901
2015    8       25    16   7    4.8091   528.9    3.131      36.062
2015    8       25    16  13    4.7973   528.9    3.158      36.226
2015    8       25    16  20    4.7857   528.9    3.184      36.390
2015    8       25    16  26    4.7738   528.9    3.211      36.559
2015    8       25    16  32    4.7623   528.9    3.238      36.728
2015    8       25    16  39    4.7506   528.9    3.264      36.900
2015    8       25    16  45    4.7392   528.9    3.291      37.072
2015    8       25    16  51    4.7278   528.9    3.317      37.245
2015    8       25    16  57    4.7166   528.9    3.344      37.416
2015    8       25    17   4    4.7054   528.9    3.370      37.587
2015    8       25    17  10    4.6945   528.9    3.396      37.755
2015    8       25    17  16    4.6836   528.9    3.422      37.922
2015    8       25    17  23    4.6730   528.9    3.448      38.085
2015    8       25    17  29    4.6625   528.9    3.474      38.249
2015    8       25    17  35    4.6522   528.9    3.499      38.409
2015    8       25    17  42    4.6420   528.9    3.525      38.569
2015    8       25    17  48    4.6321   528.9    3.550      38.726
2015    8       25    17  54    4.6223   528.9    3.575      38.883
2015    8       25    18   1    4.6128   528.9    3.599      39.039
2015    8       25    18   7    4.6034   528.9    3.624      39.194
2015    8       25    18  13    4.5943   528.9    3.648      39.346
2015    8       25    18  20    4.5854   528.9    3.672      39.499
2015    8       25    18  26    4.5767   528.9    3.696      39.650
2015    8       25    18  32    4.5682   528.9    3.720      39.802
2015    8       25    18  39    4.5600   528.9    3.743      39.953
2015    8       25    18  45    4.5520   528.9    3.767      40.106
2015    8       25    18  51    4.5443   528.9    3.789      40.257
2015    8       25    18  58    4.5368   529.0    3.812      40.408
2015    8       25    19   4    4.5295   529.0    3.834      40.557
2015    8       25    19  10    4.5225   529.0    3.857      40.707
2015    8       25    19  16    4.5157   529.0    3.878      40.853
2015    8       25    19  23    4.5092   529.0    3.900      40.999
2015    8       25    19  29    4.5029   529.0    3.921      41.143
2015    8       25    19  35    4.4969   529.0    3.942      41.288
2015    8       25    19  42    4.4911   529.1    3.963      41.430
2015    8       25    19  48    4.4856   529.1    3.984      41.573
2015    8       25    19  54    4.4803   529.1    4.004      41.714
2015    8       25    20   1    4.4753   529.1    4.024      41.856
2015    8       25    20   7    4.4704   529.1    4.044      41.997
2015    8       25    20  13    4.4659   529.1    4.064      42.138
2015    8       25    20  20    4.4616   529.1    4.083      42.279
2015    8       25    20  26    4.4577   529.1    4.102      42.420
2015    8       25    20  32    4.4540   529.1    4.121      42.560
2015    8       25    20  39    4.4506   529.0    4.140      42.702
2015    8       25    20  45    4.4474   529.0    4.159      42.841
2015    8       25    20  51    4.4447   529.0    4.178      42.983
2015    8       25    20  58    4.4421   529.0    4.196      43.124
2015    8       25    21   4    4.4400   529.0    4.214      43.266
2015    8       25    21  10    4.4381   529.0    4.232      43.406
2015    8       25    21  17    4.4366   529.0    4.250      43.546
2015    8       25    21  23    4.4352   529.0    4.268      43.684
2015    8       25    21  29    4.4343   529.0    4.285      43.823
2015    8       25    21  36    4.4336   529.0    4.302      43.957
2015    8       25    21  42    4.4332   529.0    4.319      44.090
2015    8       25    21  48    4.4330   529.0    4.335      44.220
2015    8       25    21  55    4.4332   529.0    4.352      44.349
2015    8       25    22   1    4.4334   529.0    4.368      44.474
2015    8       25    22   7    4.4341   529.0    4.384      44.599
2015    8       25    22  14    4.4349   529.0    4.399      44.721
2015    8       25    22  20    4.4361   529.0    4.415      44.842
2015    8       25    22  26    4.4373   529.0    4.430      44.961
2015    8       25    22  33    4.4390   529.0    4.446      45.079
2015    8       25    22  39    4.4408   529.0    4.461      45.196
2015    8       25    22  45    4.4429   529.0    4.476      45.312
2015    8       25    22  52    4.4451   529.0    4.491      45.426
2015    8       25    22  58    4.4478   529.0    4.506      45.541
2015    8       25    23   4    4.4505   529.0    4.521      45.654
2015    8       25    23  11    4.4537   529.0    4.535      45.769
2015    8       25    23  17    4.4569   529.0    4.550      45.883
2015    8       25    23  23    4.4606   529.0    4.565      45.998
2015    8       25    23  30    4.4643   529.0    4.579      46.112
2015    8       25    23  36    4.4685   529.0    4.593      46.228
2015    8       25    23  42    4.4726   529.1    4.607      46.343
2015    8       25    23  48    4.4772   529.1    4.621      46.460
2015    8       25    23  55    4.4818   529.2    4.634      46.577
2015    8       26     0   1    4.4868   529.2    4.648      46.694
2015    8       26     0   7    4.4917   529.2    4.661      46.810
2015    8       26     0  14    4.4970   529.3    4.674      46.926
2015    8       26     0  20    4.5022   529.3    4.686      47.041
2015    8       26     0  26    4.5077   529.4    4.699      47.156
2015    8       26     0  33    4.5132   529.4    4.711      47.269
2015    8       26     0  39    4.5189   529.5    4.723      47.382
2015    8       26     0  45    4.5246   529.5    4.735      47.493
2015    8       26     0  52    4.5305   529.6    4.747      47.604
2015    8       26     0  58    4.5363   529.7    4.758      47.712
2015    8       26     1   4    4.5424   529.7    4.770      47.819
2015    8       26     1  11    4.5485   529.8    4.781      47.923
2015    8       26     1  17    4.5547   529.8    4.792      48.027
2015    8       26     1  23    4.5609   529.9    4.803      48.128
2015    8       26     1  30    4.5673   530.0    4.813      48.229
2015    8       26     1  36    4.5736   530.0    4.824      48.327
2015    8       26     1  42    4.5801   530.1    4.834      48.425
2015    8       26     1  48    4.5866   530.1    4.845      48.521
2015    8       26     1  55    4.5933   530.2    4.855      48.617
2015    8       26     2   1    4.5999   530.3    4.866      48.712
2015    8       26     2   7    4.6067   530.3    4.876      48.807
2015    8       26     2  14    4.6134   530.4    4.886      48.901
2015    8       26     2  20    4.6203   530.4    4.897      48.996
2015    8       26     2  26    4.6271   530.5    4.907      49.090
2015    8       26     2  33    4.6342   530.5    4.917      49.185
2015    8       26     2  39    4.6412   530.6    4.928      49.280
2015    8       26     2  45    4.6484   530.7    4.938      49.377
2015    8       26     2  52    4.6555   530.7    4.949      49.474
2015    8       26     2  58    4.6629   530.8    4.960      49.573
2015    8       26     3   4    4.6702   530.8    4.971      49.673
2015    8       26     3  11    4.6777   530.9    4.982      49.775
2015    8       26     3  17    4.6852   530.9    4.993      49.878
2015    8       26     3  23    4.6929   531.0    5.005      49.984
2015    8       26     3  30    4.7006   531.1    5.016      50.092
2015    8       26     3  36    4.7085   531.1    5.028      50.204
2015    8       26     3  42    4.7164   531.2    5.040      50.319
2015    8       26     3  49    4.7244   531.3    5.052      50.439
2015    8       26     3  55    4.7325   531.4    5.064      50.560
2015    8       26     4   1    4.7407   531.4    5.076      50.685
2015    8       26     4   8    4.7489   531.5    5.088      50.810
2015    8       26     4  14    4.7572   531.6    5.100      50.939
2015    8       26     4  20    4.7655   531.7    5.112      51.067
2015    8       26     4  27    4.7739   531.7    5.125      51.197
2015    8       26     4  33    4.7823   531.8    5.137      51.326
2015    8       26     4  39    4.7909   531.9    5.149      51.457
2015    8       26     4  46    4.7995   532.0    5.162      51.587
2015    8       26     4  52    4.8082   532.1    5.174      51.718
2015    8       26     4  58    4.8169   532.1    5.187      51.847
2015    8       26     5   5    4.8258   532.2    5.199      51.979
2015    8       26     5  11    4.8347   532.3    5.212      52.111
2015    8       26     5  17    4.8437   532.4    5.225      52.246
2015    8       26     5  24    4.8527   532.5    5.237      52.380
2015    8       26     5  30    4.8619   532.6    5.249      52.515
2015    8       26     5  36    4.8709   532.7    5.261      52.650
2015    8       26     5  43    4.8801   532.9    5.272      52.784
2015    8       26     5  49    4.8891   533.0    5.283      52.914
2015    8       26     5  55    4.8983   533.1    5.294      53.043
2015    8       26     6   2    4.9074   533.2    5.305      53.168
2015    8       26     6   8    4.9165   533.3    5.316      53.292
2015    8       26     6  14    4.9256   533.5    5.326      53.414
2015    8       26     6  21    4.9348   533.6    5.336      53.535
2015    8       26     6  27    4.9438   533.7    5.346      53.654
2015    8       26     6  33    4.9530   533.9    5.355      53.772
2015    8       26     6  39    4.9620   534.0    5.365      53.888
2015    8       26     6  46    4.9712   534.1    5.374      54.004
2015    8       26     6  52    4.9803   534.3    5.383      54.118
2015    8       26     6  58    4.9895   534.4    5.392      54.233
2015    8       26     7   5    4.9986   534.5    5.401      54.346
2015    8       26     7  11    5.0078   534.7    5.410      54.460
2015    8       26     7  17    5.0169   534.8    5.419      54.574
2015    8       26     7  24    5.0262   534.9    5.428      54.687
2015    8       26     7  30    5.0353   535.1    5.437      54.800
2015    8       26     7  36    5.0446   535.2    5.445      54.913
2015    8       26     7  43    5.0538   535.4    5.454      55.025
2015    8       26     7  49    5.0631   535.5    5.463      55.137
2015    8       26     7  55    5.0723   535.6    5.472      55.249
2015    8       26     8   2    5.0816   535.8    5.480      55.361
2015    8       26     8   8    5.0909   535.9    5.489      55.473
2015    8       26     8  14    5.1003   536.0    5.498      55.585
2015    8       26     8  20    5.1096   536.2    5.507      55.698
2015    8       26     8  27    5.1191   536.3    5.516      55.811
2015    8       26     8  33    5.1285   536.4    5.525      55.925
2015    8       26     8  39    5.1380   536.5    5.534      56.040
2015    8       26     8  46    5.1475   536.7    5.543      56.156
2015    8       26     8  52    5.1571   536.8    5.553      56.275
2015    8       26     8  58    5.1667   536.9    5.562      56.394
2015    8       26     9   5    5.1764   537.1    5.572      56.514
2015    8       26     9  11    5.1860   537.2    5.581      56.635
2015    8       26     9  17    5.1958   537.3    5.591      56.761
2015    8       26     9  24    5.2054   537.5    5.601      56.888
2015    8       26     9  30    5.2152   537.6    5.610      57.018
2015    8       26     9  36    5.2249   537.8    5.619      57.147
2015    8       26     9  43    5.2346   537.9    5.628      57.279
2015    8       26     9  49    5.2442   538.1    5.637      57.410
2015    8       26     9  55    5.2539   538.3    5.646      57.541
2015    8       26    10   2    5.2634   538.4    5.654      57.669
2015    8       26    10   8    5.2729   538.6    5.662      57.795
2015    8       26    10  14    5.2822   538.8    5.670      57.919
2015    8       26    10  21    5.2916   538.9    5.677      58.041
2015    8       26    10  27    5.3008   539.1    5.685      58.161
2015    8       26    10  33    5.3101   539.3    5.692      58.281
2015    8       26    10  40    5.3191   539.5    5.698      58.397
2015    8       26    10  46    5.3282   539.7    5.705      58.513
2015    8       26    10  52    5.3371   539.9    5.711      58.626
2015    8       26    10  59    5.3461   540.1    5.716      58.739
2015    8       26    11   5    5.3549   540.3    5.722      58.850
2015    8       26    11  11    5.3637   540.5    5.727      58.960
2015    8       26    11  18    5.3723   540.7    5.732      59.067
2015    8       26    11  24    5.3810   540.9    5.737      59.175
2015    8       26    11  30    5.3895   541.1    5.741      59.280
2015    8       26    11  37    5.3980   541.3    5.746      59.386
2015    8       26    11  43    5.4063   541.6    5.749      59.489
2015    8       26    11  49    5.4147   541.8    5.753      59.593
2015    8       26    11  56    5.4229   542.0    5.756      59.695
2015    8       26    12   2    5.4310   542.3    5.759      59.798
2015    8       26    12   8    5.4390   542.5    5.762      59.899
2015    8       26    12  15    5.4470   542.7    5.765      60.000
2015    8       26    12  21    5.4547   543.0    5.767      60.101
2015    8       26    12  27    5.4624   543.2    5.769      60.202
2015    8       26    12  33    5.4700   543.5    5.770      60.301
2015    8       26    12  40    5.4774   543.7    5.772      60.401
2015    8       26    12  46    5.4847   543.9    5.773      60.499
2015    8       26    12  53    5.4919   544.2    5.773      60.597
2015    8       26    12  59    5.4990   544.4    5.774      60.693
2015    8       26    13   5    5.5059   544.7    5.775      60.788
2015    8       26    13  11    5.5127   544.9    5.775      60.881
2015    8       26    13  18    5.5194   545.2    5.775      60.973
2015    8       26    13  24    5.5260   545.4    5.775      61.063
2015    8       26    13  30    5.5325   545.7    5.774      61.153
2015    8       26    13  37    5.5389   545.9    5.774      61.241
2015    8       26    13  43    5.5451   546.2    5.773      61.329
2015    8       26    13  49    5.5513   546.5    5.773      61.416
2015    8       26    13  56    5.5573   546.7    5.772      61.502
2015    8       26    14   2    5.5633   547.0    5.771      61.587
2015    8       26    14   8    5.5691   547.2    5.770      61.672
2015    8       26    14  15    5.5748   547.5    5.768      61.755
2015    8       26    14  21    5.5804   547.8    5.766      61.837
2015    8       26    14  27    5.5858   548.1    5.765      61.918
2015    8       26    14  34    5.5911   548.3    5.762      61.998
2015    8       26    14  40    5.5963   548.6    5.760      62.077
2015    8       26    14  46    5.6014   548.9    5.757      62.155
2015    8       26    14  52    5.6063   549.2    5.755      62.231
2015    8       26    14  59    5.6111   549.5    5.752      62.306
2015    8       26    15   5    5.6157   549.7    5.748      62.380
2015    8       26    15  11    5.6202   550.0    5.745      62.453
2015    8       26    15  18    5.6246   550.3    5.741      62.523
2015    8       26    15  24    5.6288   550.6    5.737      62.593
2015    8       26    15  30    5.6330   550.9    5.733      62.661
2015    8       26    15  37    5.6369   551.2    5.729      62.728
2015    8       26    15  43    5.6407   551.5    5.724      62.794
2015    8       26    15  49    5.6444   551.7    5.719      62.858
2015    8       26    15  56    5.6480   552.0    5.714      62.921
2015    8       26    16   2    5.6514   552.3    5.709      62.982
2015    8       26    16   8    5.6546   552.6    5.704      63.042
2015    8       26    16  15    5.6577   552.9    5.698      63.100
2015    8       26    16  21    5.6607   553.2    5.692      63.157
2015    8       26    16  27    5.6634   553.5    5.686      63.212
2015    8       26    16  34    5.6661   553.8    5.679      63.266
2015    8       26    16  40    5.6685   554.1    5.672      63.319
2015    8       26    16  46    5.6708   554.4    5.665      63.369
2015    8       26    16  53    5.6730   554.7    5.657      63.418
2015    8       26    16  59    5.6750   555.0    5.650      63.464
2015    8       26    17   5    5.6769   555.4    5.642      63.508
2015    8       26    17  11    5.6787   555.7    5.634      63.550
2015    8       26    17  18    5.6804   556.0    5.626      63.589
2015    8       26    17  24    5.6820   556.2    5.617      63.627
2015    8       26    17  30    5.6835   556.5    5.609      63.663
2015    8       26    17  37    5.6849   556.8    5.600      63.698
2015    8       26    17  43    5.6861   557.1    5.592      63.733
2015    8       26    17  49    5.6874   557.4    5.583      63.767
2015    8       26    17  56    5.6884   557.7    5.574      63.801
2015    8       26    18   2    5.6895   558.0    5.566      63.837
2015    8       26    18   8    5.6904   558.3    5.557      63.872
2015    8       26    18  15    5.6913   558.6    5.548      63.907
2015    8       26    18  21    5.6920   558.9    5.539      63.943
2015    8       26    18  27    5.6928   559.2    5.531      63.977
2015    8       26    18  34    5.6934   559.5    5.522      64.012
2015    8       26    18  40    5.6940   559.8    5.514      64.046
2015    8       26    18  46    5.6944   560.1    5.505      64.081
2015    8       26    18  53    5.6948   560.4    5.497      64.115
2015    8       26    18  59    5.6950   560.7    5.488      64.149
2015    8       26    19   5    5.6952   561.0    5.479      64.182
2015    8       26    19  12    5.6952   561.3    5.470      64.215
2015    8       26    19  18    5.6951   561.6    5.462      64.246
2015    8       26    19  24    5.6948   561.9    5.453      64.276
2015    8       26    19  31    5.6945   562.2    5.444      64.304
2015    8       26    19  37    5.6941   562.5    5.435      64.330
2015    8       26    19  43    5.6936   562.8    5.426      64.355
2015    8       26    19  50    5.6929   563.0    5.418      64.379
2015    8       26    19  56    5.6922   563.3    5.409      64.402
2015    8       26    20   2    5.6913   563.5    5.401      64.424
2015    8       26    20   9    5.6905   563.8    5.392      64.446
2015    8       26    20  15    5.6896   564.0    5.384      64.467
2015    8       26    20  21    5.6887   564.2    5.376      64.487
2015    8       26    20  28    5.6877   564.5    5.369      64.508
2015    8       26    20  34    5.6867   564.7    5.361      64.527
2015    8       26    20  40    5.6856   564.9    5.354      64.545
2015    8       26    20  47    5.6845   565.1    5.346      64.562
2015    8       26    20  53    5.6833   565.4    5.338      64.576
2015    8       26    20  59    5.6820   565.6    5.331      64.588
2015    8       26    21   6    5.6806   565.8    5.323      64.598
2015    8       26    21  12    5.6792   566.1    5.315      64.606
2015    8       26    21  18    5.6775   566.3    5.307      64.610
2015    8       26    21  24    5.6758   566.6    5.298      64.612
2015    8       26    21  31    5.6740   566.9    5.290      64.614
2015    8       26    21  37    5.6721   567.1    5.280      64.615
2015    8       26    21  43    5.6701   567.5    5.271      64.615
2015    8       26    21  50    5.6679   567.7    5.261      64.615
2015    8       26    21  56    5.6655   568.0    5.251      64.611
2015    8       26    22   2    5.6631   568.3    5.241      64.607
2015    8       26    22   9    5.6604   568.6    5.231      64.597
2015    8       26    22  15    5.6577   568.8    5.222      64.585
2015    8       26    22  21    5.6550   569.1    5.212      64.569
2015    8       26    22  28    5.6523   569.3    5.202      64.551
2015    8       26    22  34    5.6496   569.5    5.193      64.532
2015    8       26    22  40    5.6470   569.7    5.184      64.515
2015    8       26    22  47    5.6444   569.9    5.175      64.499
2015    8       26    22  53    5.6419   570.0    5.167      64.487
2015    8       26    22  59    5.6394   570.2    5.159      64.480
2015    8       26    23   5    5.6369   570.4    5.151      64.481
2015    8       26    23  12    5.6343   570.6    5.143      64.488
2015    8       26    23  18    5.6319   570.9    5.135      64.500
2015    8       26    23  24    5.6293   571.1    5.127      64.515
2015    8       26    23  31    5.6268   571.4    5.119      64.530
2015    8       26    23  37    5.6242   571.6    5.111      64.545
2015    8       26    23  43    5.6216   571.9    5.103      64.555
2015    8       26    23  50    5.6189   572.2    5.095      64.561
2015    8       26    23  56    5.6162   572.4    5.087      64.564
2015    8       27     0   2    5.6132   572.6    5.079      64.564
2015    8       27     0   9    5.6102   572.9    5.070      64.563
2015    8       27     0  15    5.6070   573.1    5.062      64.559
2015    8       27     0  21    5.6037   573.4    5.053      64.554
2015    8       27     0  28    5.6002   573.6    5.044      64.547
2015    8       27     0  34    5.5968   573.8    5.036      64.540
2015    8       27     0  40    5.5932   574.0    5.027      64.530
2015    8       27     0  47    5.5898   574.3    5.018      64.519
2015    8       27     0  53    5.5862   574.5    5.010      64.508
2015    8       27     0  59    5.5827   574.7    5.002      64.496
2015    8       27     1   6    5.5792   574.9    4.993      64.484
2015    8       27     1  12    5.5758   575.1    4.985      64.472
2015    8       27     1  18    5.5723   575.3    4.976      64.460
2015    8       27     1  25    5.5688   575.5    4.968      64.449
2015    8       27     1  31    5.5653   575.7    4.960      64.437
2015    8       27     1  37    5.5618   575.9    4.952      64.424
2015    8       27     1  44    5.5583   576.1    4.944      64.411
2015    8       27     1  50    5.5548   576.3    4.936      64.397
2015    8       27     1  56    5.5513   576.5    4.929      64.383
2015    8       27     2   3    5.5479   576.7    4.921      64.368
2015    8       27     2   9    5.5443   576.8    4.914      64.353
2015    8       27     2  15    5.5408   577.0    4.907      64.337
2015    8       27     2  22    5.5373   577.2    4.900      64.319
2015    8       27     2  28    5.5339   577.4    4.893      64.301
2015    8       27     2  34    5.5304   577.5    4.886      64.284
2015    8       27     2  41    5.5269   577.7    4.879      64.267
2015    8       27     2  47    5.5234   577.9    4.873      64.249
2015    8       27     2  53    5.5199   578.0    4.866      64.231
2015    8       27     3   0    5.5164   578.2    4.860      64.213
2015    8       27     3   6    5.5130   578.4    4.854      64.195
2015    8       27     3  12    5.5094   578.5    4.847      64.177
2015    8       27     3  18    5.5060   578.7    4.840      64.159
2015    8       27     3  25    5.5024   578.9    4.834      64.141
2015    8       27     3  31    5.4990   579.1    4.827      64.123
2015    8       27     3  37    5.4954   579.2    4.821      64.104
2015    8       27     3  44    5.4919   579.4    4.814      64.085
2015    8       27     3  50    5.4883   579.6    4.807      64.065
2015    8       27     3  56    5.4848   579.8    4.801      64.046
2015    8       27     4   3    5.4812   579.9    4.794      64.025
2015    8       27     4   9    5.4775   580.1    4.787      64.005
2015    8       27     4  15    5.4738   580.3    4.780      63.985
2015    8       27     4  22    5.4702   580.5    4.773      63.964
2015    8       27     4  28    5.4664   580.7    4.766      63.942
2015    8       27     4  34    5.4626   580.9    4.759      63.921
2015    8       27     4  41    5.4587   581.0    4.752      63.899
2015    8       27     4  47    5.4549   581.2    4.746      63.877
2015    8       27     4  53    5.4509   581.4    4.739      63.855
2015    8       27     4  59    5.4469   581.6    4.732      63.832
2015    8       27     5   6    5.4429   581.8    4.725      63.810
2015    8       27     5  12    5.4389   582.0    4.718      63.788
2015    8       27     5  18    5.4348   582.1    4.710      63.765
2015    8       27     5  25    5.4307   582.3    4.704      63.742
2015    8       27     5  31    5.4266   582.5    4.696      63.719
2015    8       27     5  37    5.4225   582.7    4.689      63.697
2015    8       27     5  44    5.4184   582.9    4.682      63.674
2015    8       27     5  50    5.4143   583.1    4.675      63.652
2015    8       27     5  56    5.4101   583.2    4.668      63.629
2015    8       27     6   3    5.4060   583.4    4.661      63.608
2015    8       27     6   9    5.4018   583.6    4.654      63.586
2015    8       27     6  15    5.3977   583.8    4.647      63.564
2015    8       27     6  22    5.3935   584.0    4.640      63.542
2015    8       27     6  28    5.3894   584.1    4.633      63.521
2015    8       27     6  34    5.3852   584.3    4.626      63.500
2015    8       27     6  40    5.3810   584.5    4.619      63.479
2015    8       27     6  47    5.3768   584.7    4.612      63.458
2015    8       27     6  53    5.3727   584.9    4.605      63.438
2015    8       27     6  59    5.3685   585.0    4.598      63.417
2015    8       27     7   6    5.3643   585.2    4.591      63.397
2015    8       27     7  12    5.3601   585.4    4.584      63.376
2015    8       27     7  18    5.3559   585.5    4.577      63.355
2015    8       27     7  25    5.3516   585.7    4.570      63.335
2015    8       27     7  31    5.3475   585.9    4.564      63.314
2015    8       27     7  37    5.3432   586.0    4.557      63.293
2015    8       27     7  44    5.3390   586.2    4.550      63.273
2015    8       27     7  50    5.3348   586.4    4.543      63.251
2015    8       27     7  56    5.3306   586.5    4.537      63.230
2015    8       27     8   3    5.3263   586.7    4.530      63.209
2015    8       27     8   9    5.3221   586.9    4.523      63.187
2015    8       27     8  15    5.3178   587.0    4.517      63.165
2015    8       27     8  22    5.3136   587.2    4.510      63.143
2015    8       27     8  28    5.3093   587.3    4.504      63.121
2015    8       27     8  34    5.3051   587.5    4.497      63.098
2015    8       27     8  41    5.3008   587.6    4.491      63.075
2015    8       27     8  47    5.2966   587.8    4.485      63.052
2015    8       27     8  53    5.2923   587.9    4.478      63.028
2015    8       27     9   0    5.2880   588.1    4.472      63.005
2015    8       27     9   6    5.2837   588.3    4.466      62.981
2015    8       27     9  12    5.2795   588.4    4.460      62.957
2015    8       27     9  19    5.2752   588.5    4.453      62.932
2015    8       27     9  25    5.2709   588.7    4.447      62.908
2015    8       27     9  31    5.2666   588.8    4.441      62.883
2015    8       27     9  38    5.2624   589.0    4.435      62.859
2015    8       27     9  44    5.2581   589.1    4.429      62.834
2015    8       27     9  50    5.2538   589.3    4.423      62.810
2015    8       27     9  57    5.2495   589.4    4.417      62.786
2015    8       27    10   3    5.2453   589.6    4.411      62.762
2015    8       27    10   9    5.2410   589.7    4.405      62.737
2015    8       27    10  16    5.2367   589.8    4.399      62.713
2015    8       27    10  22    5.2324   590.0    4.393      62.689
2015    8       27    10  28    5.2281   590.1    4.388      62.666
2015    8       27    10  35    5.2238   590.3    4.382      62.642
2015    8       27    10  41    5.2195   590.4    4.376      62.619
2015    8       27    10  47    5.2152   590.5    4.371      62.595
2015    8       27    10  53    5.2109   590.7    4.365      62.572
2015    8       27    11   0    5.2065   590.8    4.359      62.549
2015    8       27    11   6    5.2022   590.9    4.354      62.526
2015    8       27    11  12    5.1979   591.1    4.348      62.503
2015    8       27    11  19    5.1936   591.2    4.343      62.480
2015    8       27    11  25    5.1892   591.3    4.337      62.456
2015    8       27    11  31    5.1849   591.4    4.332      62.434
2015    8       27    11  38    5.1805   591.6    4.326      62.410
2015    8       27    11  44    5.1762   591.7    4.321      62.387
2015    8       27    11  50    5.1719   591.8    4.316      62.364
2015    8       27    11  57    5.1676   592.0    4.310      62.340
2015    8       27    12   3    5.1632   592.1    4.305      62.317
2015    8       27    12   9    5.1589   592.2    4.300      62.293
2015    8       27    12  16    5.1546   592.3    4.294      62.269
2015    8       27    12  22    5.1503   592.5    4.289      62.245
2015    8       27    12  28    5.1460   592.6    4.284      62.221
2015    8       27    12  34    5.1417   592.7    4.278      62.197
2015    8       27    12  41    5.1374   592.8    4.273      62.172
2015    8       27    12  47    5.1331   592.9    4.268      62.148
2015    8       27    12  53    5.1288   593.1    4.263      62.123
2015    8       27    13   0    5.1246   593.2    4.257      62.099
2015    8       27    13   6    5.1203   593.3    4.252      62.074
2015    8       27    13  12    5.1161   593.4    4.247      62.050
2015    8       27    13  19    5.1118   593.5    4.242      62.025
2015    8       27    13  25    5.1076   593.6    4.237      62.001
2015    8       27    13  31    5.1033   593.7    4.231      61.976
2015    8       27    13  38    5.0991   593.9    4.226      61.952
2015    8       27    13  44    5.0949   594.0    4.221      61.927
2015    8       27    13  50    5.0907   594.1    4.216      61.903
2015    8       27    13  57    5.0864   594.2    4.211      61.879
2015    8       27    14   3    5.0823   594.3    4.206      61.855
2015    8       27    14   9    5.0780   594.4    4.201      61.831
2015    8       27    14  15    5.0739   594.5    4.196      61.807
2015    8       27    14  22    5.0697   594.6    4.191      61.783
2015    8       27    14  28    5.0655   594.7    4.186      61.759
2015    8       27    14  34    5.0613   594.8    4.181      61.735
2015    8       27    14  41    5.0572   594.9    4.176      61.712
2015    8       27    14  47    5.0530   595.0    4.171      61.688
2015    8       27    14  53    5.0488   595.1    4.166      61.665
2015    8       27    15   0    5.0447   595.2    4.162      61.641
2015    8       27    15   6    5.0406   595.3    4.157      61.618
2015    8       27    15  12    5.0364   595.4    4.152      61.595
2015    8       27    15  19    5.0323   595.5    4.148      61.572
2015    8       27    15  25    5.0282   595.6    4.143      61.548
2015    8       27    15  31    5.0241   595.7    4.138      61.525
2015    8       27    15  38    5.0199   595.8    4.134      61.502
2015    8       27    15  44    5.0159   595.9    4.129      61.479
2015    8       27    15  50    5.0118   596.0    4.125      61.456
2015    8       27    15  57    5.0077   596.1    4.120      61.433
2015    8       27    16   3    5.0036   596.2    4.116      61.410
2015    8       27    16   9    4.9996   596.3    4.111      61.387
2015    8       27    16  16    4.9955   596.4    4.107      61.364
2015    8       27    16  22    4.9915   596.5    4.103      61.341
2015    8       27    16  28    4.9874   596.6    4.098      61.318
2015    8       27    16  35    4.9834   596.6    4.094      61.295
2015    8       27    16  41    4.9794   596.7    4.090      61.272
2015    8       27    16  47    4.9753   596.8    4.086      61.249
2015    8       27    16  54    4.9713   596.9    4.081      61.226
2015    8       27    17   0    4.9673   597.0    4.077      61.203
2015    8       27    17   6    4.9633   597.1    4.073      61.179
2015    8       27    17  13    4.9593   597.2    4.069      61.156
2015    8       27    17  19    4.9553   597.2    4.065      61.133
2015    8       27    17  25    4.9514   597.3    4.061      61.110
2015    8       27    17  32    4.9474   597.4    4.057      61.087
2015    8       27    17  38    4.9435   597.5    4.053      61.064
2015    8       27    17  44    4.9395   597.6    4.049      61.040
2015    8       27    17  51    4.9356   597.6    4.045      61.017
2015    8       27    17  57    4.9316   597.7    4.041      60.994
2015    8       27    18   3    4.9277   597.8    4.037      60.971
2015    8       27    18  10    4.9238   597.9    4.033      60.948
2015    8       27    18  16    4.9199   598.0    4.030      60.925
2015    8       27    18  22    4.9161   598.0    4.026      60.902
2015    8       27    18  28    4.9122   598.1    4.022      60.880
2015    8       27    18  35    4.9083   598.2    4.018      60.857
2015    8       27    18  41    4.9045   598.2    4.014      60.834
2015    8       27    18  47    4.9007   598.3    4.011      60.811
2015    8       27    18  54    4.8969   598.4    4.007      60.789
2015    8       27    19   0    4.8930   598.5    4.003      60.766
2015    8       27    19   6    4.8893   598.5    4.000      60.743
2015    8       27    19  13    4.8855   598.6    3.996      60.721
2015    8       27    19  19    4.8817   598.7    3.992      60.698
2015    8       27    19  25    4.8780   598.7    3.989      60.676
2015    8       27    19  32    4.8742   598.8    3.985      60.654
2015    8       27    19  38    4.8705   598.9    3.981      60.631
2015    8       27    19  44    4.8668   598.9    3.978      60.609
2015    8       27    19  51    4.8631   599.0    3.974      60.587
2015    8       27    19  57    4.8595   599.1    3.971      60.565
2015    8       27    20   3    4.8558   599.1    3.967      60.543
2015    8       27    20   9    4.8521   599.2    3.963      60.521
2015    8       27    20  16    4.8485   599.3    3.960      60.499
2015    8       27    20  22    4.8449   599.3    3.956      60.478
2015    8       27    20  28    4.8413   599.4    3.953      60.456
2015    8       27    20  35    4.8377   599.4    3.949      60.435
2015    8       27    20  41    4.8341   599.5    3.946      60.413
2015    8       27    20  47    4.8305   599.6    3.942      60.392
2015    8       27    20  54    4.8270   599.6    3.939      60.371
2015    8       27    21   0    4.8235   599.7    3.935      60.350
2015    8       27    21   6    4.8199   599.7    3.932      60.329
2015    8       27    21  13    4.8164   599.8    3.929      60.308
2015    8       27    21  19    4.8129   599.8    3.925      60.287
2015    8       27    21  25    4.8095   599.9    3.922      60.266
2015    8       27    21  32    4.8060   599.9    3.919      60.245
2015    8       27    21  38    4.8025   600.0    3.915      60.225
2015    8       27    21  44    4.7991   600.1    3.912      60.204
2015    8       27    21  50    4.7957   600.1    3.909      60.183
2015    8       27    21  57    4.7923   600.2    3.905      60.163
2015    8       27    22   3    4.7889   600.2    3.902      60.142
2015    8       27    22   9    4.7854   600.3    3.899      60.121
2015    8       27    22  16    4.7821   600.3    3.896      60.101
2015    8       27    22  22    4.7787   600.4    3.893      60.080
2015    8       27    22  28    4.7754   600.4    3.889      60.060
2015    8       27    22  35    4.7720   600.5    3.886      60.040
2015    8       27    22  41    4.7687   600.5    3.883      60.019
2015    8       27    22  47    4.7653   600.6    3.880      59.999
2015    8       27    22  54    4.7620   600.6    3.877      59.979
2015    8       27    23   0    4.7587   600.6    3.874      59.958
2015    8       27    23   6    4.7554   600.7    3.871      59.938
2015    8       27    23  13    4.7521   600.7    3.868      59.918
2015    8       27    23  19    4.7489   600.8    3.865      59.898
2015    8       27    23  25    4.7456   600.8    3.862      59.877
2015    8       27    23  32    4.7424   600.9    3.860      59.857
2015    8       27    23  38    4.7391   600.9    3.857      59.837
2015    8       27    23  44    4.7359   601.0    3.854      59.817
2015    8       27    23  51    4.7326   601.0    3.851      59.797
2015    8       27    23  57    4.7294   601.0    3.848      59.777
2015    8       28     0   3    4.7262   601.1    3.845      59.756
2015    8       28     0  10    4.7230   601.1    3.843      59.737
2015    8       28     0  16    4.7198   601.2    3.840      59.716
2015    8       28     0  22    4.7166   601.2    3.837      59.697
2015    8       28     0  29    4.7134   601.2    3.835      59.677
2015    8       28     0  35    4.7103   601.3    3.832      59.657
2015    8       28     0  41    4.7071   601.3    3.829      59.637
2015    8       28     0  48    4.7039   601.4    3.827      59.617
2015    8       28     0  54    4.7008   601.4    3.824      59.597
2015    8       28     1   0    4.6977   601.4    3.821      59.578
2015    8       28     1   7    4.6945   601.5    3.819      59.558
2015    8       28     1  13    4.6914   601.5    3.816      59.538
2015    8       28     1  19    4.6883   601.5    3.814      59.519
2015    8       28     1  26    4.6852   601.6    3.811      59.499
2015    8       28     1  32    4.6822   601.6    3.809      59.479
2015    8       28     1  38    4.6791   601.6    3.806      59.460
2015    8       28     1  45    4.6761   601.7    3.803      59.440
2015    8       28     1  51    4.6730   601.7    3.801      59.420
2015    8       28     1  57    4.6700   601.7    3.798      59.401
2015    8       28     2   3    4.6670   601.8    3.796      59.381
2015    8       28     2  10    4.6640   601.8    3.793      59.361
2015    8       28     2  16    4.6610   601.8    3.791      59.342
2015    8       28     2  22    4.6580   601.9    3.788      59.322
2015    8       28     2  29    4.6551   601.9    3.786      59.303
2015    8       28     2  35    4.6521   601.9    3.783      59.283
2015    8       28     2  41    4.6492   601.9    3.781      59.264
2015    8       28     2  48    4.6463   602.0    3.778      59.244
2015    8       28     2  54    4.6434   602.0    3.776      59.225
2015    8       28     3   0    4.6405   602.0    3.773      59.206
2015    8       28     3   7    4.6376   602.0    3.771      59.186
2015    8       28     3  13    4.6347   602.1    3.768      59.167
2015    8       28     3  19    4.6319   602.1    3.766      59.148
2015    8       28     3  26    4.6290   602.1    3.763      59.128
2015    8       28     3  32    4.6262   602.1    3.761      59.109
2015    8       28     3  38    4.6234   602.2    3.758      59.090
2015    8       28     3  44    4.6206   602.2    3.756      59.071
2015    8       28     3  51    4.6178   602.2    3.754      59.051
2015    8       28     3  57    4.6150   602.2    3.751      59.032
2015    8       28     4   3    4.6123   602.3    3.749      59.013
2015    8       28     4  10    4.6095   602.3    3.746      58.994
2015    8       28     4  16    4.6067   602.3    3.744      58.975
2015    8       28     4  22    4.6040   602.3    3.742      58.956
2015    8       28     4  29    4.6013   602.3    3.739      58.938
2015    8       28     4  35    4.5986   602.4    3.737      58.919
2015    8       28     4  41    4.5958   602.4    3.735      58.900
2015    8       28     4  48    4.5931   602.4    3.732      58.881
2015    8       28     4  54    4.5904   602.4    3.730      58.863
2015    8       28     5   0    4.5878   602.4    3.728      58.844
2015    8       28     5   7    4.5851   602.5    3.726      58.825
2015    8       28     5  13    4.5824   602.5    3.723      58.807
2015    8       28     5  19    4.5797   602.5    3.721      58.789
2015    8       28     5  25    4.5771   602.5    3.719      58.770
2015    8       28     5  32    4.5745   602.5    3.717      58.752
2015    8       28     5  38    4.5718   602.5    3.715      58.734
2015    8       28     5  44    4.5692   602.6    3.713      58.716
2015    8       28     5  51    4.5666   602.6    3.711      58.698
2015    8       28     5  57    4.5640   602.6    3.708      58.679
2015    8       28     6   3    4.5614   602.6    3.706      58.662
2015    8       28     6  10    4.5587   602.6    3.704      58.644
2015    8       28     6  16    4.5562   602.6    3.702      58.626
2015    8       28     6  22    4.5536   602.7    3.700      58.608
2015    8       28     6  29    4.5510   602.7    3.698      58.590
2015    8       28     6  35    4.5484   602.7    3.696      58.572
2015    8       28     6  41    4.5459   602.7    3.694      58.555
2015    8       28     6  48    4.5433   602.7    3.692      58.537
2015    8       28     6  54    4.5408   602.7    3.690      58.519
2015    8       28     7   0    4.5382   602.7    3.689      58.502
2015    8       28     7   7    4.5357   602.7    3.687      58.484
2015    8       28     7  13    4.5331   602.8    3.685      58.466
2015    8       28     7  19    4.5306   602.8    3.683      58.449
2015    8       28     7  26    4.5281   602.8    3.681      58.431
2015    8       28     7  32    4.5256   602.8    3.679      58.414
2015    8       28     7  38    4.5231   602.8    3.677      58.396
2015    8       28     7  45    4.5206   602.8    3.675      58.379
2015    8       28     7  51    4.5181   602.8    3.673      58.361
2015    8       28     7  57    4.5156   602.8    3.672      58.343
2015    8       28     8   4    4.5131   602.8    3.670      58.326
2015    8       28     8  10    4.5107   602.8    3.668      58.308
2015    8       28     8  16    4.5082   602.8    3.666      58.290
2015    8       28     8  23    4.5058   602.9    3.664      58.273
2015    8       28     8  29    4.5033   602.9    3.662      58.255
2015    8       28     8  35    4.5009   602.9    3.660      58.237
2015    8       28     8  42    4.4984   602.9    3.659      58.219
2015    8       28     8  48    4.4960   602.9    3.657      58.202
2015    8       28     8  54    4.4936   602.9    3.655      58.184
2015    8       28     9   1    4.4912   602.9    3.653      58.166
2015    8       28     9   7    4.4888   602.9    3.651      58.148
2015    8       28     9  13    4.4864   602.9    3.649      58.130
2015    8       28     9  20    4.4840   602.9    3.648      58.112
2015    8       28     9  26    4.4817   602.9    3.646      58.094
2015    8       28     9  32    4.4793   602.9    3.644      58.076
2015    8       28     9  38    4.4769   602.9    3.642      58.058
2015    8       28     9  45    4.4746   602.9    3.640      58.040
2015    8       28     9  51    4.4723   602.9    3.638      58.022
2015    8       28     9  57    4.4699   602.9    3.636      58.004
2015    8       28    10   4    4.4676   602.9    3.635      57.986
2015    8       28    10  10    4.4653   602.9    3.633      57.968
2015    8       28    10  16    4.4630   602.9    3.631      57.950
2015    8       28    10  23    4.4607   602.9    3.629      57.932
2015    8       28    10  29    4.4584   602.9    3.627      57.914
2015    8       28    10  35    4.4561   602.9    3.626      57.896
2015    8       28    10  42    4.4539   602.9    3.624      57.879
2015    8       28    10  48    4.4516   602.9    3.622      57.861
2015    8       28    10  54    4.4493   602.9    3.620      57.843
2015    8       28    11   0    4.4471   602.9    3.619      57.825
2015    8       28    11   7    4.4449   602.9    3.617      57.808
2015    8       28    11  13    4.4426   602.9    3.615      57.791
2015    8       28    11  19    4.4404   602.9    3.614      57.773
2015    8       28    11  26    4.4382   602.9    3.612      57.756
2015    8       28    11  32    4.4360   602.9    3.610      57.739
2015    8       28    11  38    4.4338   602.9    3.608      57.721
2015    8       28    11  45    4.4316   602.9    3.607      57.704
2015    8       28    11  51    4.4294   602.9    3.605      57.687
2015    8       28    11  57    4.4272   602.9    3.604      57.670
2015    8       28    12   4    4.4250   602.9    3.602      57.653
2015    8       28    12  10    4.4228   602.9    3.600      57.637
2015    8       28    12  16    4.4207   602.9    3.599      57.620
2015    8       28    12  23    4.4185   602.9    3.597      57.603
2015    8       28    12  29    4.4163   602.9    3.596      57.587
2015    8       28    12  35    4.4142   602.9    3.594      57.570
2015    8       28    12  42    4.4120   602.9    3.593      57.554
2015    8       28    12  48    4.4099   602.9    3.591      57.537
2015    8       28    12  54    4.4077   602.9    3.590      57.521
2015    8       28    13   0    4.4056   602.9    3.588      57.505
2015    8       28    13   7    4.4035   602.9    3.587      57.488
2015    8       28    13  13    4.4013   602.9    3.585      57.472
2015    8       28    13  20    4.3992   602.9    3.584      57.456
2015    8       28    13  26    4.3971   602.9    3.582      57.440
2015    8       28    13  32    4.3950   602.9    3.581      57.424
2015    8       28    13  38    4.3929   602.9    3.579      57.408
2015    8       28    13  45    4.3908   602.8    3.578      57.392
2015    8       28    13  51    4.3887   602.8    3.577      57.376
2015    8       28    13  57    4.3866   602.8    3.575      57.360
2015    8       28    14   4    4.3845   602.8    3.574      57.344
2015    8       28    14  10    4.3824   602.8    3.572      57.328
2015    8       28    14  16    4.3803   602.8    3.571      57.313
2015    8       28    14  23    4.3783   602.8    3.569      57.297
2015    8       28    14  29    4.3762   602.8    3.568      57.281
2015    8       28    14  35    4.3741   602.8    3.567      57.265
2015    8       28    14  42    4.3721   602.8    3.565      57.250
2015    8       28    14  48    4.3700   602.8    3.564      57.234
2015    8       28    14  54    4.3680   602.8    3.562      57.218
2015    8       28    15   1    4.3659   602.8    3.561      57.202
2015    8       28    15   7    4.3639   602.7    3.560      57.187
2015    8       28    15  13    4.3619   602.7    3.558      57.171
2015    8       28    15  20    4.3599   602.7    3.557      57.155
2015    8       28    15  26    4.3579   602.7    3.555      57.139
2015    8       28    15  32    4.3558   602.7    3.554      57.124
2015    8       28    15  39    4.3538   602.7    3.553      57.108
2015    8       28    15  45    4.3518   602.7    3.551      57.092
2015    8       28    15  51    4.3498   602.7    3.550      57.076
2015    8       28    15  58    4.3478   602.7    3.548      57.060
2015    8       28    16   4    4.3458   602.7    3.547      57.044
2015    8       28    16  10    4.3438   602.6    3.545      57.028
2015    8       28    16  17    4.3418   602.6    3.544      57.012
2015    8       28    16  23    4.3398   602.6    3.543      56.995
2015    8       28    16  29    4.3377   602.6    3.541      56.979
2015    8       28    16  36    4.3357   602.6    3.540      56.963
2015    8       28    16  42    4.3337   602.6    3.538      56.946
2015    8       28    16  48    4.3317   602.6    3.537      56.929
2015    8       28    16  54    4.3297   602.6    3.535      56.912
2015    8       28    17   1    4.3277   602.6    3.534      56.896
2015    8       28    17   7    4.3257   602.5    3.532      56.879
2015    8       28    17  13    4.3237   602.5    3.531      56.862
2015    8       28    17  20    4.3217   602.5    3.529      56.844
2015    8       28    17  26    4.3197   602.5    3.528      56.828
2015    8       28    17  32    4.3177   602.5    3.527      56.810
2015    8       28    17  39    4.3157   602.5    3.525      56.794
2015    8       28    17  45    4.3137   602.5    3.524      56.776
2015    8       28    17  51    4.3117   602.4    3.522      56.760
2015    8       28    17  58    4.3097   602.4    3.521      56.742
2015    8       28    18   4    4.3077   602.4    3.519      56.726
2015    8       28    18  10    4.3057   602.4    3.518      56.709
2015    8       28    18  16    4.3038   602.4    3.517      56.693
2015    8       28    18  23    4.3018   602.4    3.515      56.676
2015    8       28    18  29    4.2998   602.4    3.514      56.660
2015    8       28    18  35    4.2978   602.3    3.513      56.643
2015    8       28    18  42    4.2959   602.3    3.511      56.627
2015    8       28    18  48    4.2939   602.3    3.510      56.611
2015    8       28    18  54    4.2920   602.3    3.509      56.595
2015    8       28    19   1    4.2900   602.3    3.508      56.579
2015    8       28    19   7    4.2881   602.3    3.506      56.563
2015    8       28    19  13    4.2861   602.3    3.505      56.547
2015    8       28    19  20    4.2842   602.2    3.504      56.532
2015    8       28    19  26    4.2822   602.2    3.503      56.516
2015    8       28    19  32    4.2803   602.2    3.501      56.501
2015    8       28    19  39    4.2783   602.2    3.500      56.485
2015    8       28    19  45    4.2764   602.2    3.499      56.470
2015    8       28    19  51    4.2744   602.2    3.498      56.454
2015    8       28    19  58    4.2725   602.1    3.497      56.439
2015    8       28    20   4    4.2706   602.1    3.495      56.423
2015    8       28    20  10    4.2687   602.1    3.494      56.408
2015    8       28    20  17    4.2667   602.1    3.493      56.392
2015    8       28    20  23    4.2648   602.1    3.492      56.377
2015    8       28    20  29    4.2629   602.1    3.491      56.361
2015    8       28    20  36    4.2610   602.0    3.489      56.346
2015    8       28    20  42    4.2590   602.0    3.488      56.330
2015    8       28    20  48    4.2571   602.0    3.487      56.314
2015    8       28    20  55    4.2552   602.0    3.486      56.298
2015    8       28    21   1    4.2533   602.0    3.484      56.283
2015    8       28    21   7    4.2514   602.0    3.483      56.266
2015    8       28    21  13    4.2494   602.0    3.482      56.251
2015    8       28    21  20    4.2475   601.9    3.480      56.234
2015    8       28    21  26    4.2456   601.9    3.479      56.218
2015    8       28    21  33    4.2437   601.9    3.478      56.201
2015    8       28    21  39    4.2418   601.9    3.476      56.185
2015    8       28    21  45    4.2398   601.9    3.475      56.168
2015    8       28    21  51    4.2379   601.8    3.474      56.151
2015    8       28    21  58    4.2360   601.8    3.472      56.134
2015    8       28    22   4    4.2341   601.8    3.471      56.118
2015    8       28    22  10    4.2321   601.8    3.470      56.100
2015    8       28    22  17    4.2302   601.8    3.468      56.084
2015    8       28    22  23    4.2283   601.8    3.467      56.066
2015    8       28    22  29    4.2264   601.7    3.465      56.049
2015    8       28    22  36    4.2245   601.7    3.464      56.032
2015    8       28    22  42    4.2225   601.7    3.463      56.015
2015    8       28    22  48    4.2206   601.7    3.461      55.997
2015    8       28    22  55    4.2187   601.7    3.460      55.980
2015    8       28    23   1    4.2167   601.6    3.459      55.962
2015    8       28    23   7    4.2148   601.6    3.457      55.945
2015    8       28    23  14    4.2129   601.6    3.456      55.928
2015    8       28    23  20    4.2110   601.6    3.454      55.911
2015    8       28    23  26    4.2090   601.6    3.453      55.894
2015    8       28    23  33    4.2071   601.5    3.452      55.877
2015    8       28    23  39    4.2052   601.5    3.451      55.859
2015    8       28    23  45    4.2033   601.5    3.449      55.843
2015    8       28    23  52    4.2014   601.5    3.448      55.825
2015    8       28    23  58    4.1995   601.4    3.447      55.809
2015    8       29     0   4    4.1975   601.4    3.445      55.792
2015    8       29     0  11    4.1957   601.4    3.444      55.776
2015    8       29     0  17    4.1937   601.4    3.443      55.759
2015    8       29     0  23    4.1918   601.4    3.442      55.742
2015    8       29     0  29    4.1899   601.3    3.441      55.726
2015    8       29     0  36    4.1880   601.3    3.439      55.710
2015    8       29     0  42    4.1861   601.3    3.438      55.693
2015    8       29     0  48    4.1842   601.3    3.437      55.677
2015    8       29     0  55    4.1823   601.2    3.436      55.660
2015    8       29     1   1    4.1804   601.2    3.435      55.644
2015    8       29     1   7    4.1785   601.2    3.433      55.627
2015    8       29     1  14    4.1766   601.2    3.432      55.611
2015    8       29     1  20    4.1746   601.1    3.431      55.594
2015    8       29     1  26    4.1727   601.1    3.430      55.578
2015    8       29     1  33    4.1708   601.1    3.429      55.561
2015    8       29     1  39    4.1689   601.1    3.428      55.544
2015    8       29     1  45    4.1669   601.0    3.426      55.527
2015    8       29     1  51    4.1650   601.0    3.425      55.510
2015    8       29     1  58    4.1631   601.0    3.424      55.493
2015    8       29     2   4    4.1612   601.0    3.423      55.476
2015    8       29     2  10    4.1593   600.9    3.422      55.459
2015    8       29     2  17    4.1573   600.9    3.421      55.443
2015    8       29     2  23    4.1554   600.9    3.419      55.425
2015    8       29     2  29    4.1535   600.9    3.418      55.409
2015    8       29     2  36    4.1516   600.8    3.417      55.392
2015    8       29     2  42    4.1497   600.8    3.416      55.375
2015    8       29     2  48    4.1478   600.8    3.415      55.358
2015    8       29     2  55    4.1459   600.8    3.413      55.341
2015    8       29     3   1    4.1439   600.7    3.412      55.324
2015    8       29     3   7    4.1420   600.7    3.411      55.307
2015    8       29     3  14    4.1401   600.7    3.410      55.290
2015    8       29     3  20    4.1382   600.6    3.409      55.274
2015    8       29     3  26    4.1363   600.6    3.408      55.257
2015    8       29     3  33    4.1344   600.6    3.406      55.240
2015    8       29     3  39    4.1325   600.6    3.405      55.224
2015    8       29     3  45    4.1306   600.5    3.404      55.207
2015    8       29     3  52    4.1287   600.5    3.403      55.190
2015    8       29     3  58    4.1269   600.5    3.402      55.174
2015    8       29     4   4    4.1250   600.4    3.401      55.157
2015    8       29     4  11    4.1231   600.4    3.400      55.141
2015    8       29     4  17    4.1212   600.4    3.398      55.124
2015    8       29     4  23    4.1193   600.4    3.397      55.107
2015    8       29     4  30    4.1174   600.3    3.396      55.090
2015    8       29     4  36    4.1155   600.3    3.395      55.074
2015    8       29     4  42    4.1136   600.3    3.394      55.057
2015    8       29     4  48    4.1118   600.2    3.393      55.040
2015    8       29     4  55    4.1099   600.2    3.391      55.023
2015    8       29     5   1    4.1080   600.2    3.390      55.007
2015    8       29     5   8    4.1062   600.2    3.389      54.989
2015    8       29     5  14    4.1043   600.1    3.388      54.972
2015    8       29     5  20    4.1024   600.1    3.386      54.955
2015    8       29     5  26    4.1006   600.1    3.385      54.937
2015    8       29     5  33    4.0987   600.0    3.384      54.919
2015    8       29     5  39    4.0969   600.0    3.383      54.901
2015    8       29     5  45    4.0950   600.0    3.381      54.883
2015    8       29     5  52    4.0931   599.9    3.380      54.865
2015    8       29     5  58    4.0913   599.9    3.379      54.846
2015    8       29     6   4    4.0894   599.9    3.377      54.828
2015    8       29     6  11    4.0876   599.8    3.376      54.809
2015    8       29     6  17    4.0857   599.8    3.374      54.790
2015    8       29     6  23    4.0838   599.8    3.373      54.770
2015    8       29     6  30    4.0820   599.7    3.371      54.751
2015    8       29     6  36    4.0801   599.7    3.370      54.731
2015    8       29     6  42    4.0783   599.7    3.369      54.712
2015    8       29     6  49    4.0764   599.6    3.367      54.691
2015    8       29     6  55    4.0746   599.6    3.366      54.671
2015    8       29     7   1    4.0727   599.6    3.364      54.650
2015    8       29     7   8    4.0709   599.5    3.363      54.629
2015    8       29     7  14    4.0690   599.5    3.361      54.608
2015    8       29     7  20    4.0672   599.4    3.360      54.587
2015    8       29     7  27    4.0654   599.4    3.358      54.566
2015    8       29     7  33    4.0636   599.4    3.357      54.545
2015    8       29     7  39    4.0618   599.3    3.355      54.524
2015    8       29     7  45    4.0600   599.3    3.354      54.503
2015    8       29     7  52    4.0582   599.2    3.353      54.483
2015    8       29     7  58    4.0565   599.2    3.352      54.463
2015    8       29     8   4    4.0547   599.2    3.350      54.443
2015    8       29     8  11    4.0530   599.1    3.349      54.424
2015    8       29     8  17    4.0512   599.1    3.348      54.405
2015    8       29     8  23    4.0495   599.0    3.347      54.386
2015    8       29     8  30    4.0478   599.0    3.346      54.368
2015    8       29     8  36    4.0461   599.0    3.345      54.350
2015    8       29     8  42    4.0444   598.9    3.344      54.332
2015    8       29     8  49    4.0427   598.9    3.343      54.315
2015    8       29     8  55    4.0409   598.8    3.342      54.297
2015    8       29     9   1    4.0393   598.8    3.341      54.281
2015    8       29     9   8    4.0375   598.8    3.341      54.264
2015    8       29     9  14    4.0358   598.7    3.340      54.247
2015    8       29     9  20    4.0341   598.7    3.339      54.230
2015    8       29     9  26    4.0324   598.6    3.338      54.213
2015    8       29     9  33    4.0307   598.6    3.337      54.196
2015    8       29     9  39    4.0290   598.5    3.336      54.179
2015    8       29     9  45    4.0272   598.5    3.336      54.162
2015    8       29     9  52    4.0255   598.4    3.335      54.145
2015    8       29     9  58    4.0238   598.4    3.334      54.127
2015    8       29    10   4    4.0221   598.3    3.333      54.110
2015    8       29    10  11    4.0204   598.3    3.333      54.093
2015    8       29    10  17    4.0187   598.2    3.332      54.076
2015    8       29    10  23    4.0170   598.2    3.331      54.059
2015    8       29    10  30    4.0153   598.1    3.331      54.042
2015    8       29    10  36    4.0136   598.1    3.330      54.026
2015    8       29    10  42    4.0120   598.0    3.329      54.010
2015    8       29    10  49    4.0103   598.0    3.329      53.994
2015    8       29    10  55    4.0087   597.9    3.328      53.978
2015    8       29    11   1    4.0071   597.9    3.327      53.963
2015    8       29    11   8    4.0055   597.8    3.326      53.949
2015    8       29    11  14    4.0039   597.8    3.326      53.934
2015    8       29    11  20    4.0023   597.7    3.325      53.920
2015    8       29    11  27    4.0007   597.7    3.324      53.905
2015    8       29    11  33    3.9991   597.6    3.323      53.890
2015    8       29    11  39    3.9975   597.6    3.323      53.874
2015    8       29    11  46    3.9959   597.5    3.322      53.859
2015    8       29    11  52    3.9943   597.5    3.321      53.843
2015    8       29    11  58    3.9928   597.4    3.320      53.828
2015    8       29    12   5    3.9912   597.3    3.319      53.812
2015    8       29    12  11    3.9897   597.3    3.318      53.796
2015    8       29    12  17    3.9882   597.2    3.317      53.780
2015    8       29    12  24    3.9867   597.2    3.316      53.764
2015    8       29    12  30    3.9851   597.1    3.315      53.747
2015    8       29    12  36    3.9836   597.1    3.314      53.731
2015    8       29    12  43    3.9821   597.0    3.313      53.714
2015    8       29    12  49    3.9806   597.0    3.312      53.698
2015    8       29    12  55    3.9791   596.9    3.311      53.681
2015    8       29    13   1    3.9776   596.9    3.310      53.664
2015    8       29    13   8    3.9761   596.8    3.309      53.646
2015    8       29    13  14    3.9746   596.8    3.307      53.629
2015    8       29    13  20    3.9731   596.7    3.306      53.611
2015    8       29    13  27    3.9716   596.7    3.305      53.592
2015    8       29    13  33    3.9701   596.6    3.304      53.574
2015    8       29    13  39    3.9686   596.6    3.302      53.555
2015    8       29    13  46    3.9671   596.5    3.301      53.535
2015    8       29    13  52    3.9656   596.5    3.300      53.516
2015    8       29    13  58    3.9641   596.4    3.298      53.495
2015    8       29    14   5    3.9626   596.4    3.297      53.475
2015    8       29    14  11    3.9611   596.3    3.295      53.455
2015    8       29    14  17    3.9596   596.3    3.294      53.434
2015    8       29    14  24    3.9581   596.2    3.293      53.413
2015    8       29    14  30    3.9566   596.2    3.291      53.393
2015    8       29    14  36    3.9551   596.1    3.290      53.372
2015    8       29    14  43    3.9537   596.1    3.289      53.351
2015    8       29    14  49    3.9522   596.0    3.287      53.331
2015    8       29    14  55    3.9508   595.9    3.286      53.311
2015    8       29    15   2    3.9494   595.9    3.285      53.291
2015    8       29    15   8    3.9480   595.8    3.284      53.272
2015    8       29    15  14    3.9466   595.8    3.283      53.253
2015    8       29    15  20    3.9453   595.7    3.282      53.234
2015    8       29    15  27    3.9439   595.7    3.281      53.217
2015    8       29    15  33    3.9426   595.6    3.280      53.200
2015    8       29    15  39    3.9413   595.5    3.279      53.183
2015    8       29    15  46    3.9400   595.5    3.279      53.168
2015    8       29    15  52    3.9388   595.4    3.278      53.152
2015    8       29    15  58    3.9375   595.4    3.278      53.138
2015    8       29    16   5    3.9363   595.3    3.277      53.124
2015    8       29    16  11    3.9350   595.2    3.277      53.111
2015    8       29    16  17    3.9338   595.2    3.277      53.098
2015    8       29    16  24    3.9326   595.1    3.277      53.086
2015    8       29    16  30    3.9314   595.1    3.277      53.074
2015    8       29    16  36    3.9302   595.0    3.277      53.062
2015    8       29    16  42    3.9290   595.0    3.277      53.051
2015    8       29    16  49    3.9278   594.9    3.277      53.041
2015    8       29    16  55    3.9266   594.8    3.277      53.031
2015    8       29    17   1    3.9255   594.8    3.277      53.022
2015    8       29    17   8    3.9243   594.7    3.277      53.012
2015    8       29    17  14    3.9232   594.7    3.277      53.002
2015    8       29    17  20    3.9221   594.6    3.277      52.993
2015    8       29    17  27    3.9210   594.5    3.277      52.983
2015    8       29    17  33    3.9199   594.5    3.278      52.974
2015    8       29    17  39    3.9188   594.4    3.278      52.965
2015    8       29    17  46    3.9178   594.4    3.278      52.955
2015    8       29    17  52    3.9167   594.3    3.278      52.946
2015    8       29    17  58    3.9157   594.3    3.278      52.938
2015    8       29    18   5    3.9146   594.2    3.279      52.930
2015    8       29    18  11    3.9136   594.1    3.279      52.922
2015    8       29    18  17    3.9126   594.1    3.279      52.915
2015    8       29    18  24    3.9116   594.0    3.279      52.907
2015    8       29    18  30    3.9106   594.0    3.279      52.899
2015    8       29    18  36    3.9096   593.9    3.279      52.891
2015    8       29    18  43    3.9086   593.9    3.279      52.883
2015    8       29    18  49    3.9077   593.8    3.279      52.874
2015    8       29    18  55    3.9067   593.7    3.278      52.865
2015    8       29    19   2    3.9058   593.7    3.278      52.856
2015    8       29    19   8    3.9048   593.6    3.278      52.847
2015    8       29    19  14    3.9039   593.6    3.278      52.837
2015    8       29    19  21    3.9030   593.5    3.278      52.828
2015    8       29    19  27    3.9021   593.5    3.277      52.819
2015    8       29    19  33    3.9012   593.4    3.277      52.810
2015    8       29    19  40    3.9003   593.4    3.277      52.800
2015    8       29    19  46    3.8994   593.3    3.277      52.791
2015    8       29    19  52    3.8985   593.3    3.276      52.782
2015    8       29    19  59    3.8976   593.2    3.276      52.772
2015    8       29    20   5    3.8967   593.2    3.276      52.763
2015    8       29    20  11    3.8958   593.1    3.276      52.754
2015    8       29    20  18    3.8949   593.1    3.275      52.744
2015    8       29    20  24    3.8939   593.0    3.275      52.735
2015    8       29    20  30    3.8930   593.0    3.274      52.726
2015    8       29    20  36    3.8921   593.0    3.274      52.717
2015    8       29    20  43    3.8912   592.9    3.274      52.707
2015    8       29    20  49    3.8902   592.9    3.273      52.698
2015    8       29    20  55    3.8893   592.8    3.273      52.688
2015    8       29    21   2    3.8884   592.8    3.272      52.679
2015    8       29    21   8    3.8874   592.7    3.272      52.669
2015    8       29    21  14    3.8865   592.7    3.271      52.659
2015    8       29    21  21    3.8855   592.6    3.270      52.649
2015    8       29    21  27    3.8846   592.6    3.270      52.639
2015    8       29    21  33    3.8836   592.5    3.269      52.628
2015    8       29    21  40    3.8827   592.5    3.269      52.618
2015    8       29    21  46    3.8818   592.4    3.268      52.607
2015    8       29    21  52    3.8808   592.4    3.268      52.597
2015    8       29    21  59    3.8799   592.4    3.267      52.586
2015    8       29    22   5    3.8790   592.3    3.267      52.575
2015    8       29    22  11    3.8780   592.3    3.266      52.564
2015    8       29    22  18    3.8771   592.2    3.266      52.554
2015    8       29    22  24    3.8762   592.2    3.265      52.543
2015    8       29    22  30    3.8753   592.1    3.265      52.533
2015    8       29    22  36    3.8744   592.1    3.265      52.523
2015    8       29    22  43    3.8736   592.0    3.264      52.513
2015    8       29    22  49    3.8727   592.0    3.264      52.503
2015    8       29    22  55    3.8719   591.9    3.264      52.494
2015    8       29    23   2    3.8710   591.9    3.264      52.485
2015    8       29    23   8    3.8702   591.8    3.264      52.476
2015    8       29    23  14    3.8694   591.8    3.264      52.468
2015    8       29    23  21    3.8686   591.7    3.264      52.460
2015    8       29    23  27    3.8679   591.7    3.264      52.452
2015    8       29    23  33    3.8671   591.6    3.264      52.444
2015    8       29    23  40    3.8664   591.6    3.264      52.437
2015    8       29    23  46    3.8656   591.5    3.264      52.430
2015    8       29    23  52    3.8649   591.5    3.264      52.423
2015    8       29    23  58    3.8642   591.4    3.264      52.417
2015    8       30     0   5    3.8635   591.4    3.265      52.411
2015    8       30     0  11    3.8628   591.3    3.265      52.405
2015    8       30     0  17    3.8621   591.3    3.265      52.400
2015    8       30     0  24    3.8615   591.2    3.265      52.394
2015    8       30     0  30    3.8608   591.2    3.266      52.389
2015    8       30     0  36    3.8601   591.1    3.266      52.384
2015    8       30     0  43    3.8595   591.1    3.266      52.379
2015    8       30     0  49    3.8589   591.1    3.267      52.374
2015    8       30     0  55    3.8582   591.0    3.267      52.370
2015    8       30     1   2    3.8576   591.0    3.267      52.366
2015    8       30     1   8    3.8570   590.9    3.268      52.362
2015    8       30     1  14    3.8564   590.9    3.268      52.358
2015    8       30     1  21    3.8558   590.8    3.269      52.355
2015    8       30     1  27    3.8553   590.8    3.269      52.352
2015    8       30     1  33    3.8547   590.8    3.269      52.349
2015    8       30     1  40    3.8542   590.7    3.270      52.346
2015    8       30     1  46    3.8536   590.7    3.270      52.343
2015    8       30     1  52    3.8531   590.6    3.271      52.341
2015    8       30     1  59    3.8525   590.6    3.271      52.339
2015    8       30     2   5    3.8520   590.6    3.271      52.337
2015    8       30     2  11    3.8515   590.5    3.272      52.335
2015    8       30     2  18    3.8509   590.5    3.272      52.333
2015    8       30     2  24    3.8504   590.5    3.273      52.331
2015    8       30     2  30    3.8498   590.4    3.273      52.330
2015    8       30     2  37    3.8492   590.4    3.274      52.328
2015    8       30     2  43    3.8486   590.3    3.274      52.327
2015    8       30     2  49    3.8480   590.3    3.274      52.325
2015    8       30     2  56    3.8474   590.3    3.275      52.324
2015    8       30     3   2    3.8468   590.2    3.275      52.322
2015    8       30     3   8    3.8462   590.2    3.275      52.321
2015    8       30     3  15    3.8455   590.2    3.275      52.319
2015    8       30     3  21    3.8449   590.1    3.276      52.317
2015    8       30     3  27    3.8443   590.1    3.276      52.315
2015    8       30     3  34    3.8436   590.1    3.276      52.313
2015    8       30     3  40    3.8429   590.0    3.276      52.310
2015    8       30     3  46    3.8423   590.0    3.276      52.308
2015    8       30     3  53    3.8416   590.0    3.277      52.304
2015    8       30     3  59    3.8409   589.9    3.277      52.301
2015    8       30     4   5    3.8403   589.9    3.277      52.297
2015    8       30     4  11    3.8396   589.9    3.277      52.294
2015    8       30     4  18    3.8389   589.8    3.277      52.290
2015    8       30     4  24    3.8382   589.8    3.277      52.285
2015    8       30     4  30    3.8376   589.8    3.277      52.281
2015    8       30     4  37    3.8369   589.7    3.277      52.276
2015    8       30     4  43    3.8362   589.7    3.277      52.272
2015    8       30     4  49    3.8356   589.7    3.277      52.267
2015    8       30     4  56    3.8349   589.6    3.277      52.261
2015    8       30     5   2    3.8343   589.6    3.277      52.256
2015    8       30     5   8    3.8336   589.6    3.277      52.251
2015    8       30     5  15    3.8330   589.5    3.277      52.246
2015    8       30     5  21    3.8324   589.5    3.277      52.240
2015    8       30     5  27    3.8317   589.5    3.277      52.235
2015    8       30     5  34    3.8311   589.4    3.277      52.229
2015    8       30     5  40    3.8305   589.4    3.277      52.224
2015    8       30     5  46    3.8299   589.4    3.277      52.218
2015    8       30     5  52    3.8293   589.3    3.277      52.213
2015    8       30     5  59    3.8287   589.3    3.277      52.208
2015    8       30     6   5    3.8282   589.3    3.277      52.203
2015    8       30     6  11    3.8276   589.2    3.277      52.198
2015    8       30     6  18    3.8270   589.2    3.277      52.193
2015    8       30     6  24    3.8265   589.1    3.278      52.188
2015    8       30     6  30    3.8260   589.1    3.278      52.184
2015    8       30     6  37    3.8254   589.1    3.278      52.179
2015    8       30     6  43    3.8249   589.0    3.278      52.175
2015    8       30     6  49    3.8244   589.0    3.278      52.171
2015    8       30     6  56    3.8239   589.0    3.278      52.167
2015    8       30     7   2    3.8234   588.9    3.279      52.163
2015    8       30     7   8    3.8229   588.9    3.279      52.160
2015    8       30     7  15    3.8224   588.9    3.279      52.156
2015    8       30     7  21    3.8219   588.8    3.279      52.153
2015    8       30     7  27    3.8214   588.8    3.279      52.149
2015    8       30     7  33    3.8209   588.8    3.279      52.146
2015    8       30     7  40    3.8204   588.7    3.280      52.142
2015    8       30     7  46    3.8199   588.7    3.280      52.139
2015    8       30     7  52    3.8194   588.7    3.280      52.135
2015    8       30     7  59    3.8189   588.6    3.280      52.132
2015    8       30     8   5    3.8184   588.6    3.280      52.128
2015    8       30     8  11    3.8180   588.6    3.280      52.125
2015    8       30     8  18    3.8175   588.6    3.280      52.121
2015    8       30     8  24    3.8170   588.5    3.280      52.117
2015    8       30     8  30    3.8165   588.5    3.281      52.113
2015    8       30     8  37    3.8160   588.5    3.281      52.109
2015    8       30     8  43    3.8155   588.4    3.281      52.105
2015    8       30     8  49    3.8150   588.4    3.281      52.102
2015    8       30     8  56    3.8145   588.4    3.281      52.098
2015    8       30     9   2    3.8140   588.3    3.281      52.094
2015    8       30     9   8    3.8135   588.3    3.281      52.090
2015    8       30     9  15    3.8130   588.3    3.281      52.086
2015    8       30     9  21    3.8125   588.2    3.281      52.082
2015    8       30     9  27    3.8120   588.2    3.281      52.078
2015    8       30     9  34    3.8115   588.2    3.281      52.074
2015    8       30     9  40    3.8110   588.1    3.281      52.070
2015    8       30     9  46    3.8105   588.1    3.281      52.066
2015    8       30     9  53    3.8100   588.1    3.281      52.063
2015    8       30     9  59    3.8095   588.0    3.281      52.059
2015    8       30    10   5    3.8090   588.0    3.281      52.056
2015    8       30    10  12    3.8085   588.0    3.281      52.052
2015    8       30    10  18    3.8080   587.9    3.281      52.049
2015    8       30    10  24    3.8075   587.9    3.281      52.046
2015    8       30    10  31    3.8070   587.9    3.281      52.044
2015    8       30    10  37    3.8065   587.8    3.281      52.041
2015    8       30    10  43    3.8060   587.8    3.281      52.039
2015    8       30    10  50    3.8055   587.8    3.282      52.036
2015    8       30    10  56    3.8051   587.7    3.282      52.035
2015    8       30    11   2    3.8046   587.7    3.282      52.033
2015    8       30    11   9    3.8042   587.7    3.282      52.032
2015    8       30    11  15    3.8037   587.6    3.283      52.031
2015    8       30    11  21    3.8033   587.6    3.283      52.031
2015    8       30    11  28    3.8029   587.6    3.283      52.030
2015    8       30    11  34    3.8024   587.5    3.284      52.030
2015    8       30    11  40    3.8020   587.5    3.284      52.030
2015    8       30    11  46    3.8016   587.5    3.284      52.031
2015    8       30    11  53    3.8013   587.4    3.285      52.031
2015    8       30    11  59    3.8009   587.4    3.285      52.032
2015    8       30    12   5    3.8005   587.4    3.286      52.033
2015    8       30    12  12    3.8001   587.3    3.287      52.034
2015    8       30    12  18    3.7998   587.3    3.287      52.035
2015    8       30    12  24    3.7994   587.3    3.288      52.037
2015    8       30    12  31    3.7991   587.3    3.288      52.038
2015    8       30    12  37    3.7988   587.2    3.289      52.040
2015    8       30    12  43    3.7984   587.2    3.290      52.041
2015    8       30    12  50    3.7981   587.2    3.290      52.043
2015    8       30    12  56    3.7978   587.1    3.291      52.045
2015    8       30    13   2    3.7974   587.1    3.292      52.047
2015    8       30    13   9    3.7971   587.1    3.292      52.049
2015    8       30    13  15    3.7968   587.1    3.293      52.051
2015    8       30    13  21    3.7965   587.0    3.294      52.053
2015    8       30    13  27    3.7962   587.0    3.294      52.055
2015    8       30    13  34    3.7959   587.0    3.295      52.057
2015    8       30    13  40    3.7956   586.9    3.296      52.059
2015    8       30    13  46    3.7952   586.9    3.296      52.061
2015    8       30    13  53    3.7949   586.9    3.297      52.063
2015    8       30    13  59    3.7946   586.9    3.298      52.065
2015    8       30    14   5    3.7943   586.8    3.298      52.066
2015    8       30    14  12    3.7940   586.8    3.299      52.068
2015    8       30    14  18    3.7937   586.8    3.300      52.070
2015    8       30    14  24    3.7933   586.8    3.300      52.072
2015    8       30    14  31    3.7930   586.7    3.301      52.074
2015    8       30    14  37    3.7927   586.7    3.302      52.075
2015    8       30    14  43    3.7923   586.7    3.302      52.078
2015    8       30    14  50    3.7920   586.6    3.303      52.079
2015    8       30    14  56    3.7916   586.6    3.304      52.081
2015    8       30    15   2    3.7912   586.6    3.304      52.083
2015    8       30    15   8    3.7909   586.6    3.305      52.085
2015    8       30    15  15    3.7905   586.5    3.305      52.087
2015    8       30    15  21    3.7901   586.5    3.306      52.089
2015    8       30    15  27    3.7897   586.5    3.307      52.091
2015    8       30    15  34    3.7893   586.5    3.307      52.093
2015    8       30    15  40    3.7889   586.4    3.308      52.095
2015    8       30    15  46    3.7885   586.4    3.308      52.097
2015    8       30    15  53    3.7881   586.4    3.309      52.099
2015    8       30    15  59    3.7877   586.4    3.309      52.101
2015    8       30    16   5    3.7872   586.3    3.310      52.103
2015    8       30    16  12    3.7868   586.3    3.310      52.105
2015    8       30    16  18    3.7864   586.3    3.310      52.106
2015    8       30    16  24    3.7859   586.3    3.311      52.108
2015    8       30    16  31    3.7855   586.2    3.311      52.110
2015    8       30    16  37    3.7850   586.2    3.311      52.112
2015    8       30    16  43    3.7845   586.2    3.312      52.113
2015    8       30    16  50    3.7841   586.2    3.312      52.115
2015    8       30    16  56    3.7836   586.1    3.312      52.116
2015    8       30    17   2    3.7832   586.1    3.312      52.117
2015    8       30    17   9    3.7827   586.1    3.313      52.118
2015    8       30    17  15    3.7822   586.0    3.313      52.119
2015    8       30    17  21    3.7818   586.0    3.313      52.120
2015    8       30    17  28    3.7813   586.0    3.313      52.120
2015    8       30    17  34    3.7808   586.0    3.313      52.121
2015    8       30    17  40    3.7803   585.9    3.313      52.121
2015    8       30    17  47    3.7799   585.9    3.313      52.121
2015    8       30    17  53    3.7794   585.9    3.313      52.121
2015    8       30    17  59    3.7789   585.9    3.314      52.121
2015    8       30    18   6    3.7785   585.8    3.314      52.121
2015    8       30    18  12    3.7780   585.8    3.314      52.121
2015    8       30    18  18    3.7776   585.8    3.314      52.121
2015    8       30    18  25    3.7771   585.8    3.314      52.120
2015    8       30    18  31    3.7766   585.7    3.314      52.120
2015    8       30    18  37    3.7762   585.7    3.314      52.119
2015    8       30    18  44    3.7757   585.7    3.314      52.119
2015    8       30    18  50    3.7753   585.7    3.314      52.119
2015    8       30    18  56    3.7748   585.6    3.314      52.118
2015    8       30    19   2    3.7744   585.6    3.314      52.118
2015    8       30    19   9    3.7740   585.6    3.315      52.118
2015    8       30    19  15    3.7736   585.5    3.315      52.118
2015    8       30    19  21    3.7731   585.5    3.315      52.118
2015    8       30    19  28    3.7727   585.5    3.315      52.118
2015    8       30    19  34    3.7723   585.5    3.316      52.119
2015    8       30    19  40    3.7719   585.4    3.316      52.119
2015    8       30    19  47    3.7715   585.4    3.316      52.120
2015    8       30    19  53    3.7711   585.4    3.317      52.121
2015    8       30    19  59    3.7707   585.4    3.317      52.122
2015    8       30    20   6    3.7703   585.3    3.317      52.123
2015    8       30    20  12    3.7699   585.3    3.318      52.125
2015    8       30    20  18    3.7695   585.3    3.319      52.126
2015    8       30    20  25    3.7692   585.2    3.319      52.128
2015    8       30    20  31    3.7688   585.2    3.320      52.130
2015    8       30    20  37    3.7684   585.2    3.320      52.133
2015    8       30    20  43    3.7680   585.2    3.321      52.135
2015    8       30    20  50    3.7677   585.1    3.322      52.138
2015    8       30    20  56    3.7673   585.1    3.322      52.141
2015    8       30    21   2    3.7669   585.1    3.323      52.144
2015    8       30    21   9    3.7665   585.1    3.324      52.147
2015    8       30    21  15    3.7661   585.0    3.325      52.151
2015    8       30    21  21    3.7657   585.0    3.326      52.154
2015    8       30    21  28    3.7653   585.0    3.326      52.158
2015    8       30    21  34    3.7649   585.0    3.327      52.162
2015    8       30    21  40    3.7644   584.9    3.328      52.166
2015    8       30    21  47    3.7640   584.9    3.329      52.170
2015    8       30    21  53    3.7635   584.9    3.330      52.175
2015    8       30    21  59    3.7630   584.8    3.331      52.179
2015    8       30    22   6    3.7625   584.8    3.332      52.183
2015    8       30    22  12    3.7620   584.8    3.333      52.187
2015    8       30    22  18    3.7615   584.8    3.333      52.192
2015    8       30    22  24    3.7610   584.7    3.334      52.196
2015    8       30    22  31    3.7604   584.7    3.335      52.201
2015    8       30    22  37    3.7599   584.7    3.336      52.205
2015    8       30    22  43    3.7593   584.6    3.337      52.209
2015    8       30    22  50    3.7587   584.6    3.338      52.214
2015    8       30    22  56    3.7581   584.6    3.338      52.218
2015    8       30    23   2    3.7575   584.6    3.339      52.222
2015    8       30    23   9    3.7569   584.5    3.340      52.227
2015    8       30    23  15    3.7563   584.5    3.340      52.231
2015    8       30    23  21    3.7557   584.5    3.341      52.235
2015    8       30    23  28    3.7550   584.4    3.342      52.239
2015    8       30    23  34    3.7544   584.4    3.342      52.244
2015    8       30    23  40    3.7537   584.4    3.343      52.248
2015    8       30    23  47    3.7530   584.3    3.344      52.252
2015    8       30    23  53    3.7524   584.3    3.344      52.256
2015    8       30    23  59    3.7517   584.3    3.345      52.260
2015    8       31     0   6    3.7510   584.3    3.345      52.263
2015    8       31     0  12    3.7503   584.2    3.346      52.267
2015    8       31     0  18    3.7496   584.2    3.346      52.271
2015    8       31     0  25    3.7489   584.2    3.347      52.274
2015    8       31     0  31    3.7482   584.1    3.347      52.278
2015    8       31     0  37    3.7475   584.1    3.348      52.281
2015    8       31     0  44    3.7468   584.1    3.348      52.284
2015    8       31     0  50    3.7461   584.0    3.348      52.287
2015    8       31     0  56    3.7454   584.0    3.349      52.290
2015    8       31     1   3    3.7447   584.0    3.349      52.292
2015    8       31     1   9    3.7440   584.0    3.349      52.295
2015    8       31     1  15    3.7433   583.9    3.349      52.297
2015    8       31     1  22    3.7426   583.9    3.350      52.299
2015    8       31     1  28    3.7419   583.9    3.350      52.301
2015    8       31     1  34    3.7411   583.8    3.350      52.302
2015    8       31     1  41    3.7404   583.8    3.350      52.304
2015    8       31     1  47    3.7397   583.8    3.350      52.305
2015    8       31     1  53    3.7390   583.7    3.350      52.306
2015    8       31     2   0    3.7382   583.7    3.350      52.306
2015    8       31     2   6    3.7375   583.7    3.350      52.307
2015    8       31     2  12    3.7367   583.7    3.350      52.306
2015    8       31     2  18    3.7360   583.6    3.350      52.306
2015    8       31     2  25    3.7352   583.6    3.350      52.306
2015    8       31     2  31    3.7344   583.6    3.350      52.305
2015    8       31     2  37    3.7337   583.5    3.350      52.304
2015    8       31     2  44    3.7329   583.5    3.350      52.303
2015    8       31     2  50    3.7321   583.5    3.350      52.302
2015    8       31     2  56    3.7313   583.4    3.350      52.300
2015    8       31     3   3    3.7305   583.4    3.350      52.299
2015    8       31     3   9    3.7297   583.4    3.350      52.297
2015    8       31     3  15    3.7289   583.3    3.350      52.295
2015    8       31     3  22    3.7281   583.3    3.350      52.292
2015    8       31     3  28    3.7273   583.3    3.350      52.290
2015    8       31     3  34    3.7264   583.2    3.350      52.287
2015    8       31     3  41    3.7256   583.2    3.350      52.285
2015    8       31     3  47    3.7247   583.2    3.350      52.282
2015    8       31     3  53    3.7239   583.1    3.350      52.279
2015    8       31     3  59    3.7230   583.1    3.350      52.276
2015    8       31     4   6    3.7221   583.0    3.350      52.273
2015    8       31     4  12    3.7212   583.0    3.350      52.270
2015    8       31     4  18    3.7203   583.0    3.350      52.266
2015    8       31     4  25    3.7194   582.9    3.350      52.263
2015    8       31     4  31    3.7185   582.9    3.350      52.260
2015    8       31     4  37    3.7176   582.9    3.351      52.257
2015    8       31     4  44    3.7166   582.8    3.351      52.254
2015    8       31     4  50    3.7156   582.8    3.351      52.250
2015    8       31     4  56    3.7146   582.7    3.351      52.247
2015    8       31     5   3    3.7136   582.7    3.352      52.244
2015    8       31     5   9    3.7126   582.7    3.352      52.241
2015    8       31     5  15    3.7115   582.6    3.352      52.238
2015    8       31     5  22    3.7105   582.6    3.353      52.235
2015    8       31     5  28    3.7094   582.5    3.353      52.232
2015    8       31     5  34    3.7083   582.5    3.353      52.228
2015    8       31     5  40    3.7072   582.5    3.354      52.226
2015    8       31     5  47    3.7061   582.4    3.354      52.223
2015    8       31     5  53    3.7050   582.4    3.354      52.220
2015    8       31     5  59    3.7038   582.3    3.355      52.217
2015    8       31     6   6    3.7026   582.3    3.355      52.214
2015    8       31     6  12    3.7014   582.2    3.355      52.211
2015    8       31     6  18    3.7002   582.2    3.356      52.208
2015    8       31     6  25    3.6990   582.2    3.356      52.205
2015    8       31     6  31    3.6978   582.1    3.356      52.203
2015    8       31     6  37    3.6965   582.1    3.357      52.200
2015    8       31     6  44    3.6953   582.0    3.357      52.197
2015    8       31     6  50    3.6940   582.0    3.357      52.194
2015    8       31     6  56    3.6927   581.9    3.358      52.191
2015    8       31     7   3    3.6914   581.9    3.358      52.188
2015    8       31     7   9    3.6902   581.8    3.358      52.185
2015    8       31     7  15    3.6888   581.8    3.358      52.181
2015    8       31     7  22    3.6875   581.7    3.358      52.178
2015    8       31     7  28    3.6862   581.7    3.358      52.175
2015    8       31     7  34    3.6849   581.6    3.359      52.172
2015    8       31     7  41    3.6836   581.6    3.359      52.168
2015    8       31     7  47    3.6823   581.5    3.359      52.165
2015    8       31     7  53    3.6810   581.5    3.359      52.161
2015    8       31     8   0    3.6797   581.4    3.359      52.157
2015    8       31     8   6    3.6784   581.4    3.359      52.154
2015    8       31     8  12    3.6772   581.3    3.359      52.150
2015    8       31     8  19    3.6759   581.3    3.359      52.146
2015    8       31     8  25    3.6746   581.2    3.359      52.142
2015    8       31     8  31    3.6733   581.2    3.359      52.138
2015    8       31     8  38    3.6721   581.1    3.359      52.134
2015    8       31     8  44    3.6708   581.1    3.358      52.129
2015    8       31     8  50    3.6695   581.0    3.358      52.125
2015    8       31     8  57    3.6683   581.0    3.358      52.120
2015    8       31     9   3    3.6670   580.9    3.358      52.115
2015    8       31     9   9    3.6658   580.9    3.358      52.110
2015    8       31     9  16    3.6645   580.8    3.357      52.105
2015    8       31     9  22    3.6632   580.8    3.357      52.099
2015    8       31     9  28    3.6619   580.7    3.357      52.093
2015    8       31     9  35    3.6606   580.7    3.357      52.087
2015    8       31     9  41    3.6592   580.6    3.356      52.081
2015    8       31     9  47    3.6579   580.6    3.356      52.074
2015    8       31     9  53    3.6565   580.5    3.355      52.067
2015    8       31    10   0    3.6551   580.5    3.355      52.060
2015    8       31    10   6    3.6537   580.4    3.355      52.052
2015    8       31    10  12    3.6522   580.4    3.354      52.044
2015    8       31    10  19    3.6508   580.3    3.354      52.036
2015    8       31    10  25    3.6493   580.3    3.353      52.027
2015    8       31    10  31    3.6478   580.2    3.353      52.018
2015    8       31    10  38    3.6463   580.2    3.352      52.008
2015    8       31    10  44    3.6448   580.1    3.352      51.998
2015    8       31    10  50    3.6432   580.1    3.351      51.988
2015    8       31    10  57    3.6417   580.0    3.350      51.977
2015    8       31    11   3    3.6401   580.0    3.350      51.966
2015    8       31    11   9    3.6385   579.9    3.349      51.955
2015    8       31    11  16    3.6369   579.8    3.349      51.943
2015    8       31    11  22    3.6352   579.8    3.348      51.931
2015    8       31    11  28    3.6336   579.7    3.347      51.918
2015    8       31    11  34    3.6319   579.7    3.347      51.906
2015    8       31    11  41    3.6302   579.6    3.346      51.893
2015    8       31    11  47    3.6285   579.5    3.346      51.880
2015    8       31    11  53    3.6267   579.5    3.345      51.867
2015    8       31    12   0    3.6250   579.4    3.345      51.854
2015    8       31    12   6    3.6232   579.4    3.344      51.840
2015    8       31    12  12    3.6214   579.3    3.344      51.827
2015    8       31    12  19    3.6196   579.2    3.343      51.814
2015    8       31    12  25    3.6178   579.2    3.343      51.801
2015    8       31    12  31    3.6159   579.1    3.343      51.788
2015    8       31    12  38    3.6141   579.0    3.342      51.775
2015    8       31    12  44    3.6122   579.0    3.342      51.762
2015    8       31    12  50    3.6103   578.9    3.342      51.749
2015    8       31    12  57    3.6084   578.8    3.341      51.736
2015    8       31    13   3    3.6065   578.7    3.341      51.724
2015    8       31    13   9    3.6045   578.7    3.341      51.711
2015    8       31    13  15    3.6026   578.6    3.341      51.699
2015    8       31    13  22    3.6006   578.5    3.340      51.686
2015    8       31    13  28    3.5987   578.5    3.340      51.674
2015    8       31    13  34    3.5966   578.4    3.340      51.661
2015    8       31    13  41    3.5947   578.3    3.340      51.649
2015    8       31    13  47    3.5926   578.2    3.340      51.636
2015    8       31    13  53    3.5906   578.2    3.340      51.624
2015    8       31    14   0    3.5886   578.1    3.339      51.611
2015    8       31    14   6    3.5866   578.0    3.339      51.598
2015    8       31    14  12    3.5845   577.9    3.339      51.585
2015    8       31    14  19    3.5825   577.8    3.339      51.572
2015    8       31    14  25    3.5804   577.7    3.338      51.558
2015    8       31    14  31    3.5784   577.7    3.338      51.544
2015    8       31    14  38    3.5763   577.6    3.338      51.529
2015    8       31    14  44    3.5743   577.5    3.337      51.515
2015    8       31    14  50    3.5722   577.4    3.337      51.500
2015    8       31    14  57    3.5702   577.3    3.337      51.485
2015    8       31    15   3    3.5681   577.2    3.336      51.469
2015    8       31    15   9    3.5661   577.1    3.336      51.454
2015    8       31    15  16    3.5641   577.0    3.335      51.438
2015    8       31    15  22    3.5621   577.0    3.334      51.422
2015    8       31    15  28    3.5601   576.9    3.334      51.405
2015    8       31    15  35    3.5581   576.8    3.333      51.389
2015    8       31    15  41    3.5561   576.7    3.333      51.371
2015    8       31    15  47    3.5541   576.6    3.332      51.354
2015    8       31    15  54    3.5521   576.5    3.331      51.337
2015    8       31    16   0    3.5502   576.4    3.331      51.319
2015    8       31    16   6    3.5482   576.3    3.330      51.301
2015    8       31    16  13    3.5462   576.2    3.329      51.283
2015    8       31    16  19    3.5442   576.1    3.328      51.265
2015    8       31    16  25    3.5423   576.0    3.328      51.247
2015    8       31    16  32    3.5402   575.9    3.327      51.228
2015    8       31    16  38    3.5382   575.8    3.326      51.209
2015    8       31    16  44    3.5362   575.7    3.325      51.190
2015    8       31    16  51    3.5341   575.6    3.325      51.170
2015    8       31    16  57    3.5320   575.6    3.324      51.150
2015    8       31    17   3    3.5300   575.5    3.323      51.130
2015    8       31    17  10    3.5278   575.4    3.322      51.110
2015    8       31    17  16    3.5257   575.3    3.321      51.090
2015    8       31    17  22    3.5235   575.2    3.320      51.069
2015    8       31    17  28    3.5214   575.1    3.319      51.048
2015    8       31    17  35    3.5192   575.0    3.319      51.026
2015    8       31    17  41    3.5170   574.9    3.318      51.005
2015    8       31    17  47    3.5147   574.8    3.317      50.983
2015    8       31    17  54    3.5125   574.7    3.316      50.961
2015    8       31    18   0    3.5102   574.6    3.315      50.938
2015    8       31    18   6    3.5079   574.5    3.314      50.916
2015    8       31    18  13    3.5056   574.4    3.313      50.893
2015    8       31    18  19    3.5033   574.3    3.312      50.871
2015    8       31    18  25    3.5010   574.2    3.311      50.848
2015    8       31    18  32    3.4986   574.1    3.311      50.825
2015    8       31    18  38    3.4962   574.0    3.310      50.802
2015    8       31    18  44    3.4939   573.9    3.309      50.779
2015    8       31    18  50    3.4915   573.7    3.308      50.756
2015    8       31    18  57    3.4891   573.6    3.307      50.733
2015    8       31    19   3    3.4867   573.5    3.306      50.711
2015    8       31    19   9    3.4843   573.4    3.306      50.688
2015    8       31    19  16    3.4818   573.3    3.305      50.666
2015    8       31    19  22    3.4794   573.2    3.304      50.644
2015    8       31    19  28    3.4769   573.1    3.303      50.622
2015    8       31    19  35    3.4745   573.0    3.303      50.600
2015    8       31    19  41    3.4720   572.8    3.302      50.578
2015    8       31    19  47    3.4696   572.7    3.302      50.557
2015    8       31    19  54    3.4671   572.6    3.301      50.536
2015    8       31    20   0    3.4646   572.5    3.301      50.515
2015    8       31    20   6    3.4621   572.4    3.300      50.494
2015    8       31    20  13    3.4596   572.3    3.300      50.474
2015    8       31    20  19    3.4571   572.1    3.299      50.453
2015    8       31    20  25    3.4547   572.0    3.299      50.432
2015    8       31    20  32    3.4521   571.9    3.298      50.412
2015    8       31    20  38    3.4497   571.8    3.298      50.391
2015    8       31    20  44    3.4471   571.6    3.297      50.370
2015    8       31    20  50    3.4446   571.5    3.297      50.350
2015    8       31    20  57    3.4421   571.4    3.297      50.329
2015    8       31    21   3    3.4396   571.3    3.296      50.308
2015    8       31    21   9    3.4371   571.1    3.296      50.287
2015    8       31    21  16    3.4346   571.0    3.296      50.265
2015    8       31    21  22    3.4321   570.9    3.295      50.243
2015    8       31    21  28    3.4296   570.8    3.295      50.222
2015    8       31    21  35    3.4271   570.6    3.294      50.199
2015    8       31    21  41    3.4246   570.5    3.294      50.177
2015    8       31    21  47    3.4221   570.3    3.294      50.154
2015    8       31    21  54    3.4196   570.2    3.293      50.131
2015    8       31    22   0    3.4171   570.1    3.293      50.107
2015    8       31    22   6    3.4147   569.9    3.292      50.084
2015    8       31    22  13    3.4122   569.8    3.292      50.059
2015    8       31    22  19    3.4098   569.7    3.292      50.035
2015    8       31    22  25    3.4074   569.5    3.291      50.010
2015    8       31    22  32    3.4049   569.4    3.291      49.986
2015    8       31    22  38    3.4025   569.2    3.290      49.960
2015    8       31    22  44    3.4001   569.1    3.290      49.935
2015    8       31    22  51    3.3976   569.0    3.289      49.908
2015    8       31    22  57    3.3952   568.8    3.289      49.882
2015    8       31    23   3    3.3927   568.7    3.288      49.854
2015    8       31    23  10    3.3903   568.5    3.288      49.827
2015    8       31    23  16    3.3878   568.4    3.287      49.798
2015    8       31    23  22    3.3854   568.2    3.287      49.769
2015    8       31    23  29    3.3829   568.1    3.286      49.740
2015    8       31    23  35    3.3804   567.9    3.286      49.710
2015    8       31    23  41    3.3779   567.8    3.285      49.680
2015    8       31    23  48    3.3754   567.6    3.285      49.649
2015    8       31    23  54    3.3729   567.5    3.284      49.618
2015    9        1     0   0    3.3704   567.3    3.283      49.587
