year    month   day   hour  minute  B_enl V_enl   n_enl       T_enl
[year] [month] [day] [hour][minute] [nT]  [km/s]  [cm-3]      [kK]
2015    8       27     0   1    4.8305   398.7   10.627      38.000
2015    8       27     0   9    4.8412   399.0   10.626      38.090
2015    8       27     0  17    4.8519   399.2   10.626      38.181
2015    8       27     0  24    4.8626   399.5   10.626      38.270
2015    8       27     0  32    4.8733   399.8   10.626      38.360
2015    8       27     0  40    4.8840   400.0   10.628      38.451
2015    8       27     0  47    4.8948   400.3   10.630      38.545
2015    8       27     0  55    4.9056   400.6   10.633      38.639
2015    8       27     1   3    4.9166   400.9   10.637      38.736
2015    8       27     1  10    4.9277   401.1   10.642      38.836
2015    8       27     1  18    4.9389   401.4   10.649      38.941
2015    8       27     1  26    4.9503   401.7   10.657      39.048
2015    8       27     1  33    4.9618   402.0   10.668      39.159
2015    8       27     1  41    4.9735   402.3   10.680      39.269
2015    8       27     1  49    4.9854   402.6   10.695      39.382
2015    8       27     1  56    4.9975   402.9   10.711      39.501
2015    8       27     2   4    5.0098   403.2   10.729      39.627
2015    8       27     2  12    5.0224   403.5   10.747      39.758
2015    8       27     2  19    5.0352   403.9   10.766      39.895
2015    8       27     2  27    5.0480   404.3   10.786      40.036
2015    8       27     2  35    5.0610   404.7   10.805      40.183
2015    8       27     2  42    5.0741   405.1   10.823      40.329
2015    8       27     2  50    5.0872   405.4   10.842      40.476
2015    8       27     2  58    5.1001   405.8   10.860      40.621
2015    8       27     3   6    5.1130   406.2   10.878      40.770
2015    8       27     3  13    5.1258   406.6   10.896      40.916
2015    8       27     3  21    5.1387   407.1   10.914      41.066
2015    8       27     3  29    5.1517   407.5   10.932      41.216
2015    8       27     3  36    5.1648   407.9   10.951      41.372
2015    8       27     3  44    5.1781   408.3   10.971      41.530
2015    8       27     3  52    5.1918   408.7   10.993      41.688
2015    8       27     3  59    5.2058   409.1   11.018      41.850
2015    8       27     4   7    5.2205   409.6   11.044      42.029
2015    8       27     4  15    5.2353   410.0   11.070      42.218
2015    8       27     4  23    5.2503   410.6   11.097      42.417
2015    8       27     4  30    5.2653   411.1   11.121      42.625
2015    8       27     4  38    5.2801   411.7   11.144      42.845
2015    8       27     4  46    5.2943   412.3   11.164      43.063
2015    8       27     4  53    5.3080   413.0   11.180      43.277
2015    8       27     5   1    5.3209   413.6   11.193      43.483
2015    8       27     5   9    5.3333   414.2   11.202      43.684
2015    8       27     5  16    5.3448   414.9   11.207      43.878
2015    8       27     5  24    5.3555   415.5   11.208      44.067
2015    8       27     5  32    5.3654   416.1   11.206      44.245
2015    8       27     5  39    5.3747   416.8   11.200      44.417
2015    8       27     5  47    5.3833   417.4   11.191      44.581
2015    8       27     5  55    5.3914   418.0   11.179      44.740
2015    8       27     6   2    5.3991   418.6   11.166      44.892
2015    8       27     6  10    5.4063   419.2   11.151      45.039
2015    8       27     6  18    5.4133   419.8   11.134      45.181
2015    8       27     6  25    5.4200   420.4   11.116      45.318
2015    8       27     6  33    5.4265   421.0   11.098      45.450
2015    8       27     6  41    5.4328   421.5   11.078      45.580
2015    8       27     6  48    5.4390   422.1   11.058      45.705
2015    8       27     6  56    5.4451   422.6   11.038      45.827
2015    8       27     7   4    5.4511   423.2   11.016      45.946
2015    8       27     7  11    5.4571   423.7   10.994      46.061
2015    8       27     7  19    5.4629   424.2   10.972      46.172
2015    8       27     7  27    5.4687   424.8   10.949      46.281
2015    8       27     7  34    5.4745   425.3   10.926      46.384
2015    8       27     7  42    5.4802   425.8   10.902      46.485
2015    8       27     7  50    5.4858   426.4   10.878      46.582
2015    8       27     7  58    5.4913   426.9   10.854      46.679
2015    8       27     8   5    5.4967   427.5   10.829      46.773
2015    8       27     8  13    5.5020   428.0   10.803      46.864
2015    8       27     8  21    5.5070   428.6   10.778      46.953
2015    8       27     8  28    5.5118   429.2   10.750      47.044
2015    8       27     8  36    5.5164   429.8   10.721      47.133
2015    8       27     8  44    5.5204   430.5   10.690      47.219
2015    8       27     8  51    5.5240   431.1   10.658      47.298
2015    8       27     8  59    5.5272   431.8   10.626      47.373
2015    8       27     9   7    5.5301   432.4   10.594      47.438
2015    8       27     9  14    5.5328   432.9   10.563      47.496
2015    8       27     9  22    5.5355   433.4   10.534      47.546
2015    8       27     9  30    5.5383   433.8   10.507      47.594
2015    8       27     9  37    5.5413   434.2   10.482      47.641
2015    8       27     9  45    5.5446   434.6   10.460      47.693
2015    8       27     9  53    5.5483   435.0   10.440      47.754
2015    8       27    10   0    5.5522   435.4   10.422      47.826
2015    8       27    10   8    5.5569   435.8   10.406      47.910
2015    8       27    10  16    5.5621   436.3   10.394      48.006
2015    8       27    10  23    5.5679   436.8   10.384      48.126
2015    8       27    10  31    5.5739   437.4   10.377      48.264
2015    8       27    10  39    5.5803   437.9   10.373      48.415
2015    8       27    10  47    5.5868   438.5   10.371      48.579
2015    8       27    10  54    5.5933   439.1   10.371      48.752
2015    8       27    11   2    5.5997   439.6   10.373      48.928
2015    8       27    11  10    5.6063   440.1   10.377      49.092
2015    8       27    11  17    5.6132   440.7   10.384      49.261
2015    8       27    11  25    5.6203   441.2   10.393      49.438
2015    8       27    11  33    5.6274   441.7   10.403      49.625
2015    8       27    11  40    5.6347   442.3   10.414      49.818
2015    8       27    11  48    5.6418   442.9   10.424      50.024
2015    8       27    11  56    5.6488   443.6   10.432      50.240
2015    8       27    12   4    5.6552   444.2   10.439      50.457
2015    8       27    12  11    5.6612   444.9   10.443      50.668
2015    8       27    12  19    5.6666   445.6   10.444      50.878
2015    8       27    12  27    5.6714   446.4   10.442      51.081
2015    8       27    12  34    5.6755   447.1   10.437      51.284
2015    8       27    12  42    5.6789   447.9   10.429      51.481
2015    8       27    12  50    5.6816   448.6   10.417      51.673
2015    8       27    12  57    5.6838   449.4   10.403      51.859
2015    8       27    13   5    5.6855   450.2   10.386      52.041
2015    8       27    13  13    5.6868   450.9   10.368      52.216
2015    8       27    13  20    5.6877   451.7   10.347      52.389
2015    8       27    13  28    5.6884   452.5   10.325      52.556
2015    8       27    13  36    5.6889   453.2   10.302      52.721
2015    8       27    13  43    5.6891   454.0   10.278      52.880
2015    8       27    13  51    5.6893   454.7   10.254      53.038
2015    8       27    13  59    5.6894   455.4   10.229      53.190
2015    8       27    14   6    5.6894   456.1   10.202      53.340
2015    8       27    14  14    5.6893   456.8   10.176      53.485
2015    8       27    14  22    5.6892   457.6   10.149      53.629
2015    8       27    14  29    5.6889   458.3   10.120      53.766
2015    8       27    14  37    5.6885   459.0   10.091      53.901
2015    8       27    14  45    5.6880   459.7   10.061      54.030
2015    8       27    14  52    5.6872   460.4   10.030      54.153
2015    8       27    15   0    5.6864   461.1    9.998      54.269
2015    8       27    15   8    5.6853   461.9    9.965      54.381
2015    8       27    15  15    5.6840   462.6    9.932      54.488
2015    8       27    15  23    5.6826   463.3    9.898      54.591
2015    8       27    15  31    5.6810   464.1    9.863      54.689
2015    8       27    15  38    5.6792   464.9    9.827      54.785
2015    8       27    15  46    5.6770   465.7    9.790      54.880
2015    8       27    15  54    5.6746   466.6    9.750      54.975
2015    8       27    16   1    5.6716   467.4    9.709      55.062
2015    8       27    16   9    5.6682   468.3    9.667      55.144
2015    8       27    16  17    5.6645   469.2    9.623      55.221
2015    8       27    16  25    5.6604   470.1    9.580      55.289
2015    8       27    16  32    5.6561   470.8    9.538      55.348
2015    8       27    16  40    5.6517   471.6    9.496      55.399
2015    8       27    16  48    5.6473   472.3    9.457      55.450
2015    8       27    16  55    5.6428   473.0    9.417      55.503
2015    8       27    17   3    5.6385   473.7    9.380      55.561
2015    8       27    17  11    5.6339   474.5    9.342      55.629
2015    8       27    17  18    5.6293   475.2    9.304      55.705
2015    8       27    17  26    5.6246   475.9    9.265      55.790
2015    8       27    17  34    5.6200   476.8    9.227      55.883
2015    8       27    17  41    5.6146   477.6    9.186      55.995
2015    8       27    17  49    5.6087   478.5    9.145      56.106
2015    8       27    17  57    5.6022   479.4    9.103      56.217
2015    8       27    18   4    5.5953   480.3    9.060      56.326
2015    8       27    18  12    5.5875   481.1    9.016      56.436
2015    8       27    18  20    5.5796   481.9    8.974      56.532
2015    8       27    18  28    5.5713   482.7    8.931      56.622
2015    8       27    18  35    5.5631   483.5    8.889      56.709
2015    8       27    18  43    5.5546   484.2    8.848      56.796
2015    8       27    18  51    5.5463   485.0    8.808      56.882
2015    8       27    18  58    5.5378   485.7    8.770      56.970
2015    8       27    19   6    5.5297   486.4    8.733      57.057
2015    8       27    19  14    5.5214   487.2    8.697      57.150
2015    8       27    19  21    5.5136   487.9    8.663      57.246
2015    8       27    19  29    5.5056   488.7    8.629      57.346
2015    8       27    19  37    5.4979   489.4    8.597      57.451
2015    8       27    19  44    5.4900   490.2    8.566      57.560
2015    8       27    19  52    5.4824   490.9    8.536      57.671
2015    8       27    20   0    5.4746   491.7    8.506      57.786
2015    8       27    20   7    5.4669   492.5    8.477      57.902
2015    8       27    20  15    5.4590   493.3    8.448      58.019
2015    8       27    20  23    5.4512   494.1    8.420      58.136
2015    8       27    20  31    5.4432   494.9    8.391      58.254
2015    8       27    20  38    5.4352   495.6    8.362      58.371
2015    8       27    20  46    5.4269   496.4    8.333      58.489
2015    8       27    20  54    5.4187   497.2    8.304      58.606
2015    8       27    21   1    5.4102   498.0    8.275      58.724
2015    8       27    21   9    5.4017   498.8    8.246      58.841
2015    8       27    21  17    5.3929   499.6    8.216      58.958
2015    8       27    21  24    5.3841   500.4    8.185      59.072
2015    8       27    21  32    5.3749   501.2    8.154      59.186
2015    8       27    21  40    5.3656   502.0    8.123      59.295
2015    8       27    21  47    5.3559   502.8    8.090      59.401
2015    8       27    21  55    5.3460   503.6    8.056      59.501
2015    8       27    22   3    5.3355   504.4    8.020      59.593
2015    8       27    22  10    5.3247   505.2    7.983      59.675
2015    8       27    22  18    5.3132   506.0    7.943      59.748
2015    8       27    22  26    5.3016   506.8    7.903      59.803
2015    8       27    22  33    5.2895   507.5    7.862      59.845
2015    8       27    22  41    5.2773   508.3    7.821      59.877
2015    8       27    22  49    5.2648   509.0    7.781      59.901
2015    8       27    22  56    5.2525   509.7    7.741      59.921
2015    8       27    23   4    5.2400   510.4    7.702      59.943
2015    8       27    23  12    5.2277   511.1    7.664      59.967
2015    8       27    23  19    5.2154   511.8    7.626      59.991
2015    8       27    23  27    5.2033   512.5    7.589      60.017
2015    8       27    23  35    5.1909   513.3    7.553      60.046
2015    8       27    23  42    5.1788   514.1    7.516      60.079
2015    8       27    23  50    5.1664   514.9    7.480      60.114
2015    8       27    23  58    5.1540   515.7    7.444      60.150
2015    8       28     0   6    5.1414   516.6    7.407      60.191
2015    8       28     0  13    5.1288   517.5    7.370      60.237
2015    8       28     0  21    5.1157   518.4    7.333      60.286
2015    8       28     0  29    5.1025   519.3    7.294      60.336
2015    8       28     0  36    5.0887   520.2    7.255      60.384
2015    8       28     0  44    5.0747   521.1    7.214      60.429
2015    8       28     0  52    5.0600   522.1    7.170      60.476
2015    8       28     0  59    5.0449   523.1    7.125      60.509
2015    8       28     1   7    5.0289   524.0    7.078      60.522
2015    8       28     1  15    5.0129   524.9    7.030      60.521
2015    8       28     1  22    4.9965   525.8    6.982      60.507
2015    8       28     1  30    4.9803   526.6    6.934      60.483
2015    8       28     1  38    4.9640   527.3    6.888      60.442
2015    8       28     1  45    4.9483   528.1    6.844      60.409
2015    8       28     1  53    4.9328   528.8    6.802      60.380
2015    8       28     2   1    4.9178   529.6    6.761      60.357
2015    8       28     2   9    4.9028   530.3    6.722      60.338
2015    8       28     2  16    4.8883   531.0    6.684      60.321
2015    8       28     2  24    4.8739   531.7    6.648      60.306
2015    8       28     2  32    4.8600   532.3    6.613      60.296
2015    8       28     2  39    4.8460   533.0    6.579      60.288
2015    8       28     2  47    4.8324   533.6    6.547      60.282
2015    8       28     2  55    4.8189   534.3    6.515      60.279
2015    8       28     3   2    4.8056   534.9    6.484      60.279
2015    8       28     3  10    4.7923   535.6    6.454      60.282
2015    8       28     3  18    4.7793   536.2    6.425      60.286
2015    8       28     3  25    4.7663   536.8    6.396      60.293
2015    8       28     3  33    4.7534   537.5    6.368      60.300
2015    8       28     3  41    4.7404   538.1    6.340      60.307
2015    8       28     3  48    4.7276   538.7    6.312      60.314
2015    8       28     3  56    4.7146   539.3    6.285      60.321
2015    8       28     4   4    4.7018   539.9    6.258      60.328
2015    8       28     4  12    4.6887   540.5    6.231      60.336
2015    8       28     4  19    4.6758   541.1    6.204      60.344
2015    8       28     4  27    4.6627   541.8    6.178      60.352
2015    8       28     4  34    4.6498   542.4    6.151      60.360
2015    8       28     4  42    4.6365   543.0    6.125      60.367
2015    8       28     4  50    4.6234   543.6    6.098      60.373
2015    8       28     4  58    4.6100   544.2    6.071      60.377
2015    8       28     5   5    4.5967   544.9    6.044      60.379
2015    8       28     5  13    4.5831   545.5    6.016      60.375
2015    8       28     5  21    4.5694   546.1    5.988      60.364
2015    8       28     5  28    4.5553   546.8    5.958      60.349
2015    8       28     5  36    4.5412   547.5    5.928      60.322
2015    8       28     5  44    4.5268   548.1    5.896      60.278
2015    8       28     5  51    4.5123   548.6    5.865      60.224
2015    8       28     5  59    4.4976   549.2    5.834      60.159
2015    8       28     6   7    4.4831   549.7    5.804      60.086
2015    8       28     6  14    4.4684   550.2    5.775      60.012
2015    8       28     6  22    4.4540   550.7    5.746      59.943
2015    8       28     6  30    4.4396   551.2    5.718      59.875
2015    8       28     6  37    4.4254   551.7    5.691      59.811
2015    8       28     6  45    4.4112   552.1    5.664      59.748
2015    8       28     6  53    4.3973   552.6    5.638      59.689
2015    8       28     7   0    4.3832   553.1    5.612      59.632
2015    8       28     7   8    4.3693   553.6    5.587      59.578
2015    8       28     7  16    4.3554   554.1    5.561      59.526
2015    8       28     7  23    4.3417   554.6    5.537      59.473
2015    8       28     7  31    4.3280   555.0    5.512      59.421
2015    8       28     7  39    4.3144   555.5    5.488      59.369
2015    8       28     7  47    4.3008   556.0    5.464      59.316
2015    8       28     7  54    4.2874   556.4    5.441      59.264
2015    8       28     8   2    4.2741   556.9    5.417      59.212
2015    8       28     8  10    4.2611   557.3    5.395      59.160
2015    8       28     8  17    4.2482   557.8    5.372      59.106
2015    8       28     8  25    4.2356   558.2    5.350      59.054
2015    8       28     8  33    4.2232   558.6    5.328      59.001
2015    8       28     8  40    4.2110   559.0    5.308      58.949
2015    8       28     8  48    4.1991   559.4    5.287      58.897
2015    8       28     8  56    4.1875   559.7    5.268      58.847
2015    8       28     9   3    4.1762   560.1    5.249      58.799
2015    8       28     9  11    4.1650   560.4    5.230      58.755
2015    8       28     9  19    4.1540   560.8    5.212      58.716
2015    8       28     9  26    4.1431   561.2    5.194      58.679
2015    8       28     9  34    4.1323   561.7    5.176      58.642
2015    8       28     9  42    4.1216   562.1    5.158      58.601
2015    8       28     9  50    4.1110   562.5    5.140      58.553
2015    8       28     9  57    4.1004   562.8    5.122      58.500
2015    8       28    10   5    4.0898   563.2    5.103      58.442
2015    8       28    10  13    4.0793   563.5    5.085      58.381
2015    8       28    10  20    4.0688   563.8    5.066      58.318
2015    8       28    10  28    4.0583   564.2    5.047      58.254
2015    8       28    10  36    4.0479   564.5    5.029      58.187
2015    8       28    10  43    4.0375   564.9    5.010      58.118
2015    8       28    10  51    4.0272   565.2    4.992      58.046
2015    8       28    10  59    4.0170   565.5    4.974      57.972
2015    8       28    11   6    4.0069   565.8    4.956      57.896
2015    8       28    11  14    3.9969   566.1    4.938      57.819
2015    8       28    11  22    3.9870   566.3    4.921      57.742
2015    8       28    11  29    3.9773   566.6    4.905      57.666
2015    8       28    11  37    3.9677   566.8    4.889      57.589
2015    8       28    11  45    3.9583   567.0    4.874      57.514
2015    8       28    11  52    3.9489   567.2    4.859      57.440
2015    8       28    12   0    3.9397   567.5    4.844      57.370
2015    8       28    12   8    3.9305   567.7    4.830      57.303
2015    8       28    12  15    3.9215   568.0    4.816      57.238
2015    8       28    12  23    3.9126   568.2    4.802      57.175
2015    8       28    12  31    3.9039   568.5    4.789      57.113
2015    8       28    12  38    3.8952   568.7    4.776      57.049
2015    8       28    12  46    3.8866   568.9    4.763      56.985
2015    8       28    12  54    3.8780   569.1    4.750      56.920
2015    8       28    13   1    3.8695   569.4    4.738      56.856
2015    8       28    13   9    3.8611   569.6    4.725      56.790
2015    8       28    13  17    3.8528   569.8    4.713      56.726
2015    8       28    13  25    3.8445   569.9    4.701      56.660
2015    8       28    13  32    3.8364   570.1    4.689      56.596
2015    8       28    13  40    3.8284   570.3    4.677      56.529
2015    8       28    13  48    3.8204   570.5    4.665      56.464
2015    8       28    13  55    3.8125   570.6    4.653      56.397
2015    8       28    14   3    3.8046   570.8    4.642      56.332
2015    8       28    14  11    3.7967   571.0    4.630      56.267
2015    8       28    14  18    3.7889   571.1    4.619      56.202
2015    8       28    14  26    3.7811   571.3    4.607      56.138
2015    8       28    14  34    3.7734   571.4    4.596      56.074
2015    8       28    14  41    3.7657   571.6    4.584      56.009
2015    8       28    14  49    3.7581   571.8    4.573      55.946
2015    8       28    14  57    3.7504   571.9    4.562      55.881
2015    8       28    15   4    3.7429   572.1    4.551      55.816
2015    8       28    15  12    3.7354   572.3    4.539      55.751
2015    8       28    15  20    3.7279   572.4    4.528      55.686
2015    8       28    15  28    3.7205   572.6    4.517      55.620
2015    8       28    15  35    3.7132   572.8    4.506      55.554
2015    8       28    15  43    3.7060   572.9    4.494      55.487
2015    8       28    15  51    3.6988   573.1    4.484      55.421
2015    8       28    15  58    3.6918   573.2    4.473      55.355
2015    8       28    16   6    3.6848   573.3    4.463      55.291
2015    8       28    16  14    3.6780   573.4    4.453      55.226
2015    8       28    16  21    3.6713   573.5    4.443      55.164
2015    8       28    16  29    3.6645   573.6    4.434      55.103
2015    8       28    16  37    3.6579   573.7    4.424      55.048
2015    8       28    16  44    3.6513   573.9    4.415      54.994
2015    8       28    16  52    3.6448   574.0    4.406      54.942
2015    8       28    17   0    3.6382   574.2    4.397      54.888
2015    8       28    17   7    3.6317   574.4    4.388      54.830
2015    8       28    17  15    3.6251   574.5    4.378      54.769
2015    8       28    17  23    3.6185   574.6    4.369      54.707
2015    8       28    17  31    3.6118   574.7    4.359      54.644
2015    8       28    17  38    3.6052   574.9    4.350      54.583
2015    8       28    17  46    3.5984   575.0    4.340      54.520
2015    8       28    17  54    3.5917   575.2    4.329      54.457
2015    8       28    18   1    3.5849   575.3    4.319      54.391
2015    8       28    18   9    3.5782   575.5    4.309      54.325
2015    8       28    18  17    3.5715   575.6    4.299      54.255
2015    8       28    18  24    3.5648   575.7    4.289      54.184
2015    8       28    18  32    3.5582   575.8    4.279      54.112
2015    8       28    18  40    3.5517   575.9    4.270      54.042
2015    8       28    18  47    3.5453   576.0    4.260      53.971
2015    8       28    18  55    3.5390   576.1    4.251      53.902
2015    8       28    19   3    3.5328   576.1    4.243      53.833
2015    8       28    19  10    3.5267   576.2    4.234      53.768
2015    8       28    19  18    3.5205   576.3    4.226      53.705
2015    8       28    19  26    3.5145   576.4    4.218      53.647
2015    8       28    19  33    3.5085   576.5    4.210      53.590
2015    8       28    19  41    3.5026   576.6    4.202      53.535
2015    8       28    19  49    3.4966   576.8    4.194      53.478
2015    8       28    19  56    3.4908   576.9    4.186      53.420
2015    8       28    20   4    3.4848   577.0    4.178      53.359
2015    8       28    20  12    3.4789   577.1    4.170      53.299
2015    8       28    20  19    3.4730   577.2    4.162      53.236
2015    8       28    20  27    3.4671   577.3    4.154      53.174
2015    8       28    20  35    3.4612   577.3    4.146      53.111
2015    8       28    20  42    3.4555   577.4    4.138      53.047
2015    8       28    20  50    3.4497   577.5    4.131      52.983
2015    8       28    20  58    3.4441   577.6    4.123      52.920
2015    8       28    21   5    3.4384   577.6    4.115      52.856
2015    8       28    21  13    3.4328   577.7    4.108      52.795
2015    8       28    21  21    3.4273   577.7    4.101      52.733
2015    8       28    21  28    3.4218   577.8    4.093      52.673
2015    8       28    21  36    3.4163   577.9    4.086      52.614
2015    8       28    21  44    3.4109   577.9    4.079      52.555
2015    8       28    21  52    3.4055   578.0    4.072      52.496
2015    8       28    21  59    3.4001   578.1    4.065      52.438
2015    8       28    22   7    3.3947   578.1    4.058      52.379
2015    8       28    22  15    3.3894   578.2    4.052      52.321
2015    8       28    22  22    3.3841   578.2    4.045      52.262
2015    8       28    22  30    3.3789   578.3    4.038      52.204
2015    8       28    22  38    3.3736   578.3    4.032      52.144
2015    8       28    22  45    3.3685   578.3    4.025      52.085
2015    8       28    22  53    3.3633   578.4    4.019      52.025
2015    8       28    23   1    3.3582   578.4    4.012      51.966
2015    8       28    23   8    3.3530   578.4    4.006      51.906
2015    8       28    23  16    3.3480   578.4    4.000      51.846
2015    8       28    23  24    3.3429   578.4    3.994      51.786
2015    8       28    23  31    3.3380   578.4    3.988      51.727
2015    8       28    23  39    3.3329   578.5    3.982      51.667
2015    8       28    23  47    3.3280   578.5    3.976      51.608
2015    8       28    23  54    3.3230   578.5    3.970      51.547
2015    8       29     0   2    3.3181   578.5    3.964      51.488
2015    8       29     0  10    3.3132   578.5    3.958      51.427
2015    8       29     0  17    3.3083   578.5    3.953      51.367
2015    8       29     0  25    3.3034   578.5    3.947      51.305
2015    8       29     0  33    3.2985   578.5    3.941      51.244
2015    8       29     0  40    3.2936   578.5    3.935      51.182
2015    8       29     0  48    3.2888   578.5    3.929      51.120
2015    8       29     0  56    3.2840   578.5    3.924      51.058
2015    8       29     1   3    3.2792   578.5    3.918      50.995
2015    8       29     1  11    3.2744   578.5    3.912      50.932
2015    8       29     1  19    3.2696   578.5    3.907      50.870
2015    8       29     1  26    3.2648   578.5    3.901      50.806
2015    8       29     1  34    3.2601   578.5    3.895      50.743
2015    8       29     1  42    3.2554   578.4    3.890      50.680
2015    8       29     1  49    3.2508   578.4    3.884      50.617
2015    8       29     1  57    3.2462   578.4    3.879      50.553
2015    8       29     2   5    3.2416   578.4    3.873      50.491
2015    8       29     2  12    3.2370   578.4    3.868      50.428
2015    8       29     2  20    3.2325   578.3    3.863      50.366
2015    8       29     2  28    3.2280   578.3    3.857      50.303
2015    8       29     2  35    3.2236   578.3    3.852      50.242
2015    8       29     2  43    3.2191   578.2    3.847      50.180
2015    8       29     2  51    3.2148   578.2    3.842      50.120
2015    8       29     2  58    3.2104   578.2    3.837      50.059
2015    8       29     3   6    3.2061   578.1    3.832      50.000
2015    8       29     3  14    3.2018   578.1    3.827      49.940
2015    8       29     3  21    3.1976   578.0    3.823      49.882
2015    8       29     3  29    3.1934   578.0    3.818      49.824
2015    8       29     3  37    3.1892   577.9    3.813      49.767
2015    8       29     3  45    3.1851   577.9    3.809      49.710
2015    8       29     3  52    3.1810   577.8    3.805      49.654
2015    8       29     4   0    3.1770   577.8    3.800      49.599
2015    8       29     4   7    3.1730   577.7    3.796      49.544
2015    8       29     4  15    3.1690   577.7    3.792      49.490
2015    8       29     4  23    3.1651   577.6    3.788      49.437
2015    8       29     4  31    3.1612   577.6    3.784      49.383
2015    8       29     4  38    3.1573   577.5    3.780      49.331
2015    8       29     4  46    3.1535   577.5    3.776      49.278
2015    8       29     4  54    3.1497   577.4    3.772      49.227
2015    8       29     5   1    3.1459   577.3    3.769      49.175
2015    8       29     5   9    3.1421   577.3    3.765      49.124
2015    8       29     5  17    3.1384   577.2    3.761      49.072
2015    8       29     5  24    3.1347   577.2    3.758      49.022
2015    8       29     5  32    3.1309   577.1    3.754      48.970
2015    8       29     5  40    3.1273   577.0    3.751      48.920
2015    8       29     5  47    3.1236   577.0    3.747      48.868
2015    8       29     5  55    3.1199   576.9    3.744      48.818
2015    8       29     6   3    3.1162   576.9    3.741      48.767
2015    8       29     6  10    3.1126   576.8    3.737      48.716
2015    8       29     6  18    3.1090   576.7    3.734      48.664
2015    8       29     6  26    3.1053   576.7    3.731      48.613
2015    8       29     6  33    3.1017   576.6    3.727      48.561
2015    8       29     6  41    3.0981   576.5    3.724      48.509
2015    8       29     6  49    3.0945   576.5    3.721      48.456
2015    8       29     6  56    3.0909   576.4    3.718      48.403
2015    8       29     7   4    3.0873   576.3    3.714      48.350
2015    8       29     7  12    3.0838   576.3    3.711      48.296
2015    8       29     7  19    3.0802   576.2    3.708      48.242
2015    8       29     7  27    3.0767   576.1    3.705      48.189
2015    8       29     7  35    3.0731   576.0    3.702      48.135
2015    8       29     7  42    3.0696   576.0    3.698      48.081
2015    8       29     7  50    3.0661   575.9    3.695      48.026
2015    8       29     7  58    3.0626   575.8    3.692      47.972
2015    8       29     8   5    3.0591   575.7    3.689      47.917
2015    8       29     8  13    3.0557   575.6    3.686      47.863
2015    8       29     8  21    3.0522   575.6    3.683      47.808
2015    8       29     8  28    3.0488   575.5    3.680      47.753
2015    8       29     8  36    3.0454   575.4    3.677      47.698
2015    8       29     8  44    3.0420   575.3    3.674      47.644
2015    8       29     8  51    3.0386   575.2    3.671      47.588
2015    8       29     8  59    3.0353   575.1    3.668      47.534
2015    8       29     9   7    3.0319   575.0    3.665      47.479
2015    8       29     9  14    3.0286   574.9    3.662      47.425
2015    8       29     9  22    3.0253   574.8    3.659      47.370
2015    8       29     9  30    3.0220   574.8    3.656      47.316
2015    8       29     9  38    3.0188   574.7    3.653      47.262
2015    8       29     9  45    3.0156   574.6    3.650      47.209
2015    8       29     9  53    3.0124   574.4    3.647      47.156
2015    8       29    10   0    3.0092   574.3    3.644      47.103
2015    8       29    10   8    3.0060   574.2    3.642      47.051
2015    8       29    10  16    3.0029   574.1    3.639      46.999
2015    8       29    10  24    2.9998   574.0    3.636      46.948
2015    8       29    10  31    2.9968   573.9    3.634      46.897
2015    8       29    10  39    2.9938   573.8    3.631      46.847
2015    8       29    10  47    2.9908   573.7    3.629      46.798
2015    8       29    10  54    2.9879   573.6    3.626      46.748
2015    8       29    11   2    2.9850   573.4    3.624      46.700
2015    8       29    11  10    2.9821   573.3    3.622      46.653
2015    8       29    11  17    2.9792   573.2    3.620      46.606
2015    8       29    11  25    2.9764   573.1    3.618      46.559
2015    8       29    11  33    2.9737   573.0    3.616      46.514
2015    8       29    11  40    2.9709   572.8    3.614      46.468
2015    8       29    11  48    2.9682   572.7    3.612      46.424
2015    8       29    11  56    2.9655   572.6    3.610      46.380
2015    8       29    12   3    2.9629   572.5    3.609      46.337
2015    8       29    12  11    2.9603   572.4    3.607      46.293
2015    8       29    12  19    2.9577   572.2    3.605      46.251
2015    8       29    12  26    2.9551   572.1    3.604      46.209
2015    8       29    12  34    2.9525   572.0    3.602      46.168
2015    8       29    12  42    2.9499   571.9    3.601      46.126
2015    8       29    12  49    2.9473   571.7    3.600      46.085
2015    8       29    12  57    2.9447   571.6    3.598      46.042
2015    8       29    13   5    2.9422   571.5    3.597      46.001
2015    8       29    13  13    2.9396   571.4    3.595      45.958
2015    8       29    13  20    2.9370   571.2    3.594      45.917
2015    8       29    13  28    2.9344   571.1    3.592      45.874
2015    8       29    13  36    2.9319   571.0    3.591      45.832
2015    8       29    13  43    2.9293   570.9    3.589      45.788
2015    8       29    13  51    2.9268   570.7    3.588      45.745
2015    8       29    13  59    2.9242   570.6    3.587      45.701
2015    8       29    14   6    2.9217   570.5    3.585      45.657
2015    8       29    14  14    2.9191   570.4    3.584      45.612
2015    8       29    14  22    2.9166   570.2    3.582      45.567
2015    8       29    14  30    2.9141   570.1    3.581      45.521
2015    8       29    14  37    2.9116   570.0    3.579      45.476
2015    8       29    14  45    2.9091   569.9    3.577      45.429
2015    8       29    14  53    2.9066   569.7    3.576      45.383
2015    8       29    15   0    2.9041   569.6    3.574      45.337
2015    8       29    15   8    2.9017   569.5    3.573      45.290
2015    8       29    15  16    2.8992   569.4    3.571      45.242
2015    8       29    15  23    2.8968   569.2    3.569      45.195
2015    8       29    15  31    2.8943   569.1    3.567      45.147
2015    8       29    15  39    2.8919   569.0    3.566      45.099
2015    8       29    15  46    2.8895   568.8    3.564      45.051
2015    8       29    15  54    2.8871   568.7    3.562      45.003
2015    8       29    16   2    2.8847   568.6    3.560      44.953
2015    8       29    16   9    2.8823   568.5    3.559      44.905
2015    8       29    16  17    2.8799   568.3    3.557      44.855
2015    8       29    16  25    2.8775   568.2    3.555      44.807
2015    8       29    16  32    2.8752   568.1    3.553      44.757
2015    8       29    16  40    2.8728   567.9    3.552      44.709
2015    8       29    16  48    2.8705   567.8    3.550      44.660
2015    8       29    16  55    2.8682   567.6    3.548      44.612
2015    8       29    17   3    2.8659   567.5    3.547      44.563
2015    8       29    17  11    2.8636   567.4    3.545      44.516
2015    8       29    17  19    2.8614   567.2    3.543      44.469
2015    8       29    17  26    2.8592   567.1    3.542      44.423
2015    8       29    17  34    2.8569   566.9    3.540      44.376
2015    8       29    17  41    2.8548   566.8    3.539      44.332
2015    8       29    17  49    2.8526   566.6    3.538      44.287
2015    8       29    17  57    2.8505   566.5    3.537      44.243
2015    8       29    18   5    2.8483   566.3    3.535      44.200
2015    8       29    18  12    2.8462   566.2    3.534      44.157
2015    8       29    18  20    2.8442   566.0    3.533      44.115
2015    8       29    18  28    2.8421   565.9    3.532      44.074
2015    8       29    18  35    2.8401   565.7    3.531      44.033
2015    8       29    18  43    2.8380   565.6    3.530      43.992
2015    8       29    18  51    2.8360   565.4    3.530      43.952
2015    8       29    18  58    2.8340   565.3    3.529      43.913
2015    8       29    19   6    2.8321   565.1    3.528      43.873
2015    8       29    19  14    2.8301   565.0    3.527      43.835
2015    8       29    19  21    2.8281   564.8    3.527      43.796
2015    8       29    19  29    2.8262   564.7    3.526      43.758
2015    8       29    19  37    2.8242   564.5    3.525      43.719
2015    8       29    19  44    2.8223   564.4    3.525      43.682
2015    8       29    19  52    2.8203   564.2    3.524      43.644
2015    8       29    20   0    2.8184   564.1    3.524      43.606
2015    8       29    20   7    2.8164   563.9    3.523      43.568
2015    8       29    20  15    2.8144   563.8    3.522      43.530
2015    8       29    20  23    2.8125   563.6    3.522      43.491
2015    8       29    20  31    2.8105   563.4    3.521      43.453
2015    8       29    20  38    2.8086   563.3    3.521      43.415
2015    8       29    20  46    2.8067   563.1    3.520      43.377
2015    8       29    20  54    2.8047   563.0    3.520      43.339
2015    8       29    21   1    2.8028   562.8    3.519      43.301
2015    8       29    21   9    2.8010   562.7    3.519      43.263
2015    8       29    21  17    2.7991   562.5    3.519      43.226
2015    8       29    21  24    2.7973   562.3    3.518      43.188
2015    8       29    21  32    2.7955   562.2    3.518      43.151
2015    8       29    21  40    2.7936   562.0    3.518      43.114
2015    8       29    21  47    2.7919   561.9    3.518      43.077
2015    8       29    21  55    2.7901   561.7    3.518      43.040
2015    8       29    22   3    2.7883   561.6    3.518      43.003
2015    8       29    22  11    2.7866   561.4    3.517      42.967
2015    8       29    22  18    2.7849   561.2    3.517      42.930
2015    8       29    22  26    2.7832   561.1    3.517      42.894
2015    8       29    22  34    2.7815   560.9    3.517      42.858
2015    8       29    22  41    2.7798   560.8    3.516      42.821
2015    8       29    22  49    2.7782   560.6    3.516      42.783
2015    8       29    22  57    2.7765   560.5    3.515      42.745
2015    8       29    23   4    2.7748   560.3    3.515      42.707
2015    8       29    23  12    2.7731   560.2    3.514      42.667
2015    8       29    23  20    2.7714   560.0    3.514      42.627
2015    8       29    23  27    2.7698   559.8    3.513      42.586
2015    8       29    23  35    2.7681   559.7    3.512      42.545
2015    8       29    23  43    2.7664   559.5    3.511      42.504
2015    8       29    23  50    2.7647   559.4    3.510      42.462
2015    8       29    23  58    2.7630   559.2    3.509      42.419
2015    8       30     0   6    2.7614   559.1    3.508      42.377
2015    8       30     0  13    2.7597   558.9    3.508      42.334
2015    8       30     0  21    2.7581   558.7    3.507      42.292
2015    8       30     0  29    2.7564   558.6    3.506      42.248
2015    8       30     0  36    2.7548   558.4    3.505      42.206
2015    8       30     0  44    2.7531   558.3    3.504      42.163
2015    8       30     0  52    2.7515   558.1    3.503      42.120
2015    8       30     0  59    2.7498   557.9    3.502      42.077
2015    8       30     1   7    2.7482   557.8    3.501      42.035
2015    8       30     1  15    2.7465   557.6    3.500      41.992
2015    8       30     1  22    2.7449   557.4    3.499      41.950
2015    8       30     1  30    2.7433   557.3    3.498      41.908
2015    8       30     1  38    2.7416   557.1    3.498      41.866
2015    8       30     1  45    2.7400   556.9    3.497      41.824
2015    8       30     1  53    2.7384   556.8    3.496      41.782
2015    8       30     2   1    2.7367   556.6    3.495      41.740
2015    8       30     2   8    2.7351   556.4    3.494      41.698
2015    8       30     2  16    2.7334   556.3    3.493      41.656
2015    8       30     2  24    2.7317   556.1    3.492      41.614
2015    8       30     2  32    2.7301   555.9    3.491      41.572
2015    8       30     2  39    2.7284   555.8    3.491      41.530
2015    8       30     2  47    2.7267   555.6    3.490      41.487
2015    8       30     2  55    2.7251   555.4    3.489      41.445
2015    8       30     3   2    2.7234   555.2    3.488      41.403
2015    8       30     3  10    2.7217   555.1    3.487      41.361
2015    8       30     3  18    2.7200   554.9    3.486      41.319
2015    8       30     3  25    2.7184   554.7    3.485      41.277
2015    8       30     3  33    2.7167   554.5    3.485      41.235
2015    8       30     3  41    2.7150   554.3    3.484      41.194
2015    8       30     3  48    2.7134   554.2    3.483      41.153
2015    8       30     3  56    2.7118   554.0    3.483      41.113
2015    8       30     4   4    2.7101   553.8    3.482      41.074
2015    8       30     4  11    2.7086   553.6    3.482      41.035
2015    8       30     4  19    2.7070   553.4    3.482      40.997
2015    8       30     4  27    2.7054   553.3    3.482      40.960
2015    8       30     4  35    2.7039   553.1    3.482      40.923
2015    8       30     4  42    2.7024   552.9    3.482      40.888
2015    8       30     4  50    2.7010   552.7    3.483      40.853
2015    8       30     4  58    2.6995   552.5    3.483      40.820
2015    8       30     5   5    2.6981   552.4    3.484      40.787
2015    8       30     5  13    2.6968   552.2    3.485      40.756
2015    8       30     5  21    2.6954   552.0    3.486      40.726
2015    8       30     5  28    2.6942   551.8    3.487      40.697
2015    8       30     5  36    2.6929   551.6    3.488      40.670
2015    8       30     5  44    2.6917   551.5    3.490      40.645
2015    8       30     5  51    2.6905   551.3    3.491      40.620
2015    8       30     5  59    2.6893   551.1    3.493      40.597
2015    8       30     6   7    2.6881   551.0    3.494      40.574
2015    8       30     6  14    2.6869   550.8    3.495      40.551
2015    8       30     6  22    2.6857   550.6    3.496      40.526
2015    8       30     6  30    2.6845   550.5    3.497      40.501
2015    8       30     6  38    2.6833   550.3    3.498      40.474
2015    8       30     6  45    2.6820   550.2    3.499      40.447
2015    8       30     6  53    2.6808   550.0    3.500      40.418
2015    8       30     7   0    2.6795   549.8    3.500      40.388
2015    8       30     7   8    2.6782   549.7    3.501      40.357
2015    8       30     7  16    2.6768   549.5    3.501      40.325
2015    8       30     7  24    2.6755   549.4    3.501      40.292
2015    8       30     7  31    2.6742   549.2    3.501      40.259
2015    8       30     7  39    2.6728   549.0    3.501      40.224
2015    8       30     7  47    2.6715   548.9    3.501      40.189
2015    8       30     7  54    2.6701   548.7    3.501      40.152
2015    8       30     8   2    2.6687   548.5    3.501      40.116
2015    8       30     8  10    2.6673   548.4    3.501      40.078
2015    8       30     8  17    2.6659   548.2    3.500      40.040
2015    8       30     8  25    2.6644   548.0    3.500      40.001
2015    8       30     8  33    2.6630   547.9    3.499      39.962
2015    8       30     8  40    2.6616   547.7    3.499      39.922
2015    8       30     8  48    2.6602   547.5    3.498      39.883
2015    8       30     8  56    2.6587   547.3    3.498      39.843
2015    8       30     9   3    2.6573   547.2    3.497      39.802
2015    8       30     9  11    2.6559   547.0    3.496      39.761
2015    8       30     9  19    2.6545   546.8    3.495      39.721
2015    8       30     9  26    2.6530   546.6    3.495      39.679
2015    8       30     9  34    2.6516   546.5    3.494      39.638
2015    8       30     9  42    2.6501   546.3    3.493      39.596
2015    8       30     9  49    2.6487   546.1    3.492      39.555
2015    8       30     9  57    2.6473   545.9    3.491      39.512
2015    8       30    10   5    2.6458   545.7    3.490      39.471
2015    8       30    10  12    2.6444   545.6    3.489      39.428
2015    8       30    10  20    2.6429   545.4    3.488      39.386
2015    8       30    10  28    2.6415   545.2    3.487      39.344
2015    8       30    10  35    2.6400   545.0    3.486      39.301
2015    8       30    10  43    2.6385   544.8    3.485      39.258
2015    8       30    10  51    2.6371   544.6    3.484      39.216
2015    8       30    10  59    2.6357   544.5    3.483      39.172
2015    8       30    11   6    2.6342   544.3    3.482      39.130
2015    8       30    11  14    2.6328   544.1    3.480      39.086
2015    8       30    11  22    2.6313   543.9    3.479      39.043
2015    8       30    11  29    2.6299   543.7    3.478      39.000
2015    8       30    11  37    2.6285   543.5    3.477      38.957
2015    8       30    11  45    2.6270   543.3    3.476      38.913
2015    8       30    11  52    2.6256   543.1    3.475      38.871
2015    8       30    12   0    2.6242   542.9    3.475      38.828
2015    8       30    12   8    2.6228   542.7    3.474      38.786
2015    8       30    12  15    2.6215   542.5    3.473      38.745
2015    8       30    12  23    2.6201   542.4    3.473      38.705
2015    8       30    12  31    2.6188   542.1    3.473      38.665
2015    8       30    12  38    2.6175   542.0    3.473      38.627
2015    8       30    12  46    2.6162   541.7    3.473      38.590
2015    8       30    12  54    2.6150   541.5    3.473      38.554
2015    8       30    13   2    2.6138   541.4    3.474      38.521
2015    8       30    13   9    2.6127   541.2    3.475      38.490
2015    8       30    13  17    2.6115   541.0    3.476      38.461
2015    8       30    13  25    2.6104   540.8    3.477      38.434
2015    8       30    13  32    2.6093   540.6    3.478      38.407
2015    8       30    13  40    2.6082   540.4    3.479      38.381
2015    8       30    13  48    2.6071   540.2    3.481      38.355
2015    8       30    13  55    2.6060   540.0    3.482      38.330
2015    8       30    14   3    2.6049   539.8    3.484      38.304
2015    8       30    14  11    2.6038   539.6    3.485      38.279
2015    8       30    14  18    2.6027   539.5    3.487      38.253
2015    8       30    14  26    2.6016   539.3    3.489      38.228
2015    8       30    14  34    2.6006   539.1    3.491      38.203
2015    8       30    14  41    2.5995   538.9    3.493      38.178
2015    8       30    14  49    2.5984   538.7    3.495      38.154
2015    8       30    14  57    2.5974   538.5    3.496      38.129
2015    8       30    15   4    2.5963   538.3    3.498      38.105
2015    8       30    15  12    2.5953   538.1    3.500      38.080
2015    8       30    15  20    2.5942   537.9    3.501      38.053
2015    8       30    15  27    2.5932   537.7    3.503      38.027
2015    8       30    15  35    2.5921   537.6    3.504      38.000
2015    8       30    15  43    2.5911   537.4    3.505      37.972
2015    8       30    15  50    2.5900   537.2    3.507      37.944
2015    8       30    15  58    2.5890   537.0    3.508      37.915
2015    8       30    16   6    2.5879   536.8    3.509      37.885
2015    8       30    16  13    2.5869   536.6    3.509      37.855
2015    8       30    16  21    2.5858   536.5    3.510      37.825
2015    8       30    16  29    2.5848   536.3    3.511      37.794
2015    8       30    16  36    2.5838   536.1    3.511      37.762
2015    8       30    16  44    2.5827   535.9    3.512      37.730
2015    8       30    16  52    2.5816   535.7    3.512      37.698
2015    8       30    16  59    2.5806   535.6    3.513      37.665
2015    8       30    17   7    2.5795   535.4    3.513      37.631
2015    8       30    17  15    2.5784   535.2    3.513      37.597
2015    8       30    17  22    2.5773   535.0    3.513      37.563
2015    8       30    17  30    2.5762   534.9    3.513      37.529
2015    8       30    17  38    2.5751   534.7    3.512      37.493
2015    8       30    17  45    2.5739   534.5    3.512      37.458
2015    8       30    17  53    2.5728   534.3    3.512      37.422
2015    8       30    18   1    2.5716   534.1    3.511      37.386
2015    8       30    18   9    2.5704   534.0    3.510      37.348
2015    8       30    18  16    2.5692   533.8    3.510      37.310
2015    8       30    18  24    2.5680   533.6    3.509      37.271
2015    8       30    18  32    2.5668   533.4    3.508      37.232
2015    8       30    18  39    2.5656   533.2    3.507      37.192
2015    8       30    18  47    2.5644   533.0    3.506      37.152
2015    8       30    18  55    2.5632   532.8    3.505      37.111
2015    8       30    19   2    2.5620   532.6    3.504      37.069
2015    8       30    19  10    2.5607   532.4    3.503      37.027
2015    8       30    19  18    2.5595   532.2    3.501      36.985
2015    8       30    19  25    2.5583   532.0    3.500      36.942
2015    8       30    19  33    2.5570   531.8    3.499      36.899
2015    8       30    19  41    2.5558   531.6    3.498      36.856
2015    8       30    19  48    2.5546   531.4    3.497      36.813
2015    8       30    19  56    2.5533   531.2    3.496      36.769
2015    8       30    20   4    2.5521   531.0    3.495      36.727
2015    8       30    20  12    2.5509   530.8    3.494      36.684
2015    8       30    20  19    2.5497   530.6    3.493      36.642
2015    8       30    20  27    2.5486   530.4    3.492      36.601
2015    8       30    20  35    2.5474   530.2    3.491      36.561
2015    8       30    20  42    2.5462   529.9    3.491      36.521
2015    8       30    20  50    2.5451   529.7    3.491      36.482
2015    8       30    20  58    2.5440   529.5    3.491      36.444
2015    8       30    21   5    2.5429   529.3    3.491      36.408
2015    8       30    21  13    2.5419   529.1    3.491      36.371
2015    8       30    21  21    2.5408   528.9    3.491      36.337
2015    8       30    21  28    2.5398   528.6    3.492      36.303
2015    8       30    21  36    2.5388   528.4    3.493      36.270
2015    8       30    21  44    2.5378   528.2    3.494      36.237
2015    8       30    21  51    2.5369   528.0    3.495      36.207
2015    8       30    21  59    2.5360   527.8    3.496      36.178
2015    8       30    22   7    2.5352   527.5    3.498      36.150
2015    8       30    22  14    2.5343   527.3    3.500      36.123
2015    8       30    22  22    2.5335   527.1    3.501      36.097
2015    8       30    22  30    2.5328   526.9    3.503      36.072
2015    8       30    22  37    2.5320   526.7    3.505      36.047
2015    8       30    22  45    2.5313   526.5    3.507      36.022
2015    8       30    22  53    2.5305   526.3    3.509      35.998
2015    8       30    23   0    2.5298   526.1    3.512      35.974
2015    8       30    23   8    2.5292   525.9    3.514      35.950
2015    8       30    23  16    2.5285   525.7    3.516      35.927
2015    8       30    23  23    2.5278   525.5    3.518      35.904
2015    8       30    23  31    2.5271   525.3    3.521      35.880
2015    8       30    23  39    2.5265   525.1    3.523      35.857
2015    8       30    23  46    2.5258   524.9    3.525      35.834
2015    8       30    23  54    2.5251   524.7    3.528      35.811
2015    8       31     0   2    2.5244   524.5    3.530      35.786
2015    8       31     0   9    2.5236   524.3    3.532      35.762
2015    8       31     0  17    2.5229   524.1    3.534      35.738
2015    8       31     0  25    2.5221   523.9    3.536      35.713
2015    8       31     0  32    2.5213   523.7    3.538      35.688
2015    8       31     0  40    2.5206   523.5    3.539      35.663
2015    8       31     0  48    2.5197   523.3    3.541      35.637
2015    8       31     0  55    2.5189   523.1    3.542      35.612
2015    8       31     1   3    2.5181   522.9    3.544      35.586
2015    8       31     1  11    2.5173   522.8    3.545      35.561
2015    8       31     1  18    2.5164   522.6    3.546      35.535
2015    8       31     1  26    2.5156   522.4    3.547      35.510
2015    8       31     1  34    2.5147   522.2    3.548      35.483
2015    8       31     1  42    2.5139   522.0    3.549      35.456
2015    8       31     1  49    2.5130   521.8    3.550      35.429
2015    8       31     1  57    2.5122   521.6    3.551      35.402
2015    8       31     2   5    2.5113   521.4    3.552      35.373
2015    8       31     2  12    2.5104   521.2    3.553      35.345
2015    8       31     2  20    2.5096   521.0    3.553      35.316
2015    8       31     2  28    2.5087   520.8    3.554      35.287
2015    8       31     2  35    2.5078   520.6    3.554      35.258
2015    8       31     2  43    2.5070   520.4    3.554      35.228
2015    8       31     2  51    2.5061   520.2    3.555      35.197
2015    8       31     2  58    2.5052   520.0    3.555      35.166
2015    8       31     3   6    2.5044   519.8    3.555      35.135
2015    8       31     3  14    2.5035   519.7    3.555      35.103
2015    8       31     3  21    2.5026   519.5    3.555      35.071
2015    8       31     3  29    2.5017   519.3    3.555      35.038
2015    8       31     3  37    2.5009   519.1    3.555      35.005
2015    8       31     3  44    2.5000   518.9    3.555      34.972
2015    8       31     3  52    2.4991   518.7    3.555      34.938
2015    8       31     4   0    2.4982   518.5    3.555      34.904
2015    8       31     4   7    2.4973   518.3    3.554      34.869
2015    8       31     4  15    2.4964   518.1    3.554      34.834
2015    8       31     4  23    2.4955   517.9    3.554      34.798
2015    8       31     4  30    2.4946   517.7    3.553      34.762
2015    8       31     4  38    2.4937   517.5    3.553      34.726
2015    8       31     4  46    2.4927   517.3    3.553      34.690
2015    8       31     4  53    2.4918   517.1    3.553      34.654
2015    8       31     5   1    2.4909   516.9    3.553      34.618
2015    8       31     5   9    2.4901   516.7    3.552      34.582
2015    8       31     5  16    2.4892   516.4    3.552      34.546
2015    8       31     5  24    2.4883   516.2    3.552      34.511
2015    8       31     5  32    2.4875   516.0    3.552      34.476
2015    8       31     5  40    2.4867   515.8    3.552      34.441
2015    8       31     5  47    2.4859   515.6    3.553      34.406
2015    8       31     5  55    2.4851   515.4    3.553      34.372
2015    8       31     6   2    2.4843   515.2    3.553      34.339
2015    8       31     6  10    2.4835   515.0    3.554      34.305
2015    8       31     6  18    2.4828   514.7    3.555      34.272
2015    8       31     6  26    2.4820   514.5    3.555      34.240
2015    8       31     6  33    2.4813   514.3    3.556      34.208
2015    8       31     6  41    2.4806   514.1    3.557      34.176
2015    8       31     6  49    2.4799   513.9    3.558      34.145
2015    8       31     6  56    2.4791   513.7    3.559      34.114
2015    8       31     7   4    2.4785   513.5    3.560      34.083
2015    8       31     7  12    2.4777   513.2    3.562      34.053
2015    8       31     7  19    2.4771   513.0    3.563      34.023
2015    8       31     7  27    2.4764   512.8    3.564      33.994
2015    8       31     7  35    2.4758   512.6    3.566      33.965
2015    8       31     7  42    2.4751   512.3    3.568      33.937
2015    8       31     7  50    2.4745   512.1    3.569      33.911
2015    8       31     7  58    2.4740   511.9    3.571      33.885
2015    8       31     8   5    2.4735   511.7    3.573      33.861
2015    8       31     8  13    2.4730   511.4    3.576      33.838
2015    8       31     8  21    2.4725   511.2    3.578      33.817
2015    8       31     8  28    2.4721   511.0    3.581      33.796
2015    8       31     8  36    2.4717   510.8    3.583      33.778
2015    8       31     8  44    2.4714   510.6    3.586      33.760
2015    8       31     8  51    2.4711   510.4    3.589      33.742
2015    8       31     8  59    2.4708   510.2    3.592      33.726
2015    8       31     9   7    2.4705   510.0    3.595      33.711
2015    8       31     9  14    2.4701   509.8    3.598      33.695
2015    8       31     9  22    2.4698   509.6    3.601      33.681
2015    8       31     9  30    2.4694   509.4    3.603      33.666
2015    8       31     9  37    2.4690   509.2    3.606      33.650
2015    8       31     9  45    2.4686   509.0    3.608      33.634
2015    8       31     9  53    2.4682   508.8    3.611      33.617
2015    8       31    10   1    2.4677   508.6    3.613      33.599
2015    8       31    10   8    2.4672   508.4    3.615      33.581
2015    8       31    10  16    2.4667   508.2    3.617      33.562
2015    8       31    10  24    2.4662   508.0    3.619      33.543
2015    8       31    10  31    2.4657   507.8    3.621      33.523
2015    8       31    10  39    2.4652   507.6    3.623      33.502
2015    8       31    10  47    2.4647   507.4    3.624      33.481
2015    8       31    10  54    2.4641   507.3    3.626      33.460
2015    8       31    11   2    2.4636   507.1    3.628      33.438
2015    8       31    11  10    2.4631   506.9    3.629      33.417
2015    8       31    11  17    2.4625   506.7    3.631      33.394
2015    8       31    11  25    2.4620   506.5    3.632      33.371
2015    8       31    11  33    2.4614   506.3    3.634      33.348
2015    8       31    11  40    2.4609   506.1    3.635      33.325
2015    8       31    11  48    2.4603   505.9    3.637      33.301
2015    8       31    11  56    2.4597   505.7    3.638      33.277
2015    8       31    12   3    2.4592   505.5    3.639      33.253
2015    8       31    12  11    2.4586   505.3    3.641      33.228
2015    8       31    12  19    2.4580   505.1    3.642      33.204
2015    8       31    12  26    2.4574   504.9    3.643      33.179
2015    8       31    12  34    2.4569   504.7    3.644      33.154
2015    8       31    12  42    2.4563   504.5    3.645      33.129
2015    8       31    12  49    2.4557   504.3    3.646      33.103
2015    8       31    12  57    2.4551   504.1    3.647      33.078
2015    8       31    13   5    2.4545   503.9    3.648      33.052
2015    8       31    13  12    2.4539   503.7    3.649      33.026
2015    8       31    13  20    2.4533   503.5    3.650      32.999
2015    8       31    13  28    2.4527   503.3    3.650      32.972
2015    8       31    13  35    2.4521   503.1    3.651      32.945
2015    8       31    13  43    2.4516   502.9    3.652      32.918
2015    8       31    13  51    2.4510   502.7    3.652      32.890
2015    8       31    13  58    2.4504   502.5    3.653      32.862
2015    8       31    14   6    2.4498   502.3    3.653      32.834
2015    8       31    14  14    2.4492   502.1    3.654      32.807
2015    8       31    14  21    2.4487   501.9    3.655      32.779
2015    8       31    14  29    2.4482   501.7    3.655      32.751
2015    8       31    14  37    2.4476   501.5    3.656      32.724
2015    8       31    14  44    2.4471   501.3    3.657      32.697
2015    8       31    14  52    2.4467   501.1    3.658      32.670
2015    8       31    15   0    2.4462   500.9    3.659      32.645
2015    8       31    15   7    2.4458   500.7    3.660      32.620
2015    8       31    15  15    2.4454   500.5    3.661      32.595
2015    8       31    15  23    2.4451   500.3    3.663      32.572
2015    8       31    15  30    2.4448   500.1    3.664      32.550
2015    8       31    15  38    2.4445   499.9    3.666      32.528
2015    8       31    15  46    2.4443   499.7    3.668      32.508
2015    8       31    15  54    2.4441   499.5    3.670      32.488
2015    8       31    16   1    2.4439   499.3    3.673      32.469
2015    8       31    16   9    2.4437   499.1    3.675      32.451
2015    8       31    16  17    2.4435   498.9    3.678      32.434
2015    8       31    16  24    2.4433   498.7    3.680      32.418
2015    8       31    16  32    2.4431   498.5    3.683      32.402
2015    8       31    16  40    2.4428   498.3    3.686      32.387
2015    8       31    16  47    2.4425   498.1    3.688      32.372
2015    8       31    16  55    2.4422   497.9    3.691      32.357
2015    8       31    17   3    2.4419   497.7    3.694      32.341
2015    8       31    17  10    2.4416   497.5    3.696      32.325
2015    8       31    17  18    2.4413   497.3    3.699      32.309
2015    8       31    17  26    2.4409   497.2    3.701      32.293
2015    8       31    17  33    2.4406   497.0    3.704      32.276
2015    8       31    17  41    2.4403   496.8    3.706      32.260
2015    8       31    17  49    2.4400   496.6    3.709      32.243
2015    8       31    17  56    2.4396   496.4    3.711      32.227
2015    8       31    18   4    2.4394   496.2    3.714      32.211
2015    8       31    18  12    2.4391   496.0    3.716      32.195
2015    8       31    18  19    2.4388   495.8    3.719      32.179
2015    8       31    18  27    2.4385   495.6    3.721      32.163
2015    8       31    18  35    2.4383   495.4    3.724      32.148
2015    8       31    18  42    2.4380   495.2    3.727      32.133
2015    8       31    18  50    2.4378   495.0    3.729      32.118
2015    8       31    18  58    2.4376   494.8    3.732      32.103
2015    8       31    19   5    2.4373   494.7    3.734      32.089
2015    8       31    19  13    2.4371   494.5    3.737      32.075
2015    8       31    19  21    2.4369   494.3    3.740      32.061
2015    8       31    19  28    2.4367   494.1    3.742      32.047
2015    8       31    19  36    2.4365   493.9    3.745      32.033
2015    8       31    19  44    2.4362   493.7    3.747      32.019
2015    8       31    19  51    2.4360   493.6    3.750      32.005
2015    8       31    19  59    2.4358   493.4    3.752      31.991
2015    8       31    20   7    2.4355   493.2    3.755      31.977
2015    8       31    20  14    2.4353   493.0    3.757      31.962
2015    8       31    20  22    2.4350   492.9    3.760      31.948
2015    8       31    20  30    2.4348   492.7    3.762      31.934
2015    8       31    20  37    2.4345   492.5    3.764      31.919
2015    8       31    20  45    2.4342   492.3    3.767      31.904
2015    8       31    20  53    2.4339   492.2    3.769      31.890
2015    8       31    21   0    2.4336   492.0    3.771      31.874
2015    8       31    21   8    2.4333   491.8    3.773      31.859
2015    8       31    21  16    2.4331   491.6    3.775      31.844
2015    8       31    21  23    2.4328   491.4    3.777      31.828
2015    8       31    21  31    2.4325   491.3    3.779      31.812
2015    8       31    21  39    2.4322   491.1    3.781      31.797
2015    8       31    21  47    2.4318   490.9    3.783      31.780
2015    8       31    21  54    2.4315   490.7    3.785      31.764
2015    8       31    22   2    2.4312   490.6    3.787      31.747
2015    8       31    22   9    2.4309   490.4    3.789      31.731
2015    8       31    22  17    2.4306   490.2    3.791      31.714
2015    8       31    22  25    2.4302   490.0    3.792      31.697
2015    8       31    22  33    2.4299   489.9    3.794      31.679
2015    8       31    22  40    2.4296   489.7    3.796      31.662
2015    8       31    22  48    2.4292   489.5    3.798      31.644
2015    8       31    22  56    2.4289   489.3    3.799      31.626
2015    8       31    23   3    2.4285   489.1    3.801      31.608
2015    8       31    23  11    2.4282   489.0    3.803      31.590
2015    8       31    23  19    2.4278   488.8    3.805      31.572
2015    8       31    23  26    2.4274   488.6    3.806      31.553
2015    8       31    23  34    2.4270   488.4    3.808      31.535
2015    8       31    23  42    2.4267   488.2    3.810      31.517
2015    8       31    23  49    2.4263   488.1    3.811      31.498
2015    8       31    23  57    2.4259   487.9    3.813      31.480
2015    9        1     0   5    2.4256   487.7    3.815      31.461
2015    9        1     0  12    2.4252   487.5    3.817      31.443
2015    9        1     0  20    2.4249   487.3    3.819      31.425
2015    9        1     0  28    2.4246   487.1    3.821      31.407
2015    9        1     0  35    2.4242   486.9    3.823      31.389
2015    9        1     0  43    2.4239   486.8    3.825      31.372
2015    9        1     0  51    2.4236   486.6    3.827      31.355
2015    9        1     0  58    2.4234   486.4    3.829      31.338
2015    9        1     1   6    2.4231   486.2    3.831      31.322
2015    9        1     1  14    2.4228   486.0    3.834      31.306
2015    9        1     1  21    2.4226   485.9    3.836      31.290
2015    9        1     1  29    2.4224   485.7    3.839      31.275
2015    9        1     1  37    2.4222   485.5    3.841      31.260
2015    9        1     1  44    2.4220   485.3    3.844      31.246
2015    9        1     1  52    2.4219   485.2    3.847      31.232
2015    9        1     2   0    2.4217   485.0    3.849      31.218
2015    9        1     2   7    2.4215   484.8    3.852      31.205
2015    9        1     2  15    2.4213   484.6    3.855      31.192
2015    9        1     2  23    2.4211   484.5    3.858      31.178
2015    9        1     2  30    2.4209   484.3    3.861      31.165
2015    9        1     2  38    2.4206   484.1    3.864      31.152
2015    9        1     2  46    2.4204   484.0    3.866      31.139
2015    9        1     2  53    2.4200   483.8    3.869      31.125
2015    9        1     3   1    2.4197   483.6    3.872      31.111
2015    9        1     3   9    2.4194   483.5    3.875      31.097
2015    9        1     3  16    2.4190   483.3    3.877      31.083
2015    9        1     3  24    2.4186   483.1    3.880      31.069
2015    9        1     3  32    2.4183   482.9    3.882      31.054
2015    9        1     3  39    2.4179   482.8    3.885      31.038
2015    9        1     3  47    2.4175   482.6    3.887      31.023
2015    9        1     3  55    2.4170   482.4    3.890      31.007
2015    9        1     4   2    2.4166   482.2    3.892      30.991
2015    9        1     4  10    2.4161   482.1    3.894      30.974
2015    9        1     4  18    2.4157   481.9    3.896      30.957
2015    9        1     4  26    2.4152   481.7    3.899      30.940
2015    9        1     4  33    2.4148   481.5    3.901      30.923
2015    9        1     4  41    2.4143   481.3    3.903      30.905
2015    9        1     4  48    2.4138   481.2    3.905      30.887
2015    9        1     4  56    2.4133   481.0    3.907      30.869
2015    9        1     5   4    2.4128   480.8    3.909      30.851
2015    9        1     5  12    2.4123   480.6    3.911      30.832
2015    9        1     5  19    2.4118   480.4    3.913      30.814
2015    9        1     5  27    2.4113   480.2    3.915      30.795
2015    9        1     5  35    2.4108   480.0    3.917      30.776
2015    9        1     5  42    2.4103   479.9    3.918      30.758
2015    9        1     5  50    2.4098   479.7    3.920      30.739
2015    9        1     5  58    2.4093   479.5    3.922      30.721
2015    9        1     6   5    2.4088   479.3    3.924      30.702
2015    9        1     6  13    2.4083   479.1    3.926      30.684
2015    9        1     6  21    2.4079   478.9    3.928      30.666
2015    9        1     6  28    2.4074   478.7    3.930      30.648
2015    9        1     6  36    2.4069   478.5    3.932      30.630
2015    9        1     6  44    2.4065   478.4    3.934      30.613
2015    9        1     6  51    2.4060   478.2    3.936      30.596
2015    9        1     6  59    2.4056   478.0    3.938      30.578
2015    9        1     7   7    2.4052   477.8    3.940      30.562
2015    9        1     7  14    2.4048   477.6    3.942      30.545
2015    9        1     7  22    2.4044   477.4    3.944      30.529
2015    9        1     7  30    2.4040   477.2    3.946      30.513
2015    9        1     7  37    2.4036   477.0    3.949      30.497
2015    9        1     7  45    2.4032   476.8    3.951      30.482
2015    9        1     7  53    2.4028   476.7    3.953      30.467
2015    9        1     8   0    2.4025   476.5    3.955      30.451
2015    9        1     8   8    2.4021   476.3    3.958      30.437
2015    9        1     8  16    2.4018   476.1    3.960      30.422
2015    9        1     8  23    2.4015   475.9    3.963      30.407
2015    9        1     8  31    2.4011   475.7    3.965      30.393
2015    9        1     8  39    2.4008   475.5    3.968      30.379
2015    9        1     8  46    2.4005   475.3    3.970      30.365
2015    9        1     8  54    2.4001   475.2    3.973      30.351
2015    9        1     9   2    2.3998   475.0    3.975      30.337
2015    9        1     9   9    2.3994   474.8    3.978      30.324
2015    9        1     9  17    2.3991   474.6    3.981      30.310
2015    9        1     9  25    2.3987   474.4    3.983      30.297
2015    9        1     9  32    2.3984   474.2    3.986      30.284
2015    9        1     9  40    2.3980   474.0    3.988      30.270
2015    9        1     9  48    2.3977   473.9    3.991      30.257
2015    9        1     9  55    2.3973   473.7    3.994      30.244
2015    9        1    10   3    2.3969   473.5    3.996      30.230
2015    9        1    10  11    2.3965   473.3    3.999      30.217
2015    9        1    10  18    2.3961   473.1    4.002      30.204
2015    9        1    10  26    2.3957   473.0    4.004      30.191
2015    9        1    10  34    2.3953   472.8    4.007      30.177
2015    9        1    10  41    2.3948   472.6    4.009      30.164
2015    9        1    10  49    2.3944   472.4    4.011      30.150
2015    9        1    10  57    2.3939   472.2    4.014      30.136
2015    9        1    11   4    2.3934   472.1    4.016      30.122
2015    9        1    11  12    2.3929   471.9    4.018      30.107
2015    9        1    11  20    2.3924   471.7    4.021      30.092
2015    9        1    11  27    2.3919   471.5    4.023      30.077
2015    9        1    11  35    2.3914   471.4    4.025      30.061
2015    9        1    11  43    2.3909   471.2    4.027      30.044
2015    9        1    11  51    2.3903   471.0    4.029      30.028
2015    9        1    11  58    2.3898   470.8    4.031      30.011
2015    9        1    12   6    2.3892   470.6    4.032      29.993
2015    9        1    12  13    2.3886   470.5    4.034      29.975
2015    9        1    12  21    2.3880   470.3    4.036      29.957
2015    9        1    12  29    2.3874   470.1    4.037      29.939
2015    9        1    12  37    2.3868   469.9    4.039      29.919
2015    9        1    12  44    2.3862   469.8    4.041      29.900
2015    9        1    12  52    2.3856   469.6    4.042      29.881
2015    9        1    13   0    2.3850   469.4    4.044      29.861
2015    9        1    13   7    2.3844   469.2    4.045      29.840
2015    9        1    13  15    2.3837   469.1    4.046      29.820
2015    9        1    13  23    2.3831   468.9    4.048      29.798
2015    9        1    13  30    2.3824   468.7    4.049      29.777
2015    9        1    13  38    2.3817   468.5    4.050      29.755
2015    9        1    13  46    2.3811   468.4    4.052      29.734
2015    9        1    13  53    2.3804   468.2    4.053      29.711
2015    9        1    14   1    2.3797   468.0    4.054      29.689
2015    9        1    14   9    2.3790   467.8    4.056      29.666
2015    9        1    14  16    2.3783   467.7    4.057      29.644
2015    9        1    14  24    2.3775   467.5    4.058      29.621
2015    9        1    14  32    2.3768   467.3    4.059      29.598
2015    9        1    14  39    2.3761   467.1    4.060      29.574
2015    9        1    14  47    2.3753   467.0    4.062      29.551
2015    9        1    14  55    2.3746   466.8    4.063      29.527
2015    9        1    15   2    2.3738   466.6    4.064      29.504
2015    9        1    15  10    2.3730   466.4    4.065      29.480
2015    9        1    15  18    2.3723   466.3    4.066      29.457
2015    9        1    15  25    2.3715   466.1    4.068      29.433
2015    9        1    15  33    2.3707   465.9    4.069      29.410
2015    9        1    15  41    2.3699   465.7    4.070      29.386
2015    9        1    15  48    2.3691   465.5    4.072      29.362
2015    9        1    15  56    2.3682   465.3    4.073      29.338
2015    9        1    16   4    2.3674   465.1    4.074      29.315
2015    9        1    16  11    2.3666   465.0    4.076      29.291
2015    9        1    16  19    2.3658   464.8    4.077      29.268
2015    9        1    16  27    2.3649   464.6    4.079      29.245
2015    9        1    16  34    2.3641   464.4    4.081      29.222
2015    9        1    16  42    2.3633   464.2    4.082      29.199
2015    9        1    16  50    2.3625   464.0    4.084      29.177
2015    9        1    16  57    2.3616   463.8    4.086      29.154
2015    9        1    17   5    2.3608   463.6    4.088      29.132
2015    9        1    17  13    2.3600   463.4    4.090      29.110
2015    9        1    17  20    2.3592   463.2    4.092      29.088
2015    9        1    17  28    2.3584   463.0    4.094      29.067
2015    9        1    17  36    2.3577   462.8    4.096      29.046
2015    9        1    17  43    2.3569   462.6    4.098      29.025
2015    9        1    17  51    2.3561   462.4    4.100      29.005
2015    9        1    17  59    2.3554   462.2    4.103      28.985
2015    9        1    18   6    2.3547   462.0    4.105      28.965
2015    9        1    18  14    2.3539   461.8    4.108      28.946
2015    9        1    18  22    2.3532   461.6    4.110      28.927
2015    9        1    18  29    2.3525   461.4    4.113      28.908
2015    9        1    18  37    2.3518   461.2    4.116      28.890
2015    9        1    18  45    2.3511   461.0    4.119      28.871
2015    9        1    18  52    2.3504   460.8    4.122      28.853
2015    9        1    19   0    2.3498   460.6    4.124      28.835
2015    9        1    19   8    2.3491   460.4    4.127      28.818
2015    9        1    19  15    2.3484   460.2    4.130      28.800
2015    9        1    19  23    2.3477   460.0    4.133      28.782
2015    9        1    19  31    2.3470   459.8    4.136      28.764
2015    9        1    19  38    2.3463   459.6    4.140      28.747
2015    9        1    19  46    2.3456   459.4    4.143      28.729
2015    9        1    19  54    2.3449   459.3    4.146      28.711
2015    9        1    20   2    2.3442   459.1    4.149      28.693
2015    9        1    20   9    2.3435   458.9    4.152      28.674
2015    9        1    20  17    2.3428   458.7    4.155      28.656
2015    9        1    20  24    2.3421   458.5    4.158      28.637
2015    9        1    20  32    2.3413   458.3    4.161      28.619
2015    9        1    20  40    2.3406   458.1    4.164      28.600
2015    9        1    20  48    2.3398   457.9    4.167      28.580
2015    9        1    20  55    2.3391   457.7    4.170      28.561
2015    9        1    21   3    2.3383   457.5    4.173      28.541
2015    9        1    21  11    2.3375   457.3    4.176      28.521
2015    9        1    21  18    2.3368   457.1    4.179      28.501
2015    9        1    21  26    2.3360   456.9    4.182      28.481
2015    9        1    21  34    2.3352   456.7    4.185      28.461
2015    9        1    21  41    2.3344   456.4    4.187      28.441
2015    9        1    21  49    2.3336   456.2    4.190      28.420
2015    9        1    21  57    2.3328   456.0    4.193      28.399
2015    9        1    22   4    2.3320   455.8    4.196      28.379
2015    9        1    22  12    2.3312   455.6    4.199      28.358
2015    9        1    22  20    2.3304   455.4    4.201      28.338
2015    9        1    22  27    2.3296   455.2    4.204      28.317
2015    9        1    22  35    2.3288   455.0    4.207      28.296
2015    9        1    22  43    2.3280   454.8    4.209      28.276
2015    9        1    22  50    2.3272   454.6    4.212      28.255
2015    9        1    22  58    2.3264   454.4    4.215      28.235
2015    9        1    23   6    2.3256   454.2    4.217      28.214
2015    9        1    23  13    2.3248   454.0    4.220      28.194
2015    9        1    23  21    2.3240   453.8    4.223      28.173
2015    9        1    23  29    2.3232   453.6    4.225      28.153
2015    9        1    23  36    2.3223   453.4    4.228      28.132
2015    9        1    23  44    2.3215   453.2    4.231      28.112
2015    9        1    23  52    2.3206   453.0    4.233      28.092
2015    9        1    23  59    2.3198   452.8    4.236      28.072
2015    9        2     0   7    2.3189   452.5    4.238      28.051
2015    9        2     0  15    2.3181   452.3    4.241      28.031
2015    9        2     0  22    2.3172   452.1    4.244      28.011
2015    9        2     0  30    2.3164   451.9    4.246      27.991
2015    9        2     0  38    2.3155   451.7    4.249      27.971
2015    9        2     0  45    2.3147   451.5    4.251      27.951
2015    9        2     0  53    2.3138   451.3    4.254      27.930
2015    9        2     1   1    2.3130   451.1    4.257      27.910
2015    9        2     1   8    2.3121   450.9    4.259      27.890
2015    9        2     1  16    2.3112   450.7    4.262      27.870
2015    9        2     1  24    2.3104   450.4    4.264      27.849
2015    9        2     1  31    2.3095   450.2    4.267      27.829
2015    9        2     1  39    2.3086   450.0    4.269      27.808
2015    9        2     1  47    2.3078   449.8    4.272      27.788
2015    9        2     1  54    2.3069   449.6    4.275      27.767
2015    9        2     2   2    2.3060   449.4    4.277      27.746
2015    9        2     2  10    2.3051   449.2    4.280      27.724
2015    9        2     2  17    2.3042   449.0    4.282      27.703
2015    9        2     2  25    2.3033   448.8    4.285      27.681
2015    9        2     2  33    2.3024   448.5    4.287      27.660
2015    9        2     2  40    2.3014   448.3    4.290      27.638
2015    9        2     2  48    2.3005   448.1    4.293      27.616
2015    9        2     2  56    2.2996   447.9    4.295      27.593
2015    9        2     3   3    2.2987   447.7    4.298      27.571
2015    9        2     3  11    2.2977   447.5    4.300      27.548
2015    9        2     3  19    2.2968   447.3    4.303      27.526
2015    9        2     3  26    2.2958   447.0    4.305      27.503
2015    9        2     3  34    2.2949   446.8    4.308      27.479
2015    9        2     3  42    2.2939   446.6    4.310      27.456
2015    9        2     3  49    2.2929   446.4    4.313      27.433
2015    9        2     3  57    2.2920   446.2    4.316      27.409
2015    9        2     4   5    2.2910   446.0    4.318      27.385
2015    9        2     4  13    2.2900   445.7    4.321      27.361
2015    9        2     4  20    2.2891   445.5    4.323      27.337
2015    9        2     4  28    2.2881   445.3    4.326      27.313
2015    9        2     4  36    2.2871   445.1    4.329      27.288
2015    9        2     4  43    2.2861   444.8    4.331      27.264
2015    9        2     4  51    2.2851   444.6    4.334      27.240
2015    9        2     4  59    2.2841   444.4    4.337      27.215
2015    9        2     5   6    2.2832   444.2    4.339      27.191
2015    9        2     5  14    2.2822   443.9    4.342      27.167
2015    9        2     5  22    2.2812   443.7    4.345      27.143
2015    9        2     5  29    2.2803   443.5    4.348      27.119
2015    9        2     5  37    2.2793   443.3    4.350      27.095
2015    9        2     5  45    2.2784   443.0    4.353      27.071
2015    9        2     5  52    2.2774   442.8    4.356      27.047
2015    9        2     6   0    2.2765   442.6    4.359      27.023
2015    9        2     6   8    2.2755   442.3    4.362      27.000
2015    9        2     6  15    2.2746   442.1    4.365      26.976
2015    9        2     6  23    2.2737   441.9    4.368      26.953
2015    9        2     6  31    2.2728   441.6    4.371      26.930
2015    9        2     6  38    2.2719   441.4    4.374      26.907
2015    9        2     6  46    2.2710   441.2    4.377      26.884
2015    9        2     6  54    2.2702   441.0    4.380      26.862
2015    9        2     7   1    2.2693   440.7    4.384      26.839
2015    9        2     7   9    2.2685   440.5    4.387      26.817
2015    9        2     7  17    2.2677   440.3    4.390      26.795
2015    9        2     7  24    2.2668   440.0    4.393      26.773
2015    9        2     7  32    2.2660   439.8    4.397      26.752
2015    9        2     7  40    2.2653   439.6    4.400      26.730
2015    9        2     7  47    2.2645   439.3    4.403      26.709
2015    9        2     7  55    2.2637   439.1    4.407      26.688
2015    9        2     8   3    2.2630   438.8    4.410      26.667
2015    9        2     8  10    2.2623   438.6    4.414      26.646
2015    9        2     8  18    2.2616   438.4    4.417      26.625
2015    9        2     8  26    2.2609   438.1    4.421      26.605
2015    9        2     8  33    2.2602   437.9    4.425      26.584
2015    9        2     8  41    2.2595   437.7    4.428      26.564
2015    9        2     8  49    2.2589   437.4    4.432      26.544
2015    9        2     8  56    2.2582   437.2    4.436      26.524
2015    9        2     9   4    2.2576   437.0    4.439      26.503
2015    9        2     9  12    2.2570   436.7    4.443      26.483
2015    9        2     9  19    2.2564   436.5    4.447      26.463
2015    9        2     9  27    2.2558   436.3    4.451      26.444
2015    9        2     9  35    2.2553   436.0    4.455      26.424
2015    9        2     9  42    2.2547   435.8    4.459      26.404
2015    9        2     9  50    2.2542   435.5    4.463      26.384
2015    9        2     9  58    2.2536   435.3    4.467      26.364
2015    9        2    10   5    2.2531   435.1    4.471      26.344
2015    9        2    10  13    2.2526   434.8    4.476      26.325
2015    9        2    10  21    2.2521   434.6    4.480      26.305
2015    9        2    10  28    2.2516   434.4    4.484      26.285
2015    9        2    10  36    2.2511   434.1    4.488      26.265
2015    9        2    10  44    2.2506   433.9    4.493      26.245
2015    9        2    10  51    2.2501   433.6    4.497      26.224
2015    9        2    10  59    2.2496   433.4    4.501      26.204
2015    9        2    11   7    2.2492   433.2    4.506      26.184
2015    9        2    11  14    2.2487   432.9    4.510      26.163
2015    9        2    11  22    2.2483   432.7    4.515      26.143
2015    9        2    11  30    2.2478   432.4    4.519      26.122
2015    9        2    11  38    2.2474   432.2    4.524      26.101
2015    9        2    11  45    2.2470   432.0    4.528      26.080
2015    9        2    11  53    2.2466   431.7    4.533      26.059
2015    9        2    12   1    2.2462   431.5    4.537      26.038
2015    9        2    12   8    2.2458   431.2    4.542      26.016
2015    9        2    12  16    2.2455   431.0    4.546      25.995
2015    9        2    12  24    2.2451   430.7    4.551      25.973
2015    9        2    12  31    2.2448   430.5    4.556      25.951
2015    9        2    12  39    2.2445   430.2    4.560      25.930
2015    9        2    12  47    2.2442   430.0    4.565      25.908
2015    9        2    12  54    2.2439   429.7    4.570      25.886
2015    9        2    13   2    2.2436   429.5    4.574      25.864
2015    9        2    13  10    2.2434   429.2    4.579      25.842
2015    9        2    13  17    2.2432   429.0    4.584      25.820
2015    9        2    13  25    2.2430   428.7    4.588      25.798
2015    9        2    13  33    2.2428   428.5    4.593      25.777
2015    9        2    13  40    2.2426   428.2    4.598      25.755
2015    9        2    13  48    2.2425   428.0    4.603      25.733
2015    9        2    13  56    2.2424   427.7    4.608      25.712
2015    9        2    14   3    2.2423   427.5    4.613      25.690
2015    9        2    14  11    2.2423   427.2    4.618      25.669
2015    9        2    14  19    2.2422   427.0    4.623      25.647
2015    9        2    14  26    2.2422   426.7    4.628      25.626
2015    9        2    14  34    2.2422   426.5    4.633      25.605
2015    9        2    14  42    2.2423   426.2    4.639      25.584
2015    9        2    14  49    2.2424   426.0    4.644      25.564
2015    9        2    14  57    2.2425   425.7    4.649      25.543
2015    9        2    15   5    2.2426   425.5    4.655      25.522
2015    9        2    15  12    2.2427   425.2    4.660      25.502
2015    9        2    15  20    2.2429   424.9    4.666      25.482
2015    9        2    15  28    2.2431   424.7    4.672      25.462
2015    9        2    15  35    2.2433   424.4    4.677      25.442
2015    9        2    15  43    2.2436   424.2    4.683      25.422
2015    9        2    15  51    2.2438   423.9    4.689      25.402
2015    9        2    15  58    2.2441   423.7    4.695      25.383
2015    9        2    16   6    2.2445   423.4    4.701      25.364
2015    9        2    16  14    2.2448   423.2    4.707      25.345
2015    9        2    16  21    2.2452   422.9    4.713      25.326
2015    9        2    16  29    2.2456   422.7    4.720      25.307
2015    9        2    16  37    2.2460   422.4    4.726      25.288
2015    9        2    16  44    2.2464   422.2    4.732      25.270
2015    9        2    16  52    2.2469   421.9    4.739      25.252
2015    9        2    17   0    2.2474   421.7    4.746      25.233
2015    9        2    17   7    2.2479   421.4    4.752      25.216
2015    9        2    17  15    2.2485   421.2    4.759      25.198
2015    9        2    17  23    2.2491   420.9    4.766      25.180
2015    9        2    17  30    2.2497   420.7    4.773      25.163
2015    9        2    17  38    2.2503   420.4    4.780      25.146
2015    9        2    17  46    2.2510   420.1    4.787      25.129
2015    9        2    17  53    2.2517   419.9    4.794      25.112
2015    9        2    18   1    2.2525   419.6    4.802      25.095
2015    9        2    18   9    2.2532   419.4    4.809      25.079
2015    9        2    18  17    2.2541   419.1    4.817      25.063
2015    9        2    18  24    2.2549   418.9    4.824      25.047
2015    9        2    18  32    2.2558   418.6    4.832      25.031
2015    9        2    18  39    2.2567   418.4    4.839      25.015
2015    9        2    18  47    2.2577   418.1    4.847      25.000
2015    9        2    18  55    2.2587   417.9    4.855      24.985
2015    9        2    19   3    2.2597   417.6    4.863      24.970
2015    9        2    19  10    2.2608   417.4    4.871      24.955
2015    9        2    19  18    2.2620   417.1    4.880      24.940
2015    9        2    19  26    2.2631   416.9    4.888      24.926
2015    9        2    19  33    2.2643   416.6    4.896      24.912
2015    9        2    19  41    2.2656   416.4    4.905      24.898
2015    9        2    19  49    2.2669   416.1    4.913      24.885
2015    9        2    19  56    2.2682   415.9    4.922      24.872
2015    9        2    20   4    2.2696   415.6    4.930      24.858
2015    9        2    20  12    2.2711   415.4    4.939      24.846
2015    9        2    20  19    2.2726   415.1    4.948      24.833
2015    9        2    20  27    2.2741   414.9    4.957      24.821
2015    9        2    20  35    2.2757   414.6    4.966      24.808
2015    9        2    20  42    2.2773   414.4    4.975      24.797
2015    9        2    20  50    2.2790   414.1    4.985      24.785
2015    9        2    20  58    2.2807   413.9    4.994      24.773
2015    9        2    21   5    2.2826   413.6    5.003      24.762
2015    9        2    21  13    2.2844   413.4    5.013      24.751
2015    9        2    21  21    2.2863   413.2    5.022      24.741
2015    9        2    21  28    2.2882   412.9    5.032      24.730
2015    9        2    21  36    2.2902   412.7    5.042      24.720
2015    9        2    21  44    2.2922   412.4    5.051      24.710
2015    9        2    21  51    2.2944   412.2    5.061      24.700
2015    9        2    21  59    2.2965   411.9    5.071      24.690
2015    9        2    22   7    2.2987   411.7    5.081      24.680
2015    9        2    22  14    2.3009   411.5    5.091      24.671
2015    9        2    22  22    2.3032   411.2    5.102      24.662
2015    9        2    22  30    2.3055   411.0    5.112      24.653
2015    9        2    22  37    2.3079   410.7    5.122      24.644
2015    9        2    22  45    2.3103   410.5    5.133      24.636
2015    9        2    22  53    2.3128   410.3    5.143      24.627
2015    9        2    23   0    2.3153   410.0    5.154      24.619
2015    9        2    23   8    2.3179   409.8    5.165      24.610
2015    9        2    23  16    2.3205   409.6    5.175      24.603
2015    9        2    23  23    2.3231   409.3    5.186      24.595
2015    9        2    23  31    2.3258   409.1    5.197      24.587
2015    9        2    23  39    2.3286   408.9    5.208      24.579
2015    9        2    23  46    2.3313   408.6    5.219      24.572
2015    9        2    23  54    2.3342   408.4    5.230      24.564
2015    9        3     0   2    2.3370   408.2    5.241      24.557
2015    9        3     0   9    2.3400   407.9    5.253      24.549
2015    9        3     0  17    2.3429   407.7    5.264      24.543
2015    9        3     0  25    2.3460   407.5    5.276      24.536
2015    9        3     0  32    2.3490   407.2    5.287      24.529
2015    9        3     0  40    2.3521   407.0    5.299      24.522
2015    9        3     0  48    2.3553   406.8    5.311      24.516
2015    9        3     0  55    2.3585   406.6    5.323      24.510
2015    9        3     1   3    2.3618   406.3    5.335      24.504
2015    9        3     1  11    2.3651   406.1    5.347      24.498
2015    9        3     1  18    2.3685   405.9    5.359      24.493
2015    9        3     1  26    2.3720   405.6    5.372      24.488
2015    9        3     1  34    2.3754   405.4    5.384      24.483
2015    9        3     1  42    2.3790   405.2    5.397      24.478
2015    9        3     1  49    2.3826   405.0    5.410      24.474
2015    9        3     1  57    2.3863   404.8    5.423      24.470
2015    9        3     2   4    2.3901   404.5    5.436      24.467
2015    9        3     2  12    2.3939   404.3    5.450      24.464
2015    9        3     2  20    2.3978   404.1    5.463      24.461
2015    9        3     2  28    2.4017   403.9    5.477      24.459
2015    9        3     2  35    2.4058   403.6    5.491      24.458
2015    9        3     2  43    2.4099   403.4    5.506      24.457
2015    9        3     2  51    2.4141   403.2    5.520      24.457
2015    9        3     2  58    2.4184   403.0    5.535      24.457
2015    9        3     3   6    2.4227   402.8    5.550      24.459
2015    9        3     3  14    2.4272   402.6    5.566      24.461
2015    9        3     3  21    2.4317   402.3    5.582      24.463
2015    9        3     3  29    2.4364   402.1    5.598      24.467
2015    9        3     3  37    2.4411   401.9    5.614      24.472
2015    9        3     3  44    2.4459   401.7    5.631      24.477
2015    9        3     3  52    2.4508   401.5    5.648      24.483
2015    9        3     4   0    2.4558   401.3    5.665      24.491
2015    9        3     4   7    2.4609   401.1    5.683      24.499
2015    9        3     4  15    2.4661   400.9    5.701      24.508
2015    9        3     4  23    2.4714   400.7    5.719      24.518
2015    9        3     4  30    2.4768   400.5    5.737      24.528
2015    9        3     4  38    2.4823   400.3    5.756      24.540
2015    9        3     4  46    2.4879   400.1    5.775      24.553
2015    9        3     4  53    2.4935   399.9    5.794      24.566
2015    9        3     5   1    2.4993   399.7    5.813      24.581
2015    9        3     5   9    2.5051   399.6    5.832      24.596
2015    9        3     5  16    2.5110   399.4    5.851      24.613
2015    9        3     5  24    2.5169   399.2    5.870      24.630
2015    9        3     5  32    2.5230   399.0    5.890      24.648
2015    9        3     5  39    2.5290   398.9    5.909      24.667
2015    9        3     5  47    2.5352   398.7    5.928      24.687
2015    9        3     5  55    2.5413   398.6    5.947      24.707
2015    9        3     6   2    2.5476   398.4    5.966      24.727
2015    9        3     6  10    2.5538   398.2    5.984      24.748
2015    9        3     6  18    2.5602   398.1    6.003      24.768
2015    9        3     6  25    2.5665   397.9    6.022      24.789
2015    9        3     6  33    2.5730   397.8    6.041      24.810
2015    9        3     6  41    2.5794   397.6    6.059      24.830
2015    9        3     6  48    2.5859   397.5    6.078      24.851
2015    9        3     6  56    2.5924   397.3    6.096      24.871
2015    9        3     7   4    2.5991   397.2    6.115      24.891
2015    9        3     7  11    2.6057   397.0    6.134      24.911
2015    9        3     7  19    2.6124   396.9    6.152      24.931
2015    9        3     7  27    2.6191   396.7    6.171      24.951
2015    9        3     7  34    2.6259   396.6    6.190      24.971
2015    9        3     7  42    2.6326   396.4    6.208      24.991
2015    9        3     7  50    2.6396   396.3    6.227      25.011
2015    9        3     7  57    2.6464   396.2    6.246      25.032
2015    9        3     8   5    2.6534   396.0    6.265      25.052
2015    9        3     8  13    2.6604   395.9    6.284      25.073
2015    9        3     8  20    2.6675   395.8    6.303      25.095
2015    9        3     8  28    2.6745   395.6    6.322      25.116
2015    9        3     8  36    2.6817   395.5    6.342      25.138
2015    9        3     8  43    2.6888   395.4    6.361      25.161
2015    9        3     8  51    2.6961   395.3    6.381      25.184
2015    9        3     8  59    2.7033   395.1    6.401      25.207
2015    9        3     9   7    2.7107   395.0    6.421      25.232
2015    9        3     9  14    2.7180   394.9    6.441      25.256
2015    9        3     9  22    2.7255   394.8    6.461      25.282
2015    9        3     9  30    2.7329   394.7    6.482      25.308
2015    9        3     9  37    2.7405   394.6    6.503      25.335
2015    9        3     9  45    2.7481   394.4    6.523      25.363
2015    9        3     9  53    2.7558   394.3    6.544      25.391
2015    9        3    10   0    2.7634   394.2    6.566      25.420
2015    9        3    10   8    2.7712   394.1    6.587      25.450
2015    9        3    10  16    2.7790   394.0    6.608      25.481
2015    9        3    10  23    2.7869   393.9    6.630      25.512
2015    9        3    10  31    2.7948   393.8    6.652      25.544
2015    9        3    10  39    2.8028   393.8    6.674      25.577
2015    9        3    10  46    2.8108   393.7    6.696      25.610
2015    9        3    10  54    2.8190   393.6    6.719      25.644
2015    9        3    11   2    2.8271   393.5    6.741      25.678
2015    9        3    11   9    2.8354   393.4    6.764      25.713
2015    9        3    11  17    2.8437   393.3    6.787      25.749
2015    9        3    11  25    2.8521   393.2    6.811      25.785
2015    9        3    11  32    2.8605   393.2    6.834      25.821
2015    9        3    11  40    2.8691   393.1    6.858      25.859
2015    9        3    11  48    2.8777   393.0    6.882      25.897
2015    9        3    11  55    2.8864   392.9    6.906      25.935
2015    9        3    12   3    2.8951   392.9    6.930      25.974
2015    9        3    12  11    2.9040   392.8    6.955      26.015
2015    9        3    12  18    2.9129   392.7    6.980      26.056
2015    9        3    12  26    2.9220   392.7    7.005      26.098
2015    9        3    12  34    2.9311   392.6    7.030      26.142
2015    9        3    12  41    2.9403   392.6    7.056      26.187
2015    9        3    12  49    2.9496   392.5    7.082      26.233
2015    9        3    12  57    2.9591   392.4    7.108      26.280
2015    9        3    13   4    2.9686   392.4    7.135      26.328
2015    9        3    13  12    2.9783   392.3    7.162      26.378
2015    9        3    13  20    2.9879   392.3    7.188      26.429
2015    9        3    13  27    2.9977   392.3    7.216      26.485
2015    9        3    13  35    3.0075   392.2    7.242      26.543
2015    9        3    13  43    3.0173   392.2    7.269      26.604
2015    9        3    13  50    3.0271   392.2    7.295      26.667
2015    9        3    13  58    3.0370   392.2    7.320      26.732
2015    9        3    14   6    3.0467   392.2    7.345      26.797
2015    9        3    14  13    3.0564   392.2    7.370      26.862
2015    9        3    14  21    3.0661   392.2    7.394      26.925
2015    9        3    14  29    3.0758   392.2    7.418      26.988
2015    9        3    14  36    3.0853   392.2    7.440      27.049
2015    9        3    14  44    3.0949   392.2    7.463      27.110
2015    9        3    14  52    3.1044   392.2    7.485      27.169
2015    9        3    14  59    3.1139   392.2    7.506      27.227
2015    9        3    15   7    3.1233   392.2    7.527      27.284
2015    9        3    15  15    3.1328   392.2    7.548      27.341
2015    9        3    15  22    3.1421   392.2    7.569      27.396
2015    9        3    15  30    3.1515   392.2    7.589      27.451
2015    9        3    15  38    3.1608   392.2    7.608      27.505
2015    9        3    15  45    3.1701   392.2    7.628      27.559
2015    9        3    15  53    3.1793   392.3    7.647      27.612
2015    9        3    16   1    3.1886   392.3    7.666      27.665
2015    9        3    16   8    3.1978   392.3    7.685      27.717
2015    9        3    16  16    3.2070   392.4    7.703      27.769
2015    9        3    16  24    3.2161   392.4    7.722      27.820
2015    9        3    16  32    3.2253   392.4    7.740      27.872
2015    9        3    16  39    3.2344   392.4    7.758      27.923
2015    9        3    16  47    3.2435   392.5    7.776      27.974
2015    9        3    16  55    3.2525   392.5    7.793      28.025
2015    9        3    17   2    3.2616   392.6    7.811      28.076
2015    9        3    17  10    3.2706   392.6    7.828      28.126
2015    9        3    17  18    3.2796   392.7    7.846      28.177
2015    9        3    17  25    3.2886   392.7    7.863      28.227
2015    9        3    17  33    3.2976   392.7    7.880      28.277
2015    9        3    17  41    3.3065   392.8    7.897      28.327
2015    9        3    17  48    3.3154   392.8    7.915      28.377
2015    9        3    17  56    3.3243   392.9    7.932      28.427
2015    9        3    18   4    3.3333   392.9    7.949      28.477
2015    9        3    18  11    3.3421   393.0    7.965      28.526
2015    9        3    18  19    3.3511   393.0    7.982      28.576
2015    9        3    18  27    3.3599   393.1    7.999      28.625
2015    9        3    18  34    3.3688   393.1    8.016      28.675
2015    9        3    18  42    3.3777   393.2    8.033      28.725
2015    9        3    18  50    3.3866   393.2    8.051      28.775
2015    9        3    18  57    3.3955   393.3    8.068      28.826
2015    9        3    19   5    3.4044   393.3    8.086      28.877
2015    9        3    19  13    3.4133   393.4    8.103      28.928
2015    9        3    19  20    3.4223   393.5    8.122      28.980
2015    9        3    19  28    3.4313   393.5    8.141      29.033
2015    9        3    19  36    3.4404   393.6    8.160      29.088
2015    9        3    19  43    3.4495   393.6    8.180      29.143
2015    9        3    19  51    3.4587   393.7    8.201      29.200
2015    9        3    19  59    3.4679   393.7    8.222      29.258
2015    9        3    20   6    3.4774   393.8    8.245      29.318
2015    9        3    20  14    3.4869   393.8    8.269      29.380
2015    9        3    20  22    3.4966   393.9    8.293      29.444
2015    9        3    20  29    3.5063   394.0    8.319      29.511
2015    9        3    20  37    3.5162   394.0    8.346      29.582
2015    9        3    20  45    3.5262   394.1    8.372      29.657
2015    9        3    20  52    3.5363   394.2    8.400      29.739
2015    9        3    21   0    3.5463   394.3    8.427      29.827
2015    9        3    21   8    3.5563   394.5    8.453      29.920
2015    9        3    21  15    3.5663   394.6    8.479      30.017
2015    9        3    21  23    3.5762   394.7    8.505      30.116
2015    9        3    21  31    3.5859   394.9    8.529      30.216
2015    9        3    21  38    3.5955   395.0    8.552      30.316
2015    9        3    21  46    3.6049   395.1    8.575      30.412
2015    9        3    21  54    3.6142   395.3    8.596      30.508
2015    9        3    22   1    3.6233   395.4    8.616      30.601
2015    9        3    22   9    3.6324   395.6    8.635      30.692
2015    9        3    22  17    3.6412   395.7    8.653      30.781
2015    9        3    22  24    3.6500   395.9    8.670      30.868
2015    9        3    22  32    3.6586   396.0    8.686      30.952
2015    9        3    22  40    3.6671   396.2    8.702      31.035
2015    9        3    22  47    3.6756   396.3    8.716      31.116
2015    9        3    22  55    3.6839   396.5    8.730      31.195
2015    9        3    23   3    3.6922   396.6    8.744      31.272
2015    9        3    23  10    3.7004   396.8    8.756      31.349
2015    9        3    23  18    3.7085   397.0    8.768      31.423
2015    9        3    23  26    3.7166   397.1    8.780      31.497
2015    9        3    23  33    3.7246   397.3    8.791      31.569
2015    9        3    23  41    3.7325   397.5    8.801      31.640
2015    9        3    23  49    3.7404   397.6    8.811      31.710
2015    9        3    23  57    3.7482   397.8    8.820      31.779
2015    9        4     0   4    3.7559   398.0    8.829      31.846
2015    9        4     0  12    3.7637   398.2    8.837      31.913
2015    9        4     0  20    3.7712   398.3    8.845      31.979
2015    9        4     0  27    3.7788   398.5    8.853      32.044
2015    9        4     0  35    3.7863   398.7    8.860      32.108
2015    9        4     0  43    3.7938   398.9    8.867      32.172
2015    9        4     0  50    3.8012   399.0    8.873      32.235
2015    9        4     0  58    3.8086   399.2    8.879      32.297
2015    9        4     1   6    3.8159   399.4    8.885      32.358
2015    9        4     1  13    3.8232   399.6    8.891      32.419
2015    9        4     1  21    3.8304   399.8    8.896      32.478
2015    9        4     1  29    3.8376   399.9    8.901      32.538
2015    9        4     1  36    3.8447   400.1    8.906      32.597
2015    9        4     1  44    3.8519   400.3    8.911      32.655
2015    9        4     1  52    3.8589   400.5    8.916      32.713
2015    9        4     1  59    3.8659   400.7    8.921      32.772
2015    9        4     2   7    3.8729   400.8    8.925      32.829
2015    9        4     2  15    3.8798   401.0    8.930      32.887
2015    9        4     2  22    3.8867   401.2    8.935      32.945
2015    9        4     2  30    3.8936   401.4    8.940      33.003
2015    9        4     2  38    3.9005   401.5    8.946      33.061
2015    9        4     2  45    3.9074   401.7    8.951      33.120
2015    9        4     2  53    3.9142   401.9    8.957      33.178
2015    9        4     3   1    3.9211   402.1    8.963      33.238
2015    9        4     3   8    3.9279   402.2    8.970      33.297
2015    9        4     3  16    3.9347   402.4    8.977      33.358
2015    9        4     3  24    3.9416   402.6    8.984      33.419
2015    9        4     3  31    3.9485   402.8    8.992      33.481
2015    9        4     3  39    3.9554   402.9    9.001      33.543
2015    9        4     3  47    3.9623   403.1    9.010      33.606
2015    9        4     3  54    3.9693   403.3    9.020      33.670
2015    9        4     4   2    3.9762   403.5    9.030      33.737
2015    9        4     4  10    3.9832   403.6    9.041      33.807
2015    9        4     4  17    3.9901   403.8    9.051      33.880
2015    9        4     4  25    3.9970   404.0    9.062      33.954
2015    9        4     4  33    4.0038   404.3    9.072      34.032
2015    9        4     4  40    4.0105   404.5    9.081      34.110
2015    9        4     4  48    4.0172   404.7    9.090      34.189
2015    9        4     4  56    4.0238   404.9    9.099      34.267
2015    9        4     5   3    4.0303   405.1    9.108      34.344
2015    9        4     5  11    4.0366   405.3    9.116      34.419
2015    9        4     5  19    4.0430   405.5    9.123      34.495
2015    9        4     5  26    4.0492   405.7    9.130      34.569
2015    9        4     5  34    4.0554   405.9    9.137      34.643
2015    9        4     5  42    4.0614   406.1    9.144      34.715
2015    9        4     5  49    4.0675   406.3    9.150      34.788
2015    9        4     5  57    4.0735   406.6    9.157      34.859
2015    9        4     6   5    4.0794   406.8    9.163      34.930
2015    9        4     6  12    4.0853   407.0    9.169      35.000
2015    9        4     6  20    4.0912   407.2    9.175      35.071
2015    9        4     6  28    4.0970   407.4    9.180      35.141
2015    9        4     6  36    4.1028   407.6    9.186      35.211
2015    9        4     6  43    4.1086   407.9    9.192      35.282
2015    9        4     6  51    4.1143   408.1    9.199      35.352
2015    9        4     6  58    4.1201   408.3    9.205      35.423
2015    9        4     7   6    4.1258   408.5    9.212      35.495
2015    9        4     7  14    4.1315   408.8    9.218      35.567
2015    9        4     7  22    4.1373   409.0    9.226      35.641
2015    9        4     7  29    4.1431   409.2    9.233      35.715
2015    9        4     7  37    4.1490   409.4    9.242      35.791
2015    9        4     7  45    4.1549   409.6    9.251      35.867
2015    9        4     7  52    4.1609   409.9    9.260      35.948
2015    9        4     8   0    4.1670   410.1    9.269      36.031
2015    9        4     8   8    4.1731   410.4    9.279      36.117
2015    9        4     8  15    4.1793   410.6    9.288      36.207
2015    9        4     8  23    4.1855   410.9    9.297      36.300
2015    9        4     8  31    4.1916   411.2    9.305      36.395
2015    9        4     8  38    4.1976   411.5    9.313      36.489
2015    9        4     8  46    4.2035   411.8    9.320      36.583
2015    9        4     8  54    4.2093   412.1    9.326      36.677
2015    9        4     9   1    4.2149   412.3    9.331      36.769
2015    9        4     9   9    4.2203   412.6    9.335      36.860
2015    9        4     9  17    4.2256   412.9    9.338      36.949
2015    9        4     9  24    4.2307   413.2    9.340      37.036
2015    9        4     9  32    4.2356   413.5    9.342      37.122
2015    9        4     9  40    4.2405   413.8    9.342      37.206
2015    9        4     9  47    4.2451   414.1    9.342      37.289
2015    9        4     9  55    4.2497   414.4    9.342      37.370
2015    9        4    10   3    4.2541   414.7    9.340      37.450
2015    9        4    10  10    4.2585   415.0    9.338      37.530
2015    9        4    10  18    4.2627   415.4    9.336      37.608
2015    9        4    10  26    4.2669   415.7    9.333      37.685
2015    9        4    10  33    4.2709   416.0    9.330      37.761
2015    9        4    10  41    4.2750   416.3    9.327      37.837
2015    9        4    10  49    4.2789   416.6    9.323      37.912
2015    9        4    10  56    4.2828   416.9    9.319      37.986
2015    9        4    11   4    4.2867   417.2    9.315      38.060
2015    9        4    11  12    4.2906   417.5    9.311      38.133
2015    9        4    11  19    4.2944   417.8    9.307      38.206
2015    9        4    11  27    4.2983   418.1    9.303      38.278
2015    9        4    11  35    4.3021   418.4    9.299      38.350
2015    9        4    11  42    4.3060   418.7    9.295      38.422
2015    9        4    11  50    4.3099   419.0    9.292      38.494
2015    9        4    11  58    4.3139   419.3    9.288      38.566
2015    9        4    12   5    4.3179   419.6    9.286      38.639
2015    9        4    12  13    4.3219   419.9    9.283      38.716
2015    9        4    12  21    4.3259   420.2    9.281      38.794
2015    9        4    12  28    4.3298   420.5    9.278      38.875
2015    9        4    12  36    4.3337   420.8    9.276      38.957
2015    9        4    12  44    4.3375   421.2    9.273      39.041
2015    9        4    12  51    4.3412   421.5    9.270      39.122
2015    9        4    12  59    4.3448   421.9    9.267      39.203
2015    9        4    13   7    4.3481   422.2    9.263      39.282
2015    9        4    13  14    4.3514   422.6    9.258      39.358
2015    9        4    13  22    4.3544   422.9    9.252      39.432
2015    9        4    13  30    4.3573   423.2    9.246      39.504
2015    9        4    13  37    4.3599   423.6    9.239      39.572
2015    9        4    13  45    4.3625   423.9    9.232      39.638
2015    9        4    13  53    4.3649   424.3    9.224      39.701
2015    9        4    14   1    4.3672   424.6    9.217      39.762
2015    9        4    14   8    4.3695   424.9    9.209      39.822
2015    9        4    14  16    4.3717   425.2    9.201      39.880
2015    9        4    14  23    4.3739   425.5    9.193      39.936
2015    9        4    14  31    4.3761   425.8    9.186      39.992
2015    9        4    14  39    4.3782   426.1    9.180      40.047
2015    9        4    14  47    4.3804   426.4    9.173      40.104
2015    9        4    14  54    4.3826   426.7    9.168      40.160
2015    9        4    15   2    4.3849   426.9    9.164      40.217
2015    9        4    15  10    4.3872   427.2    9.160      40.274
2015    9        4    15  17    4.3896   427.5    9.157      40.335
2015    9        4    15  25    4.3920   427.8    9.154      40.399
2015    9        4    15  33    4.3945   428.1    9.152      40.467
2015    9        4    15  40    4.3969   428.4    9.150      40.538
2015    9        4    15  48    4.3993   428.7    9.148      40.614
2015    9        4    15  56    4.4017   429.0    9.145      40.692
2015    9        4    16   3    4.4038   429.4    9.141      40.771
2015    9        4    16  11    4.4058   429.7    9.137      40.849
2015    9        4    16  19    4.4076   430.0    9.132      40.926
2015    9        4    16  26    4.4092   430.4    9.126      41.002
2015    9        4    16  34    4.4105   430.7    9.120      41.077
2015    9        4    16  42    4.4117   431.1    9.112      41.151
2015    9        4    16  49    4.4126   431.4    9.104      41.223
2015    9        4    16  57    4.4133   431.8    9.095      41.294
2015    9        4    17   5    4.4139   432.1    9.085      41.364
2015    9        4    17  12    4.4143   432.5    9.074      41.432
2015    9        4    17  20    4.4145   432.9    9.063      41.499
2015    9        4    17  28    4.4146   433.2    9.051      41.565
2015    9        4    17  35    4.4146   433.6    9.039      41.630
2015    9        4    17  43    4.4145   434.0    9.026      41.694
2015    9        4    17  51    4.4142   434.4    9.013      41.758
2015    9        4    17  58    4.4138   434.7    8.999      41.821
2015    9        4    18   6    4.4134   435.1    8.985      41.883
2015    9        4    18  14    4.4129   435.5    8.971      41.944
2015    9        4    18  21    4.4123   435.8    8.957      42.006
2015    9        4    18  29    4.4117   436.2    8.943      42.066
2015    9        4    18  37    4.4109   436.6    8.928      42.125
2015    9        4    18  44    4.4102   437.0    8.914      42.184
2015    9        4    18  52    4.4094   437.3    8.900      42.243
2015    9        4    19   0    4.4087   437.7    8.886      42.301
2015    9        4    19   7    4.4079   438.1    8.872      42.359
2015    9        4    19  15    4.4071   438.4    8.858      42.416
2015    9        4    19  23    4.4063   438.8    8.844      42.475
2015    9        4    19  30    4.4055   439.2    8.831      42.534
2015    9        4    19  38    4.4046   439.5    8.819      42.597
2015    9        4    19  46    4.4037   439.9    8.806      42.661
2015    9        4    19  53    4.4026   440.3    8.793      42.727
2015    9        4    20   1    4.4015   440.7    8.780      42.793
2015    9        4    20   9    4.4001   441.1    8.766      42.860
2015    9        4    20  16    4.3987   441.5    8.752      42.924
2015    9        4    20  24    4.3970   442.0    8.737      42.987
2015    9        4    20  32    4.3951   442.4    8.721      43.047
2015    9        4    20  39    4.3930   442.8    8.704      43.104
2015    9        4    20  47    4.3907   443.3    8.687      43.157
2015    9        4    20  55    4.3881   443.7    8.668      43.209
2015    9        4    21   2    4.3854   444.2    8.649      43.257
2015    9        4    21  10    4.3824   444.6    8.629      43.302
2015    9        4    21  18    4.3793   445.1    8.609      43.345
2015    9        4    21  26    4.3759   445.5    8.587      43.387
2015    9        4    21  33    4.3724   446.0    8.565      43.428
2015    9        4    21  41    4.3686   446.4    8.542      43.468
2015    9        4    21  49    4.3646   446.9    8.518      43.506
2015    9        4    21  56    4.3604   447.3    8.494      43.544
2015    9        4    22   4    4.3559   447.8    8.468      43.580
2015    9        4    22  12    4.3509   448.2    8.442      43.614
2015    9        4    22  19    4.3457   448.7    8.414      43.645
2015    9        4    22  27    4.3400   449.1    8.385      43.674
2015    9        4    22  35    4.3340   449.6    8.354      43.700
2015    9        4    22  42    4.3272   450.0    8.321      43.718
2015    9        4    22  50    4.3202   450.4    8.288      43.729
2015    9        4    22  58    4.3126   450.8    8.254      43.735
2015    9        4    23   5    4.3049   451.2    8.220      43.735
2015    9        4    23  13    4.2969   451.6    8.186      43.729
2015    9        4    23  21    4.2889   451.9    8.152      43.721
2015    9        4    23  28    4.2807   452.3    8.119      43.713
2015    9        4    23  36    4.2727   452.6    8.087      43.706
2015    9        4    23  44    4.2646   453.0    8.055      43.699
2015    9        4    23  51    4.2566   453.3    8.024      43.692
2015    9        4    23  59    4.2484   453.7    7.994      43.685
2015    9        5     0   7    4.2405   454.0    7.964      43.679
2015    9        5     0  14    4.2324   454.3    7.935      43.675
2015    9        5     0  22    4.2245   454.7    7.907      43.671
2015    9        5     0  30    4.2165   455.0    7.879      43.668
2015    9        5     0  37    4.2087   455.4    7.852      43.666
2015    9        5     0  45    4.2007   455.7    7.826      43.664
2015    9        5     0  53    4.1930   456.0    7.800      43.664
2015    9        5     1   0    4.1851   456.4    7.774      43.664
2015    9        5     1   8    4.1773   456.7    7.750      43.665
2015    9        5     1  16    4.1694   457.0    7.725      43.666
2015    9        5     1  23    4.1617   457.4    7.701      43.667
2015    9        5     1  31    4.1538   457.7    7.676      43.668
2015    9        5     1  39    4.1461   458.1    7.653      43.670
2015    9        5     1  46    4.1381   458.4    7.629      43.670
2015    9        5     1  54    4.1303   458.7    7.605      43.671
2015    9        5     2   2    4.1223   459.1    7.581      43.671
2015    9        5     2   9    4.1143   459.4    7.557      43.671
2015    9        5     2  17    4.1062   459.8    7.533      43.669
2015    9        5     2  25    4.0981   460.1    7.510      43.665
2015    9        5     2  32    4.0898   460.4    7.486      43.660
2015    9        5     2  40    4.0816   460.8    7.462      43.653
2015    9        5     2  48    4.0732   461.1    7.438      43.644
2015    9        5     2  55    4.0648   461.4    7.415      43.634
2015    9        5     3   3    4.0562   461.7    7.391      43.623
2015    9        5     3  11    4.0477   462.1    7.368      43.611
2015    9        5     3  18    4.0389   462.4    7.345      43.598
2015    9        5     3  26    4.0303   462.7    7.322      43.585
2015    9        5     3  34    4.0215   463.0    7.299      43.571
2015    9        5     3  41    4.0128   463.4    7.276      43.556
2015    9        5     3  49    4.0038   463.7    7.253      43.539
2015    9        5     3  57    3.9950   464.0    7.231      43.522
2015    9        5     4   4    3.9859   464.3    7.208      43.505
2015    9        5     4  12    3.9769   464.6    7.186      43.487
2015    9        5     4  20    3.9677   465.0    7.164      43.470
2015    9        5     4  27    3.9585   465.3    7.142      43.454
2015    9        5     4  35    3.9491   465.7    7.119      43.438
2015    9        5     4  43    3.9397   466.0    7.097      43.425
2015    9        5     4  51    3.9300   466.3    7.074      43.412
2015    9        5     4  58    3.9203   466.7    7.052      43.400
2015    9        5     5   6    3.9103   467.1    7.028      43.388
2015    9        5     5  13    3.9002   467.4    7.004      43.376
2015    9        5     5  21    3.8897   467.8    6.979      43.363
2015    9        5     5  29    3.8791   468.2    6.953      43.348
2015    9        5     5  37    3.8680   468.5    6.926      43.328
2015    9        5     5  44    3.8568   468.9    6.898      43.308
2015    9        5     5  52    3.8450   469.3    6.869      43.283
2015    9        5     6   0    3.8330   469.7    6.839      43.251
2015    9        5     6   7    3.8205   470.1    6.808      43.211
2015    9        5     6  15    3.8080   470.4    6.776      43.165
2015    9        5     6  23    3.7951   470.7    6.745      43.113
2015    9        5     6  30    3.7822   471.0    6.714      43.054
2015    9        5     6  38    3.7691   471.3    6.683      42.993
2015    9        5     6  46    3.7562   471.6    6.652      42.931
2015    9        5     6  53    3.7433   471.9    6.621      42.867
2015    9        5     7   1    3.7304   472.2    6.591      42.803
2015    9        5     7   9    3.7176   472.5    6.561      42.736
2015    9        5     7  16    3.7050   472.7    6.532      42.668
2015    9        5     7  24    3.6923   473.0    6.503      42.600
2015    9        5     7  32    3.6800   473.3    6.476      42.534
2015    9        5     7  39    3.6677   473.5    6.448      42.468
2015    9        5     7  47    3.6557   473.7    6.422      42.404
2015    9        5     7  55    3.6437   474.0    6.396      42.342
2015    9        5     8   2    3.6321   474.2    6.371      42.282
2015    9        5     8  10    3.6205   474.4    6.347      42.222
2015    9        5     8  18    3.6091   474.6    6.323      42.166
2015    9        5     8  25    3.5978   474.8    6.300      42.111
2015    9        5     8  33    3.5868   475.0    6.278      42.057
2015    9        5     8  41    3.5758   475.2    6.256      42.005
2015    9        5     8  48    3.5650   475.4    6.235      41.954
2015    9        5     8  56    3.5542   475.6    6.214      41.904
2015    9        5     9   4    3.5436   475.8    6.194      41.855
2015    9        5     9  11    3.5330   476.0    6.174      41.805
2015    9        5     9  19    3.5225   476.2    6.154      41.757
2015    9        5     9  27    3.5120   476.4    6.134      41.707
2015    9        5     9  34    3.5016   476.6    6.114      41.657
2015    9        5     9  42    3.4912   476.8    6.095      41.607
2015    9        5     9  50    3.4808   477.0    6.075      41.556
2015    9        5     9  57    3.4704   477.2    6.056      41.504
2015    9        5    10   5    3.4600   477.4    6.037      41.452
2015    9        5    10  13    3.4496   477.6    6.018      41.399
2015    9        5    10  20    3.4393   477.8    5.999      41.346
2015    9        5    10  28    3.4288   477.9    5.980      41.292
2015    9        5    10  36    3.4185   478.1    5.962      41.238
2015    9        5    10  43    3.4081   478.3    5.943      41.182
2015    9        5    10  51    3.3977   478.5    5.924      41.128
2015    9        5    10  59    3.3874   478.6    5.906      41.072
2015    9        5    11   6    3.3771   478.8    5.888      41.016
2015    9        5    11  14    3.3668   479.0    5.870      40.959
2015    9        5    11  22    3.3565   479.1    5.852      40.904
2015    9        5    11  29    3.3462   479.2    5.835      40.847
2015    9        5    11  37    3.3361   479.4    5.818      40.791
2015    9        5    11  45    3.3258   479.5    5.801      40.736
2015    9        5    11  52    3.3157   479.6    5.784      40.681
2015    9        5    12   0    3.3055   479.8    5.768      40.626
2015    9        5    12   8    3.2954   479.9    5.752      40.572
2015    9        5    12  15    3.2853   480.0    5.736      40.518
2015    9        5    12  23    3.2753   480.2    5.720      40.464
2015    9        5    12  31    3.2652   480.3    5.704      40.410
2015    9        5    12  38    3.2552   480.4    5.688      40.355
2015    9        5    12  46    3.2451   480.5    5.673      40.300
2015    9        5    12  54    3.2351   480.6    5.657      40.245
2015    9        5    13   2    3.2251   480.7    5.642      40.190
2015    9        5    13   9    3.2152   480.9    5.626      40.135
2015    9        5    13  17    3.2052   481.0    5.611      40.080
2015    9        5    13  25    3.1953   481.1    5.596      40.026
2015    9        5    13  32    3.1855   481.2    5.581      39.971
2015    9        5    13  40    3.1757   481.3    5.566      39.915
2015    9        5    13  48    3.1658   481.4    5.550      39.858
2015    9        5    13  55    3.1561   481.6    5.535      39.801
2015    9        5    14   3    3.1463   481.7    5.520      39.742
2015    9        5    14  11    3.1365   481.8    5.504      39.682
2015    9        5    14  18    3.1268   481.9    5.488      39.620
2015    9        5    14  26    3.1172   482.0    5.472      39.557
2015    9        5    14  34    3.1076   482.1    5.456      39.492
2015    9        5    14  41    3.0981   482.3    5.440      39.425
2015    9        5    14  49    3.0887   482.4    5.424      39.358
2015    9        5    14  57    3.0795   482.5    5.408      39.291
2015    9        5    15   4    3.0703   482.6    5.392      39.224
2015    9        5    15  12    3.0612   482.7    5.376      39.158
2015    9        5    15  20    3.0523   482.8    5.361      39.092
2015    9        5    15  27    3.0434   482.8    5.345      39.028
2015    9        5    15  35    3.0347   482.9    5.330      38.963
2015    9        5    15  43    3.0261   483.0    5.315      38.900
2015    9        5    15  50    3.0177   483.0    5.301      38.836
2015    9        5    15  58    3.0093   483.1    5.286      38.774
2015    9        5    16   6    3.0010   483.1    5.272      38.712
2015    9        5    16  13    2.9929   483.2    5.258      38.651
2015    9        5    16  21    2.9848   483.2    5.244      38.590
2015    9        5    16  29    2.9769   483.3    5.231      38.531
2015    9        5    16  36    2.9690   483.3    5.217      38.471
2015    9        5    16  44    2.9612   483.4    5.204      38.412
2015    9        5    16  52    2.9534   483.4    5.191      38.353
2015    9        5    16  59    2.9457   483.5    5.178      38.295
2015    9        5    17   7    2.9380   483.5    5.166      38.238
2015    9        5    17  15    2.9304   483.6    5.153      38.181
2015    9        5    17  22    2.9228   483.6    5.140      38.124
2015    9        5    17  30    2.9153   483.7    5.128      38.069
2015    9        5    17  38    2.9077   483.7    5.115      38.012
2015    9        5    17  45    2.9003   483.8    5.103      37.956
2015    9        5    17  53    2.8927   483.9    5.091      37.899
2015    9        5    18   1    2.8853   483.9    5.078      37.842
2015    9        5    18   8    2.8778   483.9    5.066      37.784
2015    9        5    18  16    2.8704   484.0    5.054      37.727
2015    9        5    18  24    2.8630   484.0    5.042      37.669
2015    9        5    18  31    2.8556   484.1    5.030      37.611
2015    9        5    18  39    2.8483   484.1    5.018      37.554
2015    9        5    18  47    2.8410   484.1    5.006      37.497
2015    9        5    18  54    2.8338   484.1    4.995      37.439
2015    9        5    19   2    2.8266   484.2    4.984      37.382
2015    9        5    19  10    2.8194   484.2    4.972      37.325
2015    9        5    19  17    2.8123   484.2    4.961      37.268
2015    9        5    19  25    2.8051   484.2    4.950      37.211
2015    9        5    19  33    2.7980   484.3    4.940      37.154
2015    9        5    19  40    2.7910   484.3    4.929      37.096
2015    9        5    19  48    2.7839   484.3    4.918      37.039
2015    9        5    19  56    2.7768   484.3    4.908      36.979
2015    9        5    20   3    2.7698   484.3    4.897      36.920
2015    9        5    20  11    2.7628   484.3    4.887      36.860
2015    9        5    20  19    2.7558   484.3    4.877      36.800
2015    9        5    20  27    2.7488   484.3    4.866      36.740
2015    9        5    20  34    2.7419   484.3    4.856      36.680
2015    9        5    20  42    2.7350   484.3    4.846      36.620
2015    9        5    20  50    2.7282   484.2    4.837      36.560
2015    9        5    20  57    2.7214   484.2    4.827      36.500
2015    9        5    21   5    2.7147   484.2    4.817      36.441
2015    9        5    21  13    2.7081   484.1    4.807      36.381
2015    9        5    21  20    2.7014   484.1    4.798      36.322
2015    9        5    21  28    2.6949   484.1    4.788      36.262
2015    9        5    21  36    2.6883   484.0    4.779      36.203
2015    9        5    21  43    2.6818   484.0    4.769      36.143
2015    9        5    21  51    2.6754   484.0    4.760      36.083
2015    9        5    21  59    2.6690   483.9    4.750      36.022
2015    9        5    22   6    2.6627   483.9    4.741      35.961
2015    9        5    22  14    2.6563   483.8    4.732      35.900
2015    9        5    22  22    2.6501   483.8    4.722      35.839
2015    9        5    22  29    2.6438   483.7    4.713      35.776
2015    9        5    22  37    2.6376   483.7    4.704      35.715
2015    9        5    22  45    2.6315   483.6    4.694      35.653
2015    9        5    22  52    2.6254   483.6    4.685      35.591
2015    9        5    23   0    2.6193   483.5    4.676      35.528
2015    9        5    23   8    2.6133   483.4    4.666      35.465
2015    9        5    23  15    2.6074   483.4    4.657      35.402
2015    9        5    23  23    2.6015   483.3    4.648      35.340
2015    9        5    23  31    2.5956   483.2    4.639      35.276
2015    9        5    23  38    2.5898   483.1    4.630      35.213
2015    9        5    23  46    2.5840   483.1    4.621      35.150
2015    9        5    23  54    2.5782   483.0    4.612      35.087
2015    9        6     0   1    2.5725   482.9    4.603      35.023
