year    month   day   hour  minute  B_enl V_enl   n_enl       T_enl
[year] [month] [day] [hour][minute] [nT]  [km/s]  [cm-3]      [kK]
2015   10       28     0   6    2.3288   390.3    5.733      25.338
2015   10       28     0  13    2.3280   390.1    5.736      25.316
2015   10       28     0  20    2.3272   389.9    5.740      25.294
2015   10       28     0  27    2.3264   389.7    5.743      25.271
2015   10       28     0  35    2.3256   389.5    5.746      25.248
2015   10       28     0  42    2.3248   389.3    5.750      25.226
2015   10       28     0  49    2.3240   389.1    5.753      25.203
2015   10       28     0  56    2.3232   388.9    5.756      25.180
2015   10       28     1   3    2.3224   388.7    5.760      25.157
2015   10       28     1  11    2.3216   388.5    5.763      25.134
2015   10       28     1  18    2.3208   388.3    5.766      25.111
2015   10       28     1  25    2.3200   388.1    5.770      25.088
2015   10       28     1  32    2.3193   387.9    5.773      25.065
2015   10       28     1  39    2.3185   387.6    5.776      25.041
2015   10       28     1  47    2.3178   387.4    5.779      25.018
2015   10       28     1  54    2.3170   387.2    5.783      24.995
2015   10       28     2   1    2.3163   387.0    5.786      24.972
2015   10       28     2   8    2.3155   386.8    5.789      24.948
2015   10       28     2  16    2.3148   386.6    5.793      24.925
2015   10       28     2  23    2.3140   386.4    5.796      24.902
2015   10       28     2  30    2.3133   386.2    5.800      24.879
2015   10       28     2  37    2.3126   386.0    5.803      24.855
2015   10       28     2  44    2.3119   385.8    5.806      24.832
2015   10       28     2  52    2.3112   385.6    5.810      24.809
2015   10       28     2  59    2.3106   385.4    5.814      24.787
2015   10       28     3   6    2.3099   385.2    5.817      24.764
2015   10       28     3  13    2.3093   385.0    5.821      24.741
2015   10       28     3  20    2.3086   384.8    5.824      24.718
2015   10       28     3  28    2.3080   384.6    5.828      24.696
2015   10       28     3  35    2.3073   384.4    5.832      24.674
2015   10       28     3  42    2.3067   384.2    5.836      24.651
2015   10       28     3  49    2.3062   384.0    5.840      24.629
2015   10       28     3  56    2.3056   383.8    5.843      24.607
2015   10       28     4   4    2.3049   383.6    5.847      24.585
2015   10       28     4  11    2.3043   383.4    5.851      24.563
2015   10       28     4  18    2.3038   383.2    5.855      24.541
2015   10       28     4  25    2.3032   383.0    5.859      24.519
2015   10       28     4  32    2.3026   382.8    5.864      24.497
2015   10       28     4  39    2.3021   382.6    5.868      24.476
2015   10       28     4  46    2.3016   382.4    5.872      24.454
2015   10       28     4  54    2.3010   382.2    5.876      24.433
2015   10       28     5   1    2.3005   382.0    5.880      24.411
2015   10       28     5   8    2.3000   381.8    5.885      24.390
2015   10       28     5  15    2.2994   381.6    5.889      24.369
2015   10       28     5  22    2.2989   381.4    5.894      24.347
2015   10       28     5  30    2.2984   381.2    5.898      24.326
2015   10       28     5  37    2.2979   381.0    5.903      24.305
2015   10       28     5  44    2.2974   380.8    5.907      24.284
2015   10       28     5  51    2.2969   380.6    5.912      24.262
2015   10       28     5  58    2.2964   380.4    5.916      24.241
2015   10       28     6   5    2.2959   380.2    5.921      24.220
2015   10       28     6  13    2.2955   380.0    5.925      24.199
2015   10       28     6  20    2.2950   379.8    5.930      24.178
2015   10       28     6  27    2.2945   379.6    5.935      24.157
2015   10       28     6  34    2.2940   379.4    5.939      24.136
2015   10       28     6  41    2.2936   379.2    5.944      24.114
2015   10       28     6  48    2.2931   379.0    5.949      24.093
2015   10       28     6  56    2.2927   378.8    5.953      24.072
2015   10       28     7   3    2.2922   378.5    5.958      24.051
2015   10       28     7  10    2.2917   378.3    5.963      24.030
2015   10       28     7  17    2.2913   378.1    5.968      24.009
2015   10       28     7  24    2.2908   377.9    5.972      23.987
2015   10       28     7  32    2.2904   377.7    5.977      23.966
2015   10       28     7  39    2.2900   377.5    5.982      23.945
2015   10       28     7  46    2.2895   377.3    5.987      23.923
2015   10       28     7  53    2.2891   377.1    5.991      23.902
2015   10       28     8   0    2.2887   376.9    5.996      23.881
2015   10       28     8   8    2.2883   376.7    6.001      23.859
2015   10       28     8  15    2.2878   376.5    6.006      23.838
2015   10       28     8  22    2.2874   376.3    6.010      23.816
2015   10       28     8  29    2.2870   376.1    6.015      23.795
2015   10       28     8  37    2.2866   375.9    6.020      23.774
2015   10       28     8  44    2.2863   375.7    6.025      23.752
2015   10       28     8  51    2.2859   375.5    6.030      23.731
2015   10       28     8  58    2.2855   375.3    6.034      23.709
2015   10       28     9   5    2.2851   375.1    6.039      23.688
2015   10       28     9  13    2.2848   374.9    6.044      23.666
2015   10       28     9  20    2.2844   374.7    6.049      23.645
2015   10       28     9  27    2.2841   374.5    6.054      23.624
2015   10       28     9  34    2.2837   374.3    6.059      23.602
2015   10       28     9  42    2.2834   374.1    6.064      23.581
2015   10       28     9  49    2.2831   373.9    6.069      23.560
2015   10       28     9  56    2.2828   373.7    6.074      23.539
2015   10       28    10   3    2.2825   373.5    6.079      23.518
2015   10       28    10  10    2.2822   373.3    6.083      23.497
2015   10       28    10  18    2.2819   373.1    6.089      23.476
2015   10       28    10  25    2.2816   372.9    6.094      23.455
2015   10       28    10  32    2.2814   372.7    6.099      23.434
2015   10       28    10  39    2.2811   372.5    6.104      23.413
2015   10       28    10  46    2.2808   372.3    6.109      23.392
2015   10       28    10  54    2.2806   372.1    6.114      23.372
2015   10       28    11   1    2.2804   371.8    6.119      23.351
2015   10       28    11   8    2.2802   371.6    6.124      23.331
2015   10       28    11  15    2.2800   371.4    6.130      23.310
2015   10       28    11  22    2.2798   371.2    6.135      23.290
2015   10       28    11  29    2.2796   371.0    6.140      23.270
2015   10       28    11  37    2.2794   370.8    6.146      23.249
2015   10       28    11  44    2.2792   370.6    6.151      23.229
2015   10       28    11  51    2.2791   370.4    6.156      23.209
2015   10       28    11  58    2.2790   370.2    6.162      23.189
2015   10       28    12   5    2.2788   370.0    6.167      23.169
2015   10       28    12  12    2.2787   369.8    6.173      23.149
2015   10       28    12  20    2.2785   369.6    6.179      23.129
2015   10       28    12  27    2.2785   369.4    6.184      23.109
2015   10       28    12  34    2.2784   369.2    6.190      23.089
2015   10       28    12  41    2.2782   369.0    6.196      23.069
2015   10       28    12  48    2.2782   368.8    6.201      23.049
2015   10       28    12  55    2.2781   368.6    6.207      23.029
2015   10       28    13   3    2.2780   368.4    6.213      23.010
2015   10       28    13  10    2.2780   368.2    6.219      22.990
2015   10       28    13  17    2.2779   368.0    6.225      22.970
2015   10       28    13  24    2.2779   367.8    6.230      22.951
2015   10       28    13  31    2.2779   367.6    6.236      22.931
2015   10       28    13  39    2.2778   367.4    6.242      22.911
2015   10       28    13  46    2.2778   367.2    6.248      22.892
2015   10       28    13  53    2.2778   367.0    6.254      22.872
2015   10       28    14   0    2.2778   366.8    6.260      22.853
2015   10       28    14   7    2.2778   366.6    6.266      22.833
2015   10       28    14  14    2.2778   366.4    6.273      22.814
2015   10       28    14  22    2.2779   366.2    6.279      22.794
2015   10       28    14  29    2.2779   366.0    6.285      22.775
2015   10       28    14  36    2.2780   365.8    6.291      22.756
2015   10       28    14  43    2.2781   365.6    6.297      22.737
2015   10       28    14  50    2.2781   365.4    6.304      22.717
2015   10       28    14  58    2.2782   365.2    6.310      22.698
2015   10       28    15   5    2.2783   365.0    6.316      22.679
2015   10       28    15  12    2.2784   364.8    6.323      22.660
2015   10       28    15  19    2.2785   364.6    6.329      22.641
2015   10       28    15  26    2.2786   364.4    6.336      22.623
2015   10       28    15  34    2.2788   364.2    6.342      22.604
2015   10       28    15  41    2.2789   364.0    6.349      22.585
2015   10       28    15  48    2.2791   363.8    6.355      22.567
2015   10       28    15  55    2.2793   363.6    6.362      22.548
2015   10       28    16   3    2.2795   363.4    6.369      22.530
2015   10       28    16  10    2.2797   363.2    6.376      22.512
2015   10       28    16  17    2.2799   363.0    6.382      22.493
2015   10       28    16  24    2.2801   362.8    6.389      22.475
2015   10       28    16  31    2.2804   362.6    6.396      22.457
2015   10       28    16  39    2.2806   362.4    6.403      22.439
2015   10       28    16  46    2.2809   362.2    6.410      22.422
2015   10       28    16  53    2.2811   362.0    6.417      22.404
2015   10       28    17   0    2.2815   361.8    6.424      22.387
2015   10       28    17   8    2.2817   361.6    6.432      22.370
2015   10       28    17  15    2.2821   361.4    6.439      22.352
2015   10       28    17  22    2.2824   361.2    6.446      22.335
2015   10       28    17  29    2.2828   361.0    6.453      22.319
2015   10       28    17  36    2.2831   360.8    6.461      22.302
2015   10       28    17  44    2.2835   360.6    6.468      22.285
2015   10       28    17  51    2.2839   360.4    6.476      22.269
2015   10       28    17  58    2.2843   360.2    6.483      22.253
2015   10       28    18   5    2.2848   360.0    6.491      22.236
2015   10       28    18  12    2.2852   359.8    6.498      22.220
2015   10       28    18  20    2.2856   359.6    6.506      22.204
2015   10       28    18  27    2.2861   359.4    6.514      22.189
2015   10       28    18  34    2.2866   359.2    6.522      22.173
2015   10       28    18  41    2.2870   359.0    6.529      22.157
2015   10       28    18  48    2.2875   358.8    6.537      22.142
2015   10       28    18  55    2.2881   358.6    6.545      22.126
2015   10       28    19   3    2.2886   358.4    6.553      22.111
2015   10       28    19  10    2.2892   358.2    6.561      22.096
2015   10       28    19  17    2.2897   358.0    6.569      22.081
2015   10       28    19  24    2.2902   357.8    6.577      22.066
2015   10       28    19  31    2.2908   357.6    6.585      22.051
2015   10       28    19  38    2.2915   357.4    6.594      22.036
2015   10       28    19  46    2.2921   357.2    6.602      22.021
2015   10       28    19  53    2.2927   357.0    6.610      22.007
2015   10       28    20   0    2.2933   356.8    6.618      21.992
2015   10       28    20   7    2.2939   356.6    6.627      21.978
2015   10       28    20  14    2.2946   356.5    6.635      21.963
2015   10       28    20  21    2.2952   356.3    6.644      21.949
2015   10       28    20  29    2.2959   356.1    6.652      21.934
2015   10       28    20  36    2.2965   355.9    6.661      21.920
2015   10       28    20  43    2.2973   355.7    6.669      21.906
2015   10       28    20  50    2.2980   355.5    6.678      21.892
2015   10       28    20  57    2.2987   355.3    6.686      21.878
2015   10       28    21   4    2.2994   355.1    6.695      21.864
2015   10       28    21  12    2.3001   354.9    6.704      21.850
2015   10       28    21  19    2.3009   354.7    6.712      21.836
2015   10       28    21  26    2.3017   354.5    6.721      21.822
2015   10       28    21  33    2.3025   354.3    6.730      21.808
2015   10       28    21  40    2.3033   354.1    6.739      21.795
2015   10       28    21  48    2.3041   353.9    6.748      21.781
2015   10       28    21  55    2.3050   353.7    6.756      21.768
2015   10       28    22   2    2.3058   353.5    6.765      21.755
2015   10       28    22   9    2.3066   353.3    6.774      21.741
2015   10       28    22  16    2.3075   353.1    6.783      21.728
2015   10       28    22  24    2.3083   353.0    6.793      21.715
2015   10       28    22  31    2.3092   352.8    6.802      21.702
2015   10       28    22  38    2.3101   352.6    6.811      21.689
2015   10       28    22  45    2.3111   352.4    6.820      21.676
2015   10       28    22  52    2.3120   352.2    6.829      21.663
2015   10       28    23   0    2.3130   352.0    6.839      21.651
2015   10       28    23   7    2.3140   351.8    6.848      21.638
2015   10       28    23  14    2.3149   351.6    6.857      21.626
2015   10       28    23  21    2.3159   351.4    6.867      21.613
2015   10       28    23  29    2.3169   351.2    6.876      21.601
2015   10       28    23  36    2.3179   351.0    6.886      21.589
2015   10       28    23  43    2.3190   350.8    6.896      21.577
2015   10       28    23  50    2.3201   350.6    6.905      21.566
2015   10       28    23  58    2.3212   350.4    6.915      21.554
2015   10       29     0   5    2.3223   350.3    6.925      21.542
2015   10       29     0  12    2.3233   350.1    6.935      21.531
2015   10       29     0  19    2.3244   349.9    6.945      21.520
2015   10       29     0  26    2.3256   349.7    6.955      21.509
2015   10       29     0  34    2.3268   349.5    6.965      21.498
2015   10       29     0  41    2.3279   349.3    6.975      21.487
2015   10       29     0  48    2.3291   349.1    6.985      21.477
2015   10       29     0  55    2.3303   348.9    6.995      21.466
2015   10       29     1   2    2.3316   348.7    7.005      21.456
2015   10       29     1  10    2.3328   348.5    7.016      21.446
2015   10       29     1  17    2.3341   348.4    7.026      21.436
2015   10       29     1  24    2.3353   348.2    7.037      21.426
2015   10       29     1  31    2.3366   348.0    7.047      21.416
2015   10       29     1  38    2.3379   347.8    7.058      21.407
2015   10       29     1  45    2.3393   347.6    7.068      21.398
2015   10       29     1  53    2.3406   347.4    7.079      21.388
2015   10       29     2   0    2.3420   347.2    7.090      21.379
2015   10       29     2   7    2.3434   347.1    7.101      21.371
2015   10       29     2  14    2.3448   346.9    7.111      21.362
2015   10       29     2  21    2.3462   346.7    7.123      21.353
2015   10       29     2  28    2.3476   346.5    7.134      21.345
2015   10       29     2  36    2.3490   346.3    7.145      21.337
2015   10       29     2  43    2.3505   346.1    7.156      21.329
2015   10       29     2  50    2.3520   345.9    7.167      21.321
2015   10       29     2  57    2.3535   345.8    7.178      21.313
2015   10       29     3   4    2.3551   345.6    7.190      21.306
2015   10       29     3  11    2.3565   345.4    7.201      21.298
2015   10       29     3  19    2.3581   345.2    7.213      21.291
2015   10       29     3  26    2.3596   345.0    7.225      21.284
2015   10       29     3  33    2.3613   344.9    7.236      21.277
2015   10       29     3  40    2.3629   344.7    7.248      21.270
2015   10       29     3  47    2.3645   344.5    7.260      21.264
2015   10       29     3  55    2.3662   344.3    7.272      21.257
2015   10       29     4   2    2.3678   344.1    7.284      21.251
2015   10       29     4   9    2.3694   344.0    7.296      21.245
2015   10       29     4  16    2.3712   343.8    7.308      21.239
2015   10       29     4  23    2.3729   343.6    7.320      21.233
2015   10       29     4  30    2.3745   343.4    7.332      21.227
2015   10       29     4  38    2.3763   343.2    7.345      21.222
2015   10       29     4  45    2.3781   343.1    7.357      21.217
2015   10       29     4  52    2.3799   342.9    7.370      21.212
2015   10       29     4  59    2.3816   342.7    7.382      21.206
2015   10       29     5   6    2.3834   342.5    7.395      21.202
2015   10       29     5  14    2.3853   342.3    7.408      21.197
2015   10       29     5  21    2.3870   342.2    7.420      21.192
2015   10       29     5  28    2.3890   342.0    7.433      21.188
2015   10       29     5  35    2.3908   341.8    7.446      21.184
2015   10       29     5  42    2.3927   341.6    7.459      21.180
2015   10       29     5  50    2.3946   341.5    7.472      21.176
2015   10       29     5  57    2.3966   341.3    7.485      21.172
2015   10       29     6   4    2.3985   341.1    7.498      21.168
2015   10       29     6  11    2.4004   340.9    7.512      21.165
2015   10       29     6  19    2.4024   340.8    7.525      21.162
2015   10       29     6  26    2.4044   340.6    7.538      21.158
2015   10       29     6  33    2.4064   340.4    7.552      21.155
2015   10       29     6  40    2.4083   340.3    7.565      21.152
2015   10       29     6  47    2.4105   340.1    7.579      21.150
2015   10       29     6  55    2.4125   339.9    7.592      21.147
2015   10       29     7   2    2.4146   339.7    7.606      21.145
2015   10       29     7   9    2.4166   339.6    7.620      21.142
2015   10       29     7  16    2.4188   339.4    7.634      21.140
2015   10       29     7  24    2.4209   339.2    7.648      21.138
2015   10       29     7  31    2.4229   339.1    7.662      21.137
2015   10       29     7  38    2.4252   338.9    7.676      21.135
2015   10       29     7  45    2.4273   338.7    7.690      21.133
2015   10       29     7  52    2.4294   338.6    7.704      21.132
2015   10       29     8   0    2.4317   338.4    7.718      21.131
2015   10       29     8   7    2.4339   338.2    7.732      21.130
2015   10       29     8  14    2.4361   338.1    7.747      21.129
2015   10       29     8  21    2.4385   337.9    7.761      21.129
2015   10       29     8  28    2.4406   337.7    7.776      21.128
2015   10       29     8  36    2.4429   337.6    7.790      21.128
2015   10       29     8  43    2.4452   337.4    7.805      21.128
2015   10       29     8  50    2.4477   337.2    7.820      21.128
2015   10       29     8  57    2.4499   337.1    7.835      21.128
2015   10       29     9   4    2.4523   336.9    7.850      21.129
2015   10       29     9  11    2.4548   336.7    7.865      21.130
2015   10       29     9  19    2.4571   336.6    7.880      21.131
2015   10       29     9  26    2.4596   336.4    7.895      21.132
2015   10       29     9  33    2.4619   336.3    7.910      21.134
2015   10       29     9  40    2.4644   336.1    7.925      21.135
2015   10       29     9  47    2.4670   335.9    7.941      21.137
2015   10       29     9  54    2.4694   335.8    7.956      21.139
2015   10       29    10   2    2.4720   335.6    7.972      21.141
2015   10       29    10   9    2.4745   335.5    7.987      21.144
2015   10       29    10  16    2.4770   335.3    8.003      21.146
2015   10       29    10  23    2.4797   335.2    8.019      21.149
2015   10       29    10  30    2.4822   335.0    8.035      21.153
2015   10       29    10  37    2.4849   334.8    8.051      21.156
2015   10       29    10  45    2.4876   334.7    8.067      21.160
2015   10       29    10  52    2.4901   334.5    8.083      21.164
2015   10       29    10  59    2.4928   334.4    8.099      21.168
2015   10       29    11   6    2.4954   334.2    8.115      21.172
2015   10       29    11  13    2.4983   334.1    8.132      21.177
2015   10       29    11  20    2.5009   333.9    8.148      21.181
2015   10       29    11  28    2.5037   333.8    8.164      21.186
2015   10       29    11  35    2.5064   333.6    8.181      21.192
2015   10       29    11  42    2.5092   333.5    8.197      21.197
2015   10       29    11  49    2.5120   333.4    8.214      21.203
2015   10       29    11  56    2.5149   333.2    8.231      21.209
2015   10       29    12   3    2.5176   333.1    8.247      21.215
2015   10       29    12  11    2.5204   332.9    8.264      21.221
2015   10       29    12  18    2.5234   332.8    8.281      21.227
2015   10       29    12  25    2.5262   332.6    8.298      21.234
2015   10       29    12  32    2.5291   332.5    8.315      21.241
2015   10       29    12  39    2.5319   332.3    8.332      21.248
2015   10       29    12  46    2.5350   332.2    8.349      21.256
2015   10       29    12  54    2.5378   332.1    8.366      21.263
2015   10       29    13   1    2.5408   331.9    8.383      21.271
2015   10       29    13   8    2.5438   331.8    8.400      21.279
2015   10       29    13  15    2.5467   331.7    8.417      21.287
2015   10       29    13  22    2.5498   331.5    8.435      21.296
2015   10       29    13  30    2.5528   331.4    8.452      21.304
2015   10       29    13  37    2.5557   331.2    8.469      21.313
2015   10       29    13  44    2.5588   331.1    8.487      21.322
2015   10       29    13  51    2.5618   331.0    8.504      21.331
2015   10       29    13  58    2.5648   330.8    8.522      21.341
2015   10       29    14   5    2.5680   330.7    8.539      21.350
2015   10       29    14  13    2.5711   330.6    8.557      21.360
2015   10       29    14  20    2.5742   330.4    8.575      21.370
2015   10       29    14  27    2.5773   330.3    8.592      21.380
2015   10       29    14  34    2.5803   330.2    8.610      21.390
2015   10       29    14  41    2.5834   330.1    8.628      21.401
2015   10       29    14  48    2.5866   329.9    8.646      21.411
2015   10       29    14  56    2.5897   329.8    8.663      21.422
2015   10       29    15   3    2.5930   329.7    8.681      21.433
2015   10       29    15  10    2.5961   329.5    8.699      21.444
2015   10       29    15  17    2.5994   329.4    8.717      21.456
2015   10       29    15  24    2.6026   329.3    8.735      21.467
2015   10       29    15  31    2.6057   329.2    8.754      21.479
2015   10       29    15  39    2.6090   329.1    8.772      21.491
2015   10       29    15  46    2.6122   328.9    8.790      21.503
2015   10       29    15  53    2.6155   328.8    8.809      21.515
2015   10       29    16   0    2.6187   328.7    8.827      21.527
2015   10       29    16   7    2.6220   328.6    8.845      21.540
2015   10       29    16  14    2.6254   328.4    8.864      21.553
2015   10       29    16  22    2.6288   328.3    8.883      21.566
2015   10       29    16  29    2.6320   328.2    8.901      21.579
2015   10       29    16  36    2.6353   328.1    8.920      21.592
2015   10       29    16  43    2.6387   328.0    8.939      21.605
2015   10       29    16  50    2.6421   327.9    8.958      21.619
2015   10       29    16  57    2.6455   327.8    8.976      21.633
2015   10       29    17   5    2.6488   327.6    8.995      21.646
2015   10       29    17  12    2.6522   327.5    9.014      21.661
2015   10       29    17  19    2.6557   327.4    9.033      21.675
2015   10       29    17  26    2.6592   327.3    9.052      21.689
2015   10       29    17  33    2.6625   327.2    9.071      21.704
2015   10       29    17  40    2.6660   327.1    9.091      21.718
2015   10       29    17  47    2.6694   327.0    9.110      21.733
2015   10       29    17  55    2.6729   326.9    9.129      21.748
2015   10       29    18   2    2.6764   326.8    9.148      21.763
2015   10       29    18   9    2.6799   326.7    9.167      21.778
2015   10       29    18  16    2.6833   326.5    9.186      21.793
2015   10       29    18  23    2.6869   326.4    9.206      21.808
2015   10       29    18  30    2.6904   326.3    9.225      21.823
2015   10       29    18  38    2.6940   326.2    9.244      21.839
2015   10       29    18  45    2.6974   326.1    9.263      21.854
2015   10       29    18  52    2.7010   326.0    9.283      21.870
2015   10       29    18  59    2.7045   325.9    9.302      21.886
2015   10       29    19   6    2.7082   325.8    9.322      21.901
2015   10       29    19  13    2.7117   325.7    9.341      21.917
2015   10       29    19  21    2.7153   325.6    9.361      21.933
2015   10       29    19  28    2.7189   325.5    9.380      21.950
2015   10       29    19  35    2.7226   325.4    9.400      21.966
2015   10       29    19  42    2.7262   325.3    9.419      21.983
2015   10       29    19  49    2.7298   325.3    9.439      22.000
2015   10       29    19  57    2.7334   325.2    9.458      22.017
2015   10       29    20   4    2.7372   325.1    9.478      22.034
2015   10       29    20  11    2.7408   325.0    9.497      22.052
2015   10       29    20  18    2.7445   324.9    9.516      22.070
2015   10       29    20  25    2.7482   324.8    9.535      22.088
2015   10       29    20  32    2.7519   324.7    9.554      22.106
2015   10       29    20  40    2.7555   324.6    9.573      22.124
2015   10       29    20  47    2.7592   324.5    9.592      22.143
2015   10       29    20  54    2.7629   324.5    9.611      22.162
2015   10       29    21   1    2.7666   324.4    9.630      22.181
2015   10       29    21   8    2.7702   324.3    9.648      22.200
2015   10       29    21  16    2.7738   324.2    9.667      22.219
2015   10       29    21  23    2.7774   324.1    9.685      22.238
2015   10       29    21  30    2.7811   324.1    9.703      22.258
2015   10       29    21  37    2.7847   324.0    9.722      22.277
2015   10       29    21  44    2.7884   323.9    9.740      22.296
2015   10       29    21  51    2.7920   323.8    9.758      22.315
2015   10       29    21  59    2.7956   323.7    9.775      22.334
2015   10       29    22   6    2.7992   323.7    9.793      22.354
2015   10       29    22  13    2.8029   323.6    9.811      22.373
2015   10       29    22  20    2.8065   323.5    9.828      22.392
2015   10       29    22  27    2.8101   323.4    9.846      22.411
2015   10       29    22  34    2.8137   323.4    9.863      22.430
2015   10       29    22  42    2.8173   323.3    9.880      22.449
2015   10       29    22  49    2.8209   323.2    9.898      22.468
2015   10       29    22  56    2.8244   323.1    9.915      22.488
2015   10       29    23   3    2.8280   323.1    9.932      22.507
2015   10       29    23  10    2.8316   323.0    9.949      22.526
2015   10       29    23  17    2.8351   322.9    9.966      22.545
2015   10       29    23  24    2.8388   322.9    9.982      22.564
2015   10       29    23  32    2.8423   322.8    9.999      22.583
2015   10       29    23  39    2.8458   322.7   10.016      22.602
2015   10       29    23  46    2.8494   322.7   10.033      22.620
2015   10       29    23  53    2.8530   322.6   10.049      22.639
2015   10       30     0   0    2.8565   322.5   10.066      22.658
2015   10       30     0   7    2.8601   322.4   10.082      22.677
2015   10       30     0  15    2.8636   322.4   10.099      22.695
2015   10       30     0  22    2.8672   322.3   10.115      22.714
2015   10       30     0  29    2.8707   322.2   10.131      22.733
2015   10       30     0  36    2.8742   322.2   10.147      22.751
2015   10       30     0  43    2.8778   322.1   10.164      22.769
2015   10       30     0  50    2.8813   322.1   10.180      22.788
2015   10       30     0  58    2.8848   322.0   10.196      22.806
2015   10       30     1   5    2.8883   321.9   10.212      22.824
2015   10       30     1  12    2.8919   321.9   10.228      22.842
2015   10       30     1  19    2.8954   321.8   10.244      22.860
2015   10       30     1  26    2.8989   321.7   10.259      22.878
2015   10       30     1  33    2.9024   321.7   10.275      22.895
2015   10       30     1  41    2.9059   321.6   10.291      22.913
2015   10       30     1  48    2.9094   321.6   10.307      22.930
2015   10       30     1  55    2.9129   321.5   10.322      22.948
2015   10       30     2   2    2.9164   321.4   10.338      22.965
2015   10       30     2   9    2.9199   321.4   10.354      22.982
2015   10       30     2  17    2.9234   321.3   10.369      22.999
2015   10       30     2  24    2.9269   321.3   10.385      23.016
2015   10       30     2  31    2.9305   321.2   10.400      23.033
2015   10       30     2  38    2.9339   321.1   10.416      23.049
2015   10       30     2  45    2.9375   321.1   10.432      23.066
2015   10       30     2  52    2.9410   321.0   10.447      23.083
2015   10       30     3   0    2.9446   321.0   10.463      23.099
2015   10       30     3   7    2.9480   320.9   10.478      23.116
2015   10       30     3  14    2.9516   320.9   10.494      23.133
2015   10       30     3  21    2.9552   320.8   10.509      23.150
2015   10       30     3  29    2.9587   320.8   10.525      23.167
2015   10       30     3  36    2.9622   320.7   10.540      23.185
2015   10       30     3  43    2.9658   320.7   10.556      23.202
2015   10       30     3  50    2.9693   320.6   10.571      23.220
2015   10       30     3  57    2.9728   320.6   10.586      23.237
2015   10       30     4   5    2.9763   320.5   10.601      23.255
2015   10       30     4  12    2.9798   320.5   10.616      23.273
2015   10       30     4  19    2.9834   320.4   10.631      23.291
2015   10       30     4  26    2.9869   320.4   10.646      23.308
2015   10       30     4  34    2.9904   320.3   10.661      23.326
2015   10       30     4  41    2.9939   320.3   10.676      23.345
2015   10       30     4  48    2.9974   320.2   10.691      23.363
2015   10       30     4  55    3.0009   320.2   10.706      23.381
2015   10       30     5   2    3.0044   320.1   10.721      23.399
2015   10       30     5  10    3.0079   320.1   10.736      23.417
2015   10       30     5  17    3.0114   320.0   10.751      23.435
2015   10       30     5  24    3.0148   320.0   10.766      23.453
2015   10       30     5  31    3.0183   320.0   10.781      23.472
2015   10       30     5  39    3.0218   319.9   10.795      23.491
2015   10       30     5  46    3.0252   319.9   10.810      23.509
2015   10       30     5  53    3.0287   319.8   10.825      23.529
2015   10       30     6   0    3.0320   319.8   10.839      23.548
2015   10       30     6   8    3.0354   319.8   10.853      23.567
2015   10       30     6  15    3.0388   319.7   10.867      23.587
2015   10       30     6  22    3.0422   319.7   10.881      23.607
2015   10       30     6  29    3.0455   319.7   10.895      23.626
2015   10       30     6  36    3.0488   319.6   10.909      23.646
2015   10       30     6  44    3.0521   319.6   10.922      23.665
2015   10       30     6  51    3.0554   319.5   10.935      23.685
2015   10       30     6  58    3.0586   319.5   10.948      23.704
2015   10       30     7   5    3.0619   319.5   10.961      23.724
2015   10       30     7  12    3.0650   319.4   10.973      23.743
2015   10       30     7  19    3.0682   319.4   10.986      23.762
2015   10       30     7  27    3.0714   319.4   10.998      23.782
2015   10       30     7  34    3.0745   319.4   11.010      23.800
2015   10       30     7  41    3.0776   319.3   11.021      23.819
2015   10       30     7  48    3.0807   319.3   11.033      23.837
2015   10       30     7  55    3.0838   319.3   11.044      23.854
2015   10       30     8   3    3.0868   319.2   11.056      23.872
2015   10       30     8  10    3.0898   319.2   11.067      23.889
2015   10       30     8  17    3.0929   319.2   11.078      23.906
2015   10       30     8  24    3.0959   319.1   11.088      23.923
2015   10       30     8  31    3.0989   319.1   11.099      23.939
2015   10       30     8  38    3.1019   319.1   11.110      23.955
2015   10       30     8  46    3.1048   319.0   11.120      23.971
2015   10       30     8  53    3.1078   319.0   11.130      23.987
2015   10       30     9   0    3.1107   319.0   11.140      24.002
2015   10       30     9   7    3.1136   319.0   11.150      24.017
2015   10       30     9  14    3.1166   318.9   11.160      24.032
2015   10       30     9  21    3.1195   318.9   11.170      24.046
2015   10       30     9  29    3.1223   318.9   11.179      24.061
2015   10       30     9  36    3.1252   318.8   11.189      24.075
2015   10       30     9  43    3.1281   318.8   11.198      24.089
2015   10       30     9  50    3.1309   318.8   11.208      24.102
2015   10       30     9  57    3.1338   318.8   11.217      24.116
2015   10       30    10   5    3.1366   318.7   11.226      24.129
2015   10       30    10  12    3.1395   318.7   11.235      24.142
2015   10       30    10  19    3.1423   318.7   11.244      24.155
2015   10       30    10  26    3.1451   318.6   11.253      24.168
2015   10       30    10  33    3.1478   318.6   11.262      24.181
2015   10       30    10  41    3.1506   318.6   11.271      24.193
2015   10       30    10  48    3.1534   318.6   11.280      24.205
2015   10       30    10  55    3.1563   318.5   11.289      24.218
2015   10       30    11   2    3.1590   318.5   11.298      24.230
2015   10       30    11   9    3.1618   318.5   11.307      24.241
2015   10       30    11  17    3.1646   318.5   11.315      24.253
2015   10       30    11  24    3.1674   318.4   11.324      24.265
2015   10       30    11  31    3.1702   318.4   11.333      24.276
2015   10       30    11  38    3.1729   318.4   11.342      24.288
2015   10       30    11  46    3.1757   318.4   11.351      24.299
2015   10       30    11  53    3.1785   318.3   11.360      24.311
2015   10       30    12   0    3.1813   318.3   11.369      24.322
2015   10       30    12   7    3.1841   318.3   11.378      24.333
2015   10       30    12  14    3.1870   318.3   11.387      24.345
2015   10       30    12  22    3.1898   318.2   11.396      24.356
2015   10       30    12  29    3.1925   318.2   11.406      24.367
2015   10       30    12  36    3.1953   318.2   11.415      24.379
2015   10       30    12  43    3.1982   318.2   11.425      24.390
2015   10       30    12  51    3.2010   318.1   11.434      24.402
2015   10       30    12  58    3.2038   318.1   11.444      24.414
2015   10       30    13   5    3.2066   318.1   11.453      24.426
2015   10       30    13  12    3.2094   318.1   11.463      24.439
2015   10       30    13  19    3.2121   318.1   11.473      24.451
2015   10       30    13  27    3.2149   318.0   11.482      24.464
2015   10       30    13  34    3.2177   318.0   11.492      24.478
2015   10       30    13  41    3.2204   318.0   11.501      24.491
2015   10       30    13  48    3.2231   318.0   11.511      24.505
2015   10       30    13  55    3.2259   318.0   11.521      24.518
2015   10       30    14   3    3.2286   318.0   11.530      24.532
2015   10       30    14  10    3.2312   317.9   11.539      24.546
2015   10       30    14  17    3.2339   317.9   11.549      24.560
2015   10       30    14  24    3.2365   317.9   11.558      24.575
2015   10       30    14  31    3.2391   317.9   11.567      24.589
2015   10       30    14  39    3.2416   317.9   11.575      24.604
2015   10       30    14  46    3.2441   317.9   11.584      24.618
2015   10       30    14  53    3.2465   317.9   11.592      24.633
2015   10       30    15   0    3.2491   317.9   11.601      24.648
2015   10       30    15   7    3.2514   317.9   11.609      24.662
2015   10       30    15  14    3.2539   317.9   11.616      24.676
2015   10       30    15  22    3.2562   317.8   11.624      24.690
2015   10       30    15  29    3.2586   317.8   11.632      24.704
2015   10       30    15  36    3.2609   317.8   11.639      24.718
2015   10       30    15  43    3.2633   317.8   11.646      24.731
2015   10       30    15  50    3.2656   317.8   11.653      24.745
2015   10       30    15  57    3.2678   317.8   11.660      24.758
2015   10       30    16   5    3.2702   317.8   11.666      24.771
2015   10       30    16  12    3.2724   317.8   11.673      24.783
2015   10       30    16  19    3.2746   317.8   11.679      24.795
2015   10       30    16  26    3.2768   317.8   11.685      24.807
2015   10       30    16  33    3.2789   317.8   11.691      24.819
2015   10       30    16  41    3.2811   317.8   11.697      24.830
2015   10       30    16  48    3.2833   317.8   11.703      24.841
2015   10       30    16  55    3.2854   317.8   11.708      24.852
2015   10       30    17   2    3.2875   317.8   11.714      24.862
2015   10       30    17   9    3.2896   317.8   11.719      24.873
2015   10       30    17  16    3.2917   317.8   11.724      24.883
2015   10       30    17  24    3.2937   317.7   11.729      24.893
2015   10       30    17  31    3.2958   317.7   11.734      24.902
2015   10       30    17  38    3.2978   317.7   11.739      24.912
2015   10       30    17  45    3.2999   317.7   11.744      24.921
2015   10       30    17  52    3.3019   317.7   11.749      24.930
2015   10       30    18   0    3.3039   317.7   11.753      24.938
2015   10       30    18   7    3.3060   317.7   11.758      24.947
2015   10       30    18  14    3.3080   317.7   11.762      24.955
2015   10       30    18  21    3.3100   317.7   11.767      24.964
2015   10       30    18  29    3.3119   317.7   11.771      24.972
2015   10       30    18  36    3.3139   317.7   11.775      24.980
2015   10       30    18  43    3.3158   317.7   11.780      24.987
2015   10       30    18  50    3.3179   317.7   11.784      24.995
2015   10       30    18  57    3.3197   317.7   11.788      25.002
2015   10       30    19   5    3.3217   317.7   11.792      25.009
2015   10       30    19  12    3.3237   317.7   11.796      25.017
2015   10       30    19  19    3.3257   317.7   11.800      25.024
2015   10       30    19  26    3.3276   317.7   11.804      25.031
2015   10       30    19  34    3.3295   317.7   11.808      25.037
2015   10       30    19  41    3.3315   317.7   11.812      25.044
2015   10       30    19  48    3.3334   317.7   11.816      25.051
2015   10       30    19  55    3.3352   317.7   11.819      25.058
2015   10       30    20   2    3.3372   317.7   11.823      25.064
2015   10       30    20  10    3.3390   317.7   11.827      25.071
2015   10       30    20  17    3.3409   317.7   11.831      25.077
2015   10       30    20  24    3.3428   317.7   11.835      25.084
2015   10       30    20  31    3.3448   317.7   11.839      25.091
2015   10       30    20  38    3.3466   317.6   11.842      25.097
2015   10       30    20  46    3.3485   317.6   11.846      25.104
2015   10       30    20  53    3.3502   317.6   11.850      25.111
2015   10       30    21   0    3.3521   317.6   11.854      25.118
2015   10       30    21   7    3.3540   317.6   11.858      25.125
2015   10       30    21  14    3.3558   317.6   11.862      25.132
2015   10       30    21  22    3.3575   317.6   11.866      25.139
2015   10       30    21  29    3.3593   317.6   11.870      25.146
2015   10       30    21  36    3.3611   317.6   11.874      25.153
2015   10       30    21  43    3.3628   317.7   11.877      25.161
2015   10       30    21  50    3.3644   317.7   11.881      25.168
2015   10       30    21  58    3.3662   317.7   11.885      25.176
2015   10       30    22   5    3.3679   317.7   11.889      25.183
2015   10       30    22  12    3.3694   317.7   11.893      25.191
2015   10       30    22  19    3.3711   317.7   11.896      25.199
2015   10       30    22  26    3.3727   317.7   11.900      25.206
2015   10       30    22  33    3.3742   317.7   11.903      25.214
2015   10       30    22  41    3.3758   317.7   11.906      25.222
2015   10       30    22  48    3.3773   317.7   11.910      25.230
2015   10       30    22  55    3.3788   317.7   11.913      25.237
2015   10       30    23   2    3.3804   317.7   11.916      25.245
2015   10       30    23   9    3.3818   317.7   11.919      25.252
2015   10       30    23  16    3.3832   317.7   11.921      25.259
2015   10       30    23  24    3.3846   317.7   11.924      25.266
2015   10       30    23  31    3.3860   317.7   11.926      25.273
2015   10       30    23  38    3.3874   317.7   11.929      25.280
2015   10       30    23  45    3.3889   317.7   11.931      25.286
2015   10       30    23  52    3.3901   317.8   11.933      25.293
2015   10       31     0   0    3.3915   317.8   11.935      25.299
2015   10       31     0   7    3.3928   317.8   11.936      25.304
2015   10       31     0  14    3.3942   317.8   11.938      25.310
2015   10       31     0  21    3.3954   317.8   11.940      25.315
2015   10       31     0  28    3.3967   317.8   11.941      25.320
2015   10       31     0  35    3.3980   317.8   11.942      25.325
2015   10       31     0  43    3.3992   317.8   11.944      25.330
2015   10       31     0  50    3.4004   317.8   11.945      25.334
2015   10       31     0  57    3.4017   317.8   11.946      25.339
2015   10       31     1   4    3.4030   317.8   11.947      25.343
2015   10       31     1  11    3.4042   317.8   11.948      25.347
2015   10       31     1  19    3.4054   317.8   11.949      25.351
2015   10       31     1  26    3.4065   317.8   11.950      25.354
2015   10       31     1  33    3.4077   317.8   11.950      25.358
2015   10       31     1  40    3.4090   317.8   11.951      25.361
2015   10       31     1  47    3.4101   317.9   11.952      25.364
2015   10       31     1  55    3.4113   317.9   11.952      25.367
2015   10       31     2   2    3.4125   317.9   11.953      25.370
2015   10       31     2   9    3.4137   317.9   11.953      25.372
2015   10       31     2  16    3.4148   317.9   11.954      25.375
2015   10       31     2  24    3.4160   317.9   11.954      25.377
2015   10       31     2  31    3.4171   317.9   11.954      25.380
2015   10       31     2  38    3.4183   317.9   11.954      25.382
2015   10       31     2  45    3.4194   317.9   11.954      25.384
2015   10       31     2  52    3.4206   317.9   11.955      25.386
2015   10       31     3   0    3.4216   317.9   11.955      25.388
2015   10       31     3   7    3.4228   317.9   11.955      25.390
2015   10       31     3  14    3.4239   317.9   11.955      25.391
2015   10       31     3  21    3.4250   317.9   11.955      25.393
2015   10       31     3  29    3.4261   317.9   11.955      25.394
2015   10       31     3  36    3.4272   317.9   11.955      25.396
2015   10       31     3  43    3.4283   317.9   11.955      25.397
2015   10       31     3  50    3.4294   317.9   11.955      25.399
2015   10       31     3  57    3.4305   317.9   11.955      25.401
2015   10       31     4   5    3.4316   317.9   11.955      25.402
2015   10       31     4  12    3.4326   317.9   11.954      25.404
2015   10       31     4  19    3.4336   317.9   11.954      25.405
2015   10       31     4  26    3.4347   318.0   11.954      25.407
2015   10       31     4  33    3.4358   318.0   11.954      25.409
2015   10       31     4  41    3.4368   318.0   11.954      25.410
2015   10       31     4  48    3.4377   318.0   11.953      25.412
2015   10       31     4  55    3.4388   318.0   11.953      25.413
2015   10       31     5   2    3.4398   318.0   11.953      25.415
2015   10       31     5   9    3.4408   318.0   11.952      25.416
2015   10       31     5  16    3.4417   318.0   11.952      25.418
2015   10       31     5  24    3.4427   318.0   11.951      25.419
2015   10       31     5  31    3.4437   318.0   11.951      25.421
2015   10       31     5  38    3.4446   318.0   11.950      25.422
2015   10       31     5  45    3.4455   318.0   11.950      25.424
2015   10       31     5  52    3.4465   318.0   11.949      25.425
2015   10       31     5  59    3.4473   318.0   11.948      25.426
2015   10       31     6   7    3.4482   318.0   11.947      25.427
2015   10       31     6  14    3.4491   318.0   11.946      25.428
2015   10       31     6  21    3.4500   318.0   11.946      25.429
2015   10       31     6  28    3.4508   318.0   11.944      25.430
2015   10       31     6  35    3.4517   318.0   11.943      25.430
2015   10       31     6  42    3.4526   318.0   11.942      25.431
2015   10       31     6  50    3.4533   318.0   11.941      25.431
2015   10       31     6  57    3.4542   318.1   11.940      25.432
2015   10       31     7   4    3.4550   318.1   11.938      25.432
2015   10       31     7  11    3.4558   318.1   11.937      25.432
2015   10       31     7  18    3.4566   318.1   11.935      25.432
2015   10       31     7  25    3.4573   318.1   11.934      25.432
2015   10       31     7  33    3.4581   318.1   11.932      25.431
2015   10       31     7  40    3.4589   318.1   11.930      25.431
2015   10       31     7  47    3.4597   318.1   11.928      25.430
2015   10       31     7  54    3.4604   318.1   11.927      25.429
2015   10       31     8   1    3.4612   318.1   11.925      25.428
2015   10       31     8   9    3.4619   318.1   11.923      25.427
2015   10       31     8  16    3.4626   318.1   11.921      25.426
2015   10       31     8  23    3.4633   318.1   11.919      25.424
2015   10       31     8  30    3.4641   318.1   11.917      25.423
2015   10       31     8  37    3.4648   318.1   11.914      25.421
2015   10       31     8  45    3.4655   318.1   11.912      25.419
2015   10       31     8  52    3.4662   318.1   11.910      25.417
2015   10       31     8  59    3.4670   318.1   11.908      25.415
2015   10       31     9   6    3.4676   318.1   11.906      25.413
2015   10       31     9  13    3.4684   318.1   11.903      25.411
2015   10       31     9  21    3.4691   318.1   11.901      25.409
2015   10       31     9  28    3.4698   318.1   11.899      25.407
2015   10       31     9  35    3.4705   318.1   11.897      25.404
2015   10       31     9  42    3.4711   318.1   11.894      25.402
2015   10       31     9  50    3.4718   318.1   11.892      25.399
2015   10       31     9  57    3.4725   318.1   11.890      25.396
2015   10       31    10   4    3.4732   318.1   11.887      25.394
2015   10       31    10  11    3.4739   318.1   11.885      25.391
2015   10       31    10  18    3.4745   318.1   11.882      25.388
2015   10       31    10  26    3.4752   318.1   11.880      25.385
2015   10       31    10  33    3.4759   318.1   11.877      25.382
2015   10       31    10  40    3.4766   318.1   11.875      25.379
2015   10       31    10  47    3.4772   318.1   11.873      25.376
2015   10       31    10  54    3.4779   318.1   11.870      25.372
2015   10       31    11   2    3.4786   318.1   11.868      25.369
2015   10       31    11   9    3.4792   318.1   11.865      25.366
2015   10       31    11  16    3.4799   318.1   11.863      25.363
2015   10       31    11  23    3.4806   318.1   11.860      25.359
2015   10       31    11  30    3.4812   318.1   11.858      25.356
2015   10       31    11  38    3.4819   318.1   11.856      25.353
2015   10       31    11  45    3.4826   318.1   11.853      25.349
2015   10       31    11  52    3.4832   318.1   11.851      25.346
2015   10       31    11  59    3.4839   318.1   11.848      25.342
2015   10       31    12   6    3.4845   318.1   11.846      25.338
2015   10       31    12  14    3.4852   318.1   11.844      25.335
2015   10       31    12  21    3.4859   318.1   11.841      25.331
2015   10       31    12  28    3.4865   318.1   11.839      25.328
2015   10       31    12  35    3.4872   318.1   11.837      25.324
2015   10       31    12  42    3.4878   318.1   11.834      25.320
2015   10       31    12  49    3.4885   318.1   11.832      25.317
2015   10       31    12  57    3.4892   318.1   11.830      25.313
2015   10       31    13   4    3.4898   318.1   11.828      25.309
2015   10       31    13  11    3.4905   318.1   11.825      25.305
2015   10       31    13  18    3.4911   318.1   11.823      25.302
2015   10       31    13  25    3.4918   318.1   11.821      25.298
2015   10       31    13  32    3.4924   318.1   11.819      25.294
2015   10       31    13  40    3.4931   318.0   11.816      25.291
2015   10       31    13  47    3.4937   318.0   11.814      25.287
2015   10       31    13  54    3.4944   318.0   11.812      25.283
2015   10       31    14   1    3.4950   318.0   11.810      25.279
2015   10       31    14   8    3.4957   318.0   11.807      25.276
2015   10       31    14  15    3.4963   318.0   11.805      25.272
2015   10       31    14  23    3.4970   318.0   11.803      25.268
2015   10       31    14  30    3.4976   318.0   11.801      25.264
2015   10       31    14  37    3.4983   318.0   11.798      25.261
2015   10       31    14  44    3.4989   318.0   11.796      25.257
2015   10       31    14  51    3.4995   318.0   11.794      25.253
2015   10       31    14  59    3.5002   318.0   11.792      25.249
2015   10       31    15   6    3.5008   318.0   11.790      25.245
2015   10       31    15  13    3.5014   318.0   11.787      25.241
2015   10       31    15  20    3.5021   318.0   11.785      25.237
2015   10       31    15  27    3.5027   318.0   11.783      25.233
2015   10       31    15  34    3.5034   318.0   11.781      25.229
2015   10       31    15  42    3.5040   318.0   11.779      25.225
2015   10       31    15  49    3.5046   317.9   11.777      25.221
2015   10       31    15  56    3.5053   317.9   11.775      25.217
2015   10       31    16   3    3.5059   317.9   11.773      25.213
2015   10       31    16  10    3.5065   317.9   11.771      25.209
2015   10       31    16  18    3.5072   317.9   11.769      25.205
2015   10       31    16  25    3.5078   317.9   11.767      25.201
2015   10       31    16  32    3.5085   317.9   11.765      25.198
2015   10       31    16  39    3.5091   317.9   11.763      25.194
2015   10       31    16  46    3.5098   317.9   11.761      25.190
2015   10       31    16  54    3.5104   317.9   11.759      25.186
2015   10       31    17   1    3.5111   317.9   11.757      25.182
2015   10       31    17   8    3.5118   317.9   11.755      25.178
2015   10       31    17  15    3.5124   317.9   11.754      25.174
2015   10       31    17  23    3.5131   317.9   11.752      25.170
2015   10       31    17  30    3.5138   317.8   11.750      25.166
2015   10       31    17  37    3.5145   317.8   11.748      25.163
2015   10       31    17  44    3.5151   317.8   11.747      25.159
2015   10       31    17  51    3.5158   317.8   11.745      25.155
2015   10       31    17  59    3.5165   317.8   11.744      25.152
2015   10       31    18   6    3.5172   317.8   11.742      25.148
2015   10       31    18  13    3.5179   317.8   11.741      25.144
2015   10       31    18  20    3.5186   317.8   11.739      25.141
2015   10       31    18  27    3.5193   317.8   11.738      25.137
2015   10       31    18  35    3.5200   317.8   11.736      25.133
2015   10       31    18  42    3.5208   317.8   11.735      25.130
2015   10       31    18  49    3.5215   317.7   11.733      25.126
2015   10       31    18  56    3.5222   317.7   11.732      25.123
2015   10       31    19   3    3.5229   317.7   11.731      25.119
2015   10       31    19  10    3.5237   317.7   11.730      25.116
2015   10       31    19  18    3.5244   317.7   11.728      25.112
2015   10       31    19  25    3.5252   317.7   11.727      25.109
2015   10       31    19  32    3.5260   317.7   11.726      25.105
2015   10       31    19  39    3.5268   317.7   11.725      25.102
2015   10       31    19  46    3.5276   317.7   11.724      25.099
2015   10       31    19  54    3.5283   317.7   11.723      25.095
2015   10       31    20   1    3.5291   317.6   11.722      25.092
2015   10       31    20   8    3.5299   317.6   11.721      25.088
2015   10       31    20  15    3.5308   317.6   11.720      25.085
2015   10       31    20  22    3.5316   317.6   11.719      25.082
2015   10       31    20  29    3.5324   317.6   11.718      25.078
2015   10       31    20  37    3.5333   317.6   11.718      25.075
2015   10       31    20  44    3.5341   317.6   11.717      25.072
2015   10       31    20  51    3.5350   317.6   11.716      25.069
2015   10       31    20  58    3.5359   317.6   11.716      25.066
2015   10       31    21   5    3.5368   317.5   11.715      25.063
2015   10       31    21  12    3.5376   317.5   11.715      25.059
2015   10       31    21  20    3.5385   317.5   11.714      25.056
2015   10       31    21  27    3.5395   317.5   11.714      25.053
2015   10       31    21  34    3.5404   317.5   11.713      25.050
2015   10       31    21  41    3.5413   317.5   11.713      25.047
2015   10       31    21  48    3.5423   317.5   11.713      25.044
2015   10       31    21  55    3.5432   317.5   11.713      25.042
2015   10       31    22   3    3.5442   317.4   11.712      25.039
2015   10       31    22  10    3.5452   317.4   11.712      25.036
2015   10       31    22  17    3.5462   317.4   11.712      25.033
2015   10       31    22  24    3.5472   317.4   11.712      25.031
2015   10       31    22  31    3.5482   317.4   11.713      25.028
2015   10       31    22  39    3.5492   317.4   11.713      25.026
2015   10       31    22  46    3.5503   317.4   11.713      25.023
2015   10       31    22  53    3.5513   317.4   11.713      25.021
2015   10       31    23   0    3.5524   317.3   11.714      25.018
2015   10       31    23   7    3.5535   317.3   11.714      25.016
2015   10       31    23  15    3.5546   317.3   11.715      25.014
2015   10       31    23  22    3.5557   317.3   11.715      25.012
2015   10       31    23  29    3.5568   317.3   11.716      25.010
2015   10       31    23  36    3.5579   317.3   11.717      25.008
2015   10       31    23  43    3.5591   317.3   11.718      25.006
2015   10       31    23  51    3.5603   317.3   11.719      25.004
2015   10       31    23  58    3.5615   317.2   11.720      25.003
2015   11        1     0   5    3.5627   317.2   11.721      25.001
2015   11        1     0  12    3.5639   317.2   11.722      25.000
2015   11        1     0  19    3.5652   317.2   11.723      24.998
2015   11        1     0  27    3.5665   317.2   11.725      24.997
2015   11        1     0  34    3.5678   317.2   11.726      24.996
2015   11        1     0  41    3.5691   317.1   11.728      24.995
2015   11        1     0  48    3.5705   317.1   11.729      24.994
2015   11        1     0  55    3.5718   317.1   11.731      24.993
2015   11        1     1   3    3.5732   317.1   11.733      24.993
2015   11        1     1  10    3.5746   317.1   11.735      24.992
2015   11        1     1  17    3.5760   317.1   11.737      24.992
2015   11        1     1  24    3.5775   317.1   11.739      24.991
2015   11        1     1  31    3.5789   317.0   11.742      24.991
2015   11        1     1  39    3.5805   317.0   11.744      24.991
2015   11        1     1  46    3.5820   317.0   11.746      24.992
2015   11        1     1  53    3.5835   317.0   11.749      24.992
2015   11        1     2   0    3.5851   317.0   11.752      24.992
2015   11        1     2   7    3.5866   317.0   11.755      24.993
2015   11        1     2  15    3.5883   317.0   11.758      24.994
2015   11        1     2  22    3.5899   316.9   11.761      24.995
2015   11        1     2  29    3.5916   316.9   11.764      24.996
2015   11        1     2  36    3.5933   316.9   11.767      24.997
2015   11        1     2  43    3.5950   316.9   11.770      24.998
2015   11        1     2  50    3.5968   316.9   11.774      25.000
2015   11        1     2  58    3.5985   316.9   11.778      25.001
2015   11        1     3   5    3.6002   316.9   11.781      25.003
2015   11        1     3  12    3.6021   316.8   11.785      25.005
2015   11        1     3  19    3.6039   316.8   11.789      25.007
2015   11        1     3  26    3.6057   316.8   11.793      25.009
2015   11        1     3  33    3.6076   316.8   11.797      25.011
2015   11        1     3  41    3.6095   316.8   11.801      25.013
2015   11        1     3  48    3.6114   316.8   11.805      25.016
2015   11        1     3  55    3.6134   316.7   11.810      25.018
2015   11        1     4   2    3.6153   316.7   11.814      25.021
2015   11        1     4   9    3.6174   316.7   11.819      25.024
2015   11        1     4  16    3.6194   316.7   11.824      25.027
2015   11        1     4  24    3.6214   316.7   11.828      25.030
2015   11        1     4  31    3.6236   316.7   11.833      25.033
2015   11        1     4  38    3.6256   316.6   11.838      25.037
2015   11        1     4  45    3.6278   316.6   11.844      25.040
2015   11        1     4  52    3.6299   316.6   11.849      25.044
2015   11        1     4  59    3.6321   316.6   11.854      25.048
2015   11        1     5   7    3.6344   316.6   11.860      25.052
2015   11        1     5  14    3.6366   316.6   11.865      25.056
2015   11        1     5  21    3.6389   316.5   11.871      25.060
2015   11        1     5  28    3.6412   316.5   11.877      25.064
2015   11        1     5  35    3.6435   316.5   11.883      25.069
2015   11        1     5  43    3.6458   316.5   11.889      25.074
2015   11        1     5  50    3.6481   316.5   11.895      25.079
2015   11        1     5  57    3.6506   316.5   11.901      25.084
2015   11        1     6   4    3.6530   316.5   11.908      25.089
2015   11        1     6  11    3.6554   316.4   11.914      25.095
2015   11        1     6  18    3.6579   316.4   11.921      25.100
2015   11        1     6  26    3.6604   316.4   11.928      25.106
2015   11        1     6  33    3.6631   316.4   11.935      25.113
2015   11        1     6  40    3.6657   316.4   11.942      25.119
2015   11        1     6  47    3.6682   316.4   11.949      25.126
2015   11        1     6  54    3.6710   316.4   11.957      25.133
2015   11        1     7   2    3.6737   316.3   11.965      25.140
2015   11        1     7   9    3.6763   316.3   11.972      25.147
2015   11        1     7  16    3.6790   316.3   11.980      25.154
2015   11        1     7  23    3.6819   316.3   11.988      25.162
2015   11        1     7  30    3.6846   316.3   11.997      25.171
2015   11        1     7  38    3.6875   316.3   12.005      25.179
2015   11        1     7  45    3.6904   316.3   12.014      25.188
2015   11        1     7  52    3.6934   316.3   12.023      25.196
2015   11        1     7  59    3.6964   316.2   12.032      25.206
2015   11        1     8   6    3.6994   316.2   12.041      25.215
2015   11        1     8  14    3.7024   316.2   12.050      25.225
2015   11        1     8  21    3.7054   316.2   12.060      25.235
2015   11        1     8  28    3.7086   316.2   12.069      25.245
2015   11        1     8  35    3.7117   316.2   12.079      25.255
2015   11        1     8  42    3.7149   316.2   12.089      25.266
2015   11        1     8  50    3.7181   316.2   12.100      25.277
2015   11        1     8  57    3.7214   316.2   12.110      25.289
2015   11        1     9   4    3.7245   316.2   12.121      25.300
2015   11        1     9  11    3.7279   316.2   12.131      25.312
2015   11        1     9  18    3.7313   316.1   12.142      25.324
2015   11        1     9  26    3.7345   316.1   12.154      25.337
2015   11        1     9  33    3.7379   316.1   12.165      25.349
2015   11        1     9  40    3.7416   316.1   12.177      25.362
2015   11        1     9  47    3.7450   316.1   12.188      25.376
2015   11        1     9  54    3.7486   316.1   12.200      25.389
2015   11        1    10   1    3.7520   316.1   12.213      25.403
2015   11        1    10   9    3.7556   316.1   12.225      25.417
2015   11        1    10  16    3.7594   316.1   12.238      25.431
2015   11        1    10  23    3.7630   316.1   12.250      25.446
2015   11        1    10  30    3.7668   316.1   12.263      25.461
2015   11        1    10  37    3.7705   316.1   12.277      25.476
2015   11        1    10  44    3.7744   316.1   12.290      25.492
2015   11        1    10  52    3.7781   316.1   12.304      25.507
2015   11        1    10  59    3.7820   316.1   12.318      25.523
2015   11        1    11   6    3.7861   316.1   12.332      25.540
2015   11        1    11  13    3.7900   316.1   12.346      25.557
2015   11        1    11  20    3.7940   316.1   12.361      25.574
2015   11        1    11  27    3.7982   316.1   12.376      25.591
2015   11        1    11  35    3.8024   316.1   12.391      25.609
2015   11        1    11  42    3.8066   316.1   12.406      25.627
2015   11        1    11  49    3.8109   316.1   12.422      25.645
2015   11        1    11  56    3.8150   316.2   12.438      25.664
2015   11        1    12   3    3.8196   316.2   12.454      25.683
2015   11        1    12  10    3.8240   316.2   12.471      25.703
2015   11        1    12  18    3.8283   316.2   12.488      25.723
2015   11        1    12  25    3.8329   316.2   12.505      25.743
2015   11        1    12  32    3.8376   316.2   12.522      25.764
2015   11        1    12  39    3.8420   316.2   12.540      25.786
2015   11        1    12  46    3.8468   316.2   12.557      25.808
2015   11        1    12  54    3.8514   316.2   12.575      25.831
2015   11        1    13   1    3.8564   316.3   12.593      25.855
2015   11        1    13   8    3.8610   316.3   12.612      25.879
2015   11        1    13  15    3.8658   316.3   12.630      25.904
2015   11        1    13  22    3.8707   316.3   12.648      25.930
2015   11        1    13  30    3.8755   316.3   12.667      25.957
2015   11        1    13  37    3.8804   316.4   12.686      25.984
2015   11        1    13  44    3.8853   316.4   12.704      26.012
2015   11        1    13  51    3.8902   316.4   12.723      26.040
2015   11        1    13  58    3.8952   316.4   12.742      26.070
2015   11        1    14   5    3.9001   316.5   12.760      26.099
2015   11        1    14  13    3.9050   316.5   12.779      26.130
2015   11        1    14  20    3.9100   316.5   12.797      26.160
2015   11        1    14  27    3.9150   316.6   12.816      26.192
2015   11        1    14  34    3.9201   316.6   12.835      26.223
2015   11        1    14  41    3.9251   316.6   12.853      26.255
2015   11        1    14  49    3.9298   316.6   12.872      26.287
2015   11        1    14  56    3.9350   316.7   12.890      26.319
2015   11        1    15   3    3.9398   316.7   12.908      26.351
2015   11        1    15  10    3.9448   316.7   12.927      26.383
2015   11        1    15  17    3.9498   316.8   12.945      26.415
2015   11        1    15  25    3.9548   316.8   12.964      26.447
2015   11        1    15  32    3.9598   316.8   12.982      26.480
2015   11        1    15  39    3.9649   316.9   13.000      26.512
2015   11        1    15  46    3.9701   316.9   13.019      26.544
2015   11        1    15  53    3.9752   316.9   13.037      26.576
2015   11        1    16   1    3.9801   317.0   13.056      26.608
2015   11        1    16   8    3.9854   317.0   13.075      26.640
2015   11        1    16  15    3.9904   317.1   13.093      26.672
2015   11        1    16  22    3.9957   317.1   13.112      26.704
2015   11        1    16  29    4.0008   317.1   13.131      26.736
2015   11        1    16  36    4.0062   317.2   13.150      26.769
2015   11        1    16  44    4.0113   317.2   13.170      26.801
2015   11        1    16  51    4.0168   317.3   13.189      26.834
2015   11        1    16  58    4.0221   317.3   13.209      26.866
2015   11        1    17   5    4.0274   317.3   13.229      26.899
2015   11        1    17  12    4.0330   317.4   13.249      26.932
2015   11        1    17  20    4.0384   317.4   13.270      26.966
2015   11        1    17  27    4.0440   317.5   13.291      26.999
2015   11        1    17  34    4.0497   317.5   13.312      27.033
2015   11        1    17  41    4.0554   317.6   13.334      27.067
2015   11        1    17  48    4.0613   317.6   13.356      27.102
2015   11        1    17  55    4.0672   317.6   13.378      27.137
2015   11        1    18   3    4.0732   317.7   13.401      27.172
2015   11        1    18  10    4.0793   317.7   13.424      27.208
2015   11        1    18  17    4.0858   317.8   13.448      27.245
2015   11        1    18  24    4.0920   317.8   13.473      27.282
2015   11        1    18  31    4.0985   317.9   13.498      27.319
2015   11        1    18  38    4.1051   318.0   13.524      27.357
2015   11        1    18  46    4.1122   318.0   13.550      27.396
2015   11        1    18  53    4.1189   318.1   13.577      27.437
2015   11        1    19   0    4.1261   318.1   13.605      27.479
2015   11        1    19   7    4.1334   318.2   13.633      27.521
2015   11        1    19  14    4.1412   318.3   13.661      27.566
2015   11        1    19  21    4.1485   318.3   13.690      27.610
2015   11        1    19  29    4.1563   318.4   13.720      27.657
2015   11        1    19  36    4.1641   318.5   13.749      27.703
2015   11        1    19  43    4.1722   318.6   13.779      27.751
2015   11        1    19  50    4.1805   318.7   13.809      27.800
2015   11        1    19  57    4.1887   318.7   13.839      27.850
2015   11        1    20   4    4.1966   318.8   13.868      27.901
2015   11        1    20  12    4.2049   318.9   13.898      27.954
2015   11        1    20  19    4.2132   319.0   13.927      28.008
2015   11        1    20  26    4.2215   319.1   13.955      28.062
2015   11        1    20  33    4.2298   319.2   13.984      28.116
2015   11        1    20  40    4.2380   319.3   14.012      28.171
2015   11        1    20  48    4.2462   319.4   14.039      28.226
2015   11        1    20  55    4.2544   319.5   14.066      28.281
2015   11        1    21   2    4.2625   319.6   14.092      28.335
2015   11        1    21   9    4.2705   319.7   14.118      28.391
2015   11        1    21  16    4.2785   319.8   14.143      28.446
2015   11        1    21  23    4.2864   319.9   14.168      28.501
2015   11        1    21  31    4.2942   320.0   14.192      28.556
2015   11        1    21  38    4.3021   320.1   14.215      28.610
2015   11        1    21  45    4.3098   320.2   14.238      28.664
2015   11        1    21  52    4.3175   320.3   14.261      28.718
2015   11        1    21  59    4.3252   320.4   14.283      28.770
2015   11        1    22   7    4.3328   320.5   14.305      28.823
2015   11        1    22  14    4.3404   320.5   14.327      28.875
2015   11        1    22  21    4.3480   320.6   14.348      28.926
2015   11        1    22  28    4.3556   320.7   14.369      28.977
2015   11        1    22  35    4.3632   320.8   14.390      29.027
2015   11        1    22  43    4.3708   320.9   14.411      29.076
2015   11        1    22  50    4.3785   321.0   14.432      29.126
2015   11        1    22  57    4.3861   321.1   14.452      29.175
2015   11        1    23   4    4.3939   321.1   14.473      29.224
2015   11        1    23  11    4.4016   321.2   14.494      29.272
2015   11        1    23  19    4.4095   321.3   14.515      29.320
2015   11        1    23  26    4.4174   321.4   14.536      29.367
2015   11        1    23  33    4.4255   321.5   14.557      29.415
2015   11        1    23  40    4.4336   321.6   14.578      29.462
2015   11        1    23  47    4.4419   321.6   14.599      29.510
2015   11        1    23  54    4.4503   321.7   14.621      29.557
2015   11        2     0   2    4.4592   321.8   14.644      29.605
2015   11        2     0   9    4.4676   321.9   14.666      29.653
2015   11        2     0  16    4.4766   322.0   14.689      29.701
2015   11        2     0  23    4.4857   322.1   14.713      29.750
2015   11        2     0  30    4.4956   322.1   14.738      29.799
2015   11        2     0  37    4.5052   322.2   14.763      29.849
2015   11        2     0  45    4.5147   322.3   14.789      29.900
2015   11        2     0  52    4.5255   322.4   14.815      29.951
2015   11        2     0  59    4.5361   322.5   14.843      30.003
2015   11        2     1   6    4.5464   322.6   14.872      30.056
2015   11        2     1  13    4.5584   322.7   14.902      30.110
2015   11        2     1  20    4.5694   322.8   14.932      30.165
2015   11        2     1  28    4.5822   322.9   14.965      30.221
2015   11        2     1  35    4.5940   323.1   14.998      30.278
2015   11        2     1  42    4.6070   323.2   15.033      30.336
2015   11        2     1  49    4.6202   323.3   15.069      30.395
2015   11        2     1  56    4.6347   323.4   15.107      30.456
2015   11        2     2   3    4.6480   323.5   15.146      30.518
2015   11        2     2  11    4.6633   323.7   15.187      30.582
2015   11        2     2  18    4.6780   323.8   15.229      30.648
2015   11        2     2  25    4.6923   323.9   15.272      30.715
2015   11        2     2  32    4.7075   324.1   15.317      30.784
2015   11        2     2  39    4.7230   324.2   15.363      30.855
2015   11        2     2  46    4.7385   324.4   15.410      30.928
2015   11        2     2  54    4.7548   324.6   15.458      31.003
2015   11        2     3   1    4.7704   324.7   15.506      31.081
2015   11        2     3   8    4.7854   324.9   15.554      31.162
2015   11        2     3  15    4.8008   325.1   15.602      31.246
2015   11        2     3  22    4.8163   325.3   15.651      31.334
2015   11        2     3  29    4.8321   325.4   15.698      31.426
2015   11        2     3  37    4.8467   325.6   15.745      31.520
2015   11        2     3  44    4.8621   325.8   15.791      31.617
2015   11        2     3  51    4.8763   326.0   15.836      31.717
2015   11        2     3  58    4.8907   326.2   15.879      31.818
2015   11        2     4   5    4.9049   326.4   15.922      31.921
2015   11        2     4  13    4.9189   326.6   15.963      32.025
2015   11        2     4  20    4.9328   326.9   16.003      32.130
2015   11        2     4  27    4.9463   327.1   16.041      32.236
2015   11        2     4  34    4.9597   327.3   16.078      32.344
2015   11        2     4  41    4.9729   327.5   16.114      32.452
2015   11        2     4  49    4.9860   327.7   16.149      32.560
2015   11        2     4  56    4.9994   327.9   16.183      32.667
2015   11        2     5   3    5.0118   328.1   16.216      32.775
2015   11        2     5  10    5.0245   328.4   16.249      32.881
2015   11        2     5  17    5.0372   328.6   16.280      32.987
2015   11        2     5  24    5.0503   328.8   16.311      33.093
2015   11        2     5  32    5.0629   329.0   16.342      33.198
2015   11        2     5  39    5.0751   329.2   16.373      33.303
2015   11        2     5  46    5.0877   329.4   16.403      33.408
2015   11        2     5  53    5.1004   329.7   16.433      33.512
2015   11        2     6   0    5.1132   329.9   16.464      33.617
2015   11        2     6   8    5.1266   330.1   16.494      33.722
2015   11        2     6  15    5.1392   330.3   16.525      33.828
2015   11        2     6  22    5.1525   330.6   16.556      33.934
2015   11        2     6  29    5.1666   330.8   16.588      34.042
2015   11        2     6  36    5.1798   331.0   16.621      34.151
2015   11        2     6  43    5.1945   331.3   16.654      34.262
2015   11        2     6  51    5.2083   331.5   16.688      34.375
2015   11        2     6  58    5.2233   331.8   16.724      34.490
2015   11        2     7   5    5.2385   332.1   16.761      34.609
2015   11        2     7  12    5.2549   332.3   16.799      34.731
2015   11        2     7  19    5.2706   332.6   16.839      34.856
2015   11        2     7  27    5.2883   332.9   16.882      34.986
2015   11        2     7  34    5.3058   333.2   16.926      35.120
2015   11        2     7  41    5.3242   333.5   16.973      35.260
2015   11        2     7  48    5.3425   333.9   17.022      35.405
2015   11        2     7  55    5.3627   334.2   17.075      35.556
2015   11        2     8   2    5.3834   334.5   17.131      35.712
2015   11        2     8  10    5.4053   334.9   17.191      35.874
2015   11        2     8  17    5.4277   335.3   17.253      36.043
2015   11        2     8  24    5.4523   335.7   17.320      36.223
2015   11        2     8  31    5.4754   336.1   17.389      36.412
2015   11        2     8  38    5.5004   336.5   17.462      36.611
2015   11        2     8  45    5.5266   336.9   17.536      36.818
2015   11        2     8  53    5.5516   337.3   17.613      37.036
2015   11        2     9   0    5.5787   337.8   17.691      37.263
2015   11        2     9   7    5.6053   338.3   17.770      37.498
2015   11        2     9  14    5.6307   338.7   17.849      37.739
2015   11        2     9  21    5.6573   339.2   17.928      37.986
2015   11        2     9  28    5.6836   339.7   18.005      38.238
2015   11        2     9  36    5.7109   340.2   18.081      38.495
2015   11        2     9  43    5.7358   340.7   18.155      38.752
2015   11        2     9  50    5.7625   341.2   18.227      39.011
2015   11        2     9  57    5.7869   341.7   18.296      39.266
2015   11        2    10   4    5.8120   342.2   18.362      39.521
2015   11        2    10  11    5.8366   342.7   18.426      39.772
2015   11        2    10  19    5.8620   343.2   18.487      40.021
2015   11        2    10  26    5.8860   343.6   18.546      40.265
2015   11        2    10  33    5.9092   344.1   18.602      40.505
2015   11        2    10  40    5.9335   344.6   18.656      40.739
2015   11        2    10  47    5.9570   345.0   18.708      40.970
2015   11        2    10  54    5.9800   345.5   18.758      41.195
2015   11        2    11   2    6.0024   345.9   18.807      41.416
2015   11        2    11   9    6.0251   346.4   18.854      41.633
2015   11        2    11  16    6.0477   346.8   18.900      41.846
2015   11        2    11  23    6.0706   347.2   18.945      42.055
2015   11        2    11  30    6.0929   347.7   18.989      42.262
2015   11        2    11  37    6.1147   348.1   19.032      42.465
2015   11        2    11  45    6.1360   348.6   19.074      42.668
2015   11        2    11  52    6.1581   349.0   19.115      42.869
2015   11        2    11  59    6.1790   349.5   19.155      43.070
2015   11        2    12   6    6.2006   349.9   19.193      43.270
2015   11        2    12  13    6.2211   350.4   19.232      43.471
2015   11        2    12  21    6.2418   350.8   19.269      43.671
2015   11        2    12  28    6.2624   351.3   19.306      43.873
2015   11        2    12  35    6.2831   351.8   19.342      44.074
2015   11        2    12  42    6.3028   352.3   19.377      44.276
2015   11        2    12  49    6.3227   352.7   19.411      44.477
2015   11        2    12  57    6.3429   353.2   19.445      44.681
2015   11        2    13   4    6.3623   353.7   19.478      44.884
2015   11        2    13  11    6.3814   354.2   19.511      45.089
2015   11        2    13  18    6.4005   354.7   19.543      45.294
2015   11        2    13  25    6.4198   355.3   19.575      45.500
2015   11        2    13  32    6.4386   355.8   19.608      45.705
2015   11        2    13  40    6.4572   356.3   19.641      45.912
2015   11        2    13  47    6.4757   356.8   19.674      46.118
2015   11        2    13  54    6.4941   357.3   19.709      46.326
2015   11        2    14   1    6.5125   357.8   19.744      46.533
2015   11        2    14   8    6.5309   358.4   19.782      46.742
2015   11        2    14  15    6.5492   358.9   19.821      46.951
2015   11        2    14  23    6.5677   359.5   19.864      47.164
2015   11        2    14  30    6.5867   360.0   19.910      47.377
2015   11        2    14  37    6.6058   360.5   19.961      47.594
2015   11        2    14  44    6.6251   361.1   20.017      47.813
2015   11        2    14  51    6.6453   361.7   20.079      48.040
2015   11        2    14  58    6.6663   362.3   20.145      48.276
2015   11        2    15   6    6.6883   362.9   20.217      48.524
2015   11        2    15  13    6.7110   363.6   20.294      48.783
2015   11        2    15  20    6.7345   364.3   20.377      49.059
2015   11        2    15  27    6.7587   365.0   20.462      49.351
2015   11        2    15  34    6.7836   365.8   20.550      49.664
2015   11        2    15  41    6.8096   366.6   20.639      49.991
2015   11        2    15  49    6.8353   367.4   20.729      50.335
2015   11        2    15  56    6.8604   368.2   20.816      50.693
2015   11        2    16   3    6.8868   369.1   20.901      51.069
2015   11        2    16  10    6.9115   370.0   20.981      51.459
2015   11        2    16  17    6.9364   370.8   21.057      51.861
2015   11        2    16  24    6.9612   371.7   21.128      52.267
2015   11        2    16  32    6.9840   372.6   21.192      52.682
2015   11        2    16  39    7.0064   373.4   21.248      53.101
2015   11        2    16  46    7.0287   374.3   21.297      53.529
2015   11        2    16  53    7.0488   375.2   21.338      53.957
2015   11        2    17   0    7.0691   376.0   21.373      54.387
2015   11        2    17   7    7.0880   376.8   21.401      54.815
2015   11        2    17  15    7.1062   377.6   21.423      55.246
2015   11        2    17  22    7.1235   378.4   21.438      55.678
2015   11        2    17  29    7.1400   379.2   21.447      56.114
2015   11        2    17  36    7.1565   380.0   21.451      56.546
2015   11        2    17  43    7.1720   380.8   21.450      56.982
2015   11        2    17  50    7.1876   381.6   21.444      57.415
2015   11        2    17  58    7.2026   382.4   21.434      57.852
2015   11        2    18   5    7.2173   383.2   21.421      58.286
2015   11        2    18  12    7.2319   384.0   21.403      58.722
2015   11        2    18  19    7.2461   384.7   21.383      59.154
2015   11        2    18  26    7.2604   385.5   21.359      59.585
2015   11        2    18  33    7.2741   386.3   21.332      60.010
2015   11        2    18  41    7.2879   387.1   21.303      60.433
2015   11        2    18  48    7.3016   387.9   21.272      60.849
2015   11        2    18  55    7.3149   388.6   21.237      61.262
2015   11        2    19   2    7.3280   389.4   21.201      61.667
2015   11        2    19   9    7.3413   390.2   21.163      62.065
2015   11        2    19  17    7.3540   391.0   21.123      62.450
2015   11        2    19  24    7.3665   391.9   21.081      62.829
2015   11        2    19  31    7.3788   392.7   21.037      63.195
2015   11        2    19  38    7.3909   393.5   20.991      63.555
2015   11        2    19  45    7.4024   394.4   20.943      63.902
2015   11        2    19  53    7.4137   395.3   20.892      64.244
2015   11        2    20   0    7.4243   396.2   20.839      64.581
2015   11        2    20   7    7.4344   397.1   20.782      64.912
2015   11        2    20  14    7.4436   398.0   20.722      65.231
2015   11        2    20  21    7.4519   398.9   20.658      65.543
2015   11        2    20  28    7.4591   399.9   20.589      65.847
2015   11        2    20  36    7.4640   400.9   20.512      66.147
2015   11        2    20  43    7.4687   401.8   20.431      66.424
2015   11        2    20  50    7.4702   402.8   20.346      66.683
2015   11        2    20  57    7.4713   403.7   20.257      66.926
2015   11        2    21   4    7.4722   404.6   20.165      67.155
2015   11        2    21  11    7.4710   405.4   20.072      67.368
2015   11        2    21  19    7.4688   406.3   19.978      67.567
2015   11        2    21  26    7.4645   407.1   19.884      67.759
2015   11        2    21  33    7.4604   408.0   19.791      67.941
2015   11        2    21  40    7.4578   408.7   19.702      68.106
2015   11        2    21  47    7.4532   409.5   19.616      68.261
2015   11        2    21  54    7.4472   410.3   19.538      68.408
2015   11        2    22   2    7.4454   411.0   19.467      68.560
2015   11        2    22   9    7.4406   411.8   19.403      68.726
2015   11        2    22  16    7.4382   412.6   19.347      68.908
2015   11        2    22  23    7.4368   413.4   19.297      69.105
2015   11        2    22  30    7.4359   414.3   19.254      69.320
2015   11        2    22  37    7.4385   415.2   19.215      69.552
2015   11        2    22  45    7.4390   416.1   19.181      69.805
2015   11        2    22  52    7.4381   417.0   19.151      70.072
2015   11        2    22  59    7.4399   418.0   19.124      70.365
2015   11        2    23   6    7.4425   419.0   19.096      70.683
2015   11        2    23  13    7.4476   420.1   19.069      71.028
2015   11        2    23  20    7.4477   421.1   19.040      71.397
2015   11        2    23  28    7.4529   422.2   19.010      71.786
2015   11        2    23  35    7.4531   423.3   18.978      72.187
2015   11        2    23  42    7.4556   424.4   18.943      72.606
2015   11        2    23  49    7.4582   425.6   18.906      73.037
2015   11        2    23  56    7.4630   426.7   18.865      73.481
2015   11        3     0   3    7.4650   427.8   18.822      73.931
2015   11        3     0  11    7.4666   428.9   18.775      74.389
2015   11        3     0  18    7.4682   430.0   18.727      74.852
2015   11        3     0  25    7.4666   431.1   18.675      75.324
2015   11        3     0  32    7.4676   432.3   18.620      75.802
2015   11        3     0  39    7.4682   433.4   18.562      76.292
2015   11        3     0  46    7.4713   434.5   18.501      76.784
2015   11        3     0  54    7.4712   435.6   18.437      77.287
2015   11        3     1   1    7.4681   436.7   18.368      77.793
2015   11        3     1   8    7.4670   437.9   18.294      78.307
2015   11        3     1  15    7.4682   439.0   18.215      78.822
2015   11        3     1  22    7.4628   440.1   18.130      79.339
2015   11        3     1  29    7.4623   441.3   18.039      79.850
2015   11        3     1  37    7.4548   442.4   17.941      80.356
2015   11        3     1  44    7.4519   443.5   17.835      80.842
2015   11        3     1  51    7.4413   444.7   17.720      81.318
2015   11        3     1  58    7.4354   445.8   17.596      81.773
2015   11        3     2   5    7.4214   446.9   17.463      82.193
2015   11        3     2  12    7.4119   448.0   17.322      82.567
2015   11        3     2  20    7.3938   449.1   17.174      82.898
2015   11        3     2  27    7.3775   450.2   17.020      83.186
2015   11        3     2  34    7.3622   451.3   16.860      83.435
2015   11        3     2  41    7.3393   452.4   16.696      83.645
2015   11        3     2  48    7.3207   453.5   16.525      83.829
2015   11        3     2  56    7.2948   454.6   16.351      83.979
2015   11        3     3   3    7.2735   455.8   16.172      84.102
2015   11        3     3  10    7.2481   456.9   15.992      84.198
2015   11        3     3  17    7.2175   458.1   15.810      84.266
2015   11        3     3  24    7.1927   459.3   15.627      84.311
2015   11        3     3  31    7.1596   460.5   15.441      84.354
2015   11        3     3  39    7.1291   461.9   15.251      84.408
2015   11        3     3  46    7.0995   463.2   15.057      84.461
2015   11        3     3  53    7.0661   464.6   14.860      84.498
2015   11        3     4   0    7.0279   466.0   14.660      84.522
2015   11        3     4   7    6.9923   467.4   14.461      84.531
2015   11        3     4  14    6.9584   468.7   14.260      84.528
2015   11        3     4  21    6.9211   470.1   14.061      84.520
2015   11        3     4  29    6.8801   471.5   13.862      84.510
2015   11        3     4  36    6.8420   472.9   13.663      84.507
2015   11        3     4  43    6.8061   474.3   13.465      84.495
2015   11        3     4  50    6.7676   475.7   13.270      84.472
2015   11        3     4  57    6.7289   477.0   13.079      84.438
2015   11        3     5   4    6.6910   478.3   12.895      84.386
2015   11        3     5  12    6.6538   479.5   12.718      84.324
2015   11        3     5  19    6.6179   480.7   12.549      84.272
2015   11        3     5  26    6.5826   481.9   12.387      84.228
2015   11        3     5  33    6.5488   483.1   12.234      84.195
2015   11        3     5  40    6.5128   484.3   12.088      84.171
2015   11        3     5  47    6.4841   485.4   11.950      84.158
2015   11        3     5  55    6.4504   486.4   11.820      84.150
2015   11        3     6   2    6.4241   487.5   11.700      84.145
2015   11        3     6   9    6.3929   488.5   11.586      84.157
2015   11        3     6  16    6.3689   489.5   11.481      84.189
2015   11        3     6  23    6.3426   490.5   11.381      84.242
2015   11        3     6  30    6.3148   491.5   11.288      84.312
2015   11        3     6  38    6.2928   492.4   11.199      84.402
2015   11        3     6  45    6.2665   493.4   11.115      84.520
2015   11        3     6  52    6.2433   494.4   11.034      84.663
2015   11        3     6  59    6.2238   495.4   10.957      84.822
2015   11        3     7   6    6.2016   496.4   10.883      84.998
2015   11        3     7  13    6.1776   497.4   10.811      85.185
2015   11        3     7  21    6.1587   498.4   10.741      85.382
2015   11        3     7  28    6.1377   499.4   10.672      85.584
2015   11        3     7  35    6.1163   500.4   10.604      85.792
2015   11        3     7  42    6.0924   501.4   10.537      86.002
2015   11        3     7  49    6.0707   502.5   10.470      86.213
2015   11        3     7  56    6.0518   503.5   10.402      86.421
2015   11        3     8   4    6.0296   504.6   10.334      86.629
2015   11        3     8  11    6.0073   505.7   10.264      86.834
2015   11        3     8  18    5.9842   506.9   10.192      87.042
2015   11        3     8  25    5.9582   508.0   10.119      87.249
2015   11        3     8  32    5.9366   509.2   10.041      87.460
2015   11        3     8  39    5.9091   510.5    9.960      87.671
2015   11        3     8  47    5.8831   511.7    9.874      87.882
2015   11        3     8  54    5.8566   513.0    9.784      88.079
2015   11        3     9   1    5.8313   514.3    9.687      88.258
2015   11        3     9   8    5.8023   515.7    9.584      88.417
2015   11        3     9  15    5.7715   517.2    9.472      88.564
2015   11        3     9  22    5.7397   518.6    9.353      88.655
2015   11        3     9  30    5.7057   520.1    9.226      88.668
2015   11        3     9  37    5.6676   521.5    9.095      88.606
2015   11        3     9  44    5.6333   523.0    8.957      88.473
2015   11        3     9  51    5.5951   524.4    8.817      88.267
2015   11        3     9  58    5.5526   525.9    8.672      87.996
2015   11        3    10   6    5.5148   527.4    8.525      87.672
2015   11        3    10  13    5.4730   529.0    8.375      87.278
2015   11        3    10  20    5.4309   530.5    8.225      86.813
2015   11        3    10  27    5.3854   532.0    8.075      86.288
2015   11        3    10  34    5.3446   533.4    7.928      85.700
2015   11        3    10  41    5.3008   534.8    7.784      85.052
2015   11        3    10  49    5.2556   536.2    7.645      84.391
2015   11        3    10  56    5.2122   537.6    7.509      83.726
2015   11        3    11   3    5.1696   539.0    7.377      83.066
2015   11        3    11  10    5.1286   540.4    7.249      82.406
2015   11        3    11  17    5.0870   541.7    7.126      81.754
2015   11        3    11  24    5.0456   543.0    7.007      81.092
2015   11        3    11  32    5.0042   544.2    6.894      80.437
2015   11        3    11  39    4.9643   545.5    6.784      79.805
2015   11        3    11  46    4.9261   546.7    6.680      79.206
2015   11        3    11  53    4.8873   547.9    6.579      78.622
2015   11        3    12   0    4.8501   549.0    6.482      78.064
2015   11        3    12   7    4.8139   550.1    6.389      77.518
2015   11        3    12  15    4.7783   551.1    6.300      76.992
2015   11        3    12  22    4.7435   552.1    6.214      76.476
2015   11        3    12  29    4.7096   553.0    6.132      75.978
2015   11        3    12  36    4.6765   553.9    6.053      75.488
2015   11        3    12  43    4.6446   554.8    5.978      75.013
2015   11        3    12  50    4.6133   555.5    5.905      74.543
2015   11        3    12  58    4.5827   556.3    5.835      74.085
2015   11        3    13   5    4.5525   557.0    5.768      73.632
2015   11        3    13  12    4.5232   557.6    5.704      73.188
2015   11        3    13  19    4.4947   558.2    5.642      72.746
2015   11        3    13  26    4.4668   558.8    5.582      72.311
2015   11        3    13  33    4.4399   559.3    5.525      71.877
2015   11        3    13  40    4.4125   559.8    5.470      71.448
2015   11        3    13  48    4.3860   560.3    5.416      71.018
2015   11        3    13  55    4.3600   560.7    5.365      70.591
2015   11        3    14   2    4.3349   561.1    5.315      70.162
2015   11        3    14   9    4.3095   561.4    5.267      69.734
2015   11        3    14  16    4.2837   561.8    5.220      69.303
2015   11        3    14  23    4.2595   562.1    5.174      68.873
2015   11        3    14  31    4.2341   562.4    5.130      68.437
2015   11        3    14  38    4.2097   562.6    5.087      68.001
2015   11        3    14  45    4.1858   562.8    5.045      67.560
2015   11        3    14  52    4.1610   563.0    5.004      67.117
2015   11        3    14  59    4.1373   563.2    4.964      66.668
2015   11        3    15   6    4.1133   563.4    4.926      66.217
2015   11        3    15  14    4.0884   563.5    4.888      65.761
2015   11        3    15  21    4.0653   563.6    4.851      65.303
2015   11        3    15  28    4.0404   563.7    4.815      64.839
2015   11        3    15  35    4.0166   563.8    4.780      64.374
2015   11        3    15  42    3.9926   563.8    4.746      63.903
2015   11        3    15  49    3.9699   563.8    4.713      63.434
2015   11        3    15  57    3.9462   563.8    4.681      62.958
2015   11        3    16   4    3.9227   563.8    4.650      62.484
2015   11        3    16  11    3.8981   563.7    4.620      62.005
2015   11        3    16  18    3.8749   563.6    4.591      61.529
2015   11        3    16  25    3.8532   563.5    4.562      61.052
2015   11        3    16  33    3.8291   563.4    4.535      60.578
2015   11        3    16  40    3.8065   563.2    4.509      60.105
2015   11        3    16  47    3.7843   563.1    4.483      59.636
2015   11        3    16  54    3.7624   562.9    4.459      59.173
2015   11        3    17   1    3.7426   562.7    4.435      58.715
2015   11        3    17   8    3.7217   562.5    4.412      58.267
2015   11        3    17  16    3.7010   562.3    4.391      57.826
2015   11        3    17  23    3.6790   562.1    4.369      57.397
2015   11        3    17  30    3.6610   562.0    4.349      56.977
2015   11        3    17  37    3.6418   561.8    4.329      56.571
2015   11        3    17  44    3.6228   561.6    4.309      56.175
2015   11        3    17  52    3.6024   561.4    4.291      55.798
2015   11        3    17  59    3.5842   561.3    4.272      55.432
2015   11        3    18   6    3.5690   561.1    4.254      55.081
2015   11        3    18  13    3.5495   561.0    4.236      54.743
2015   11        3    18  20    3.5350   560.9    4.219      54.415
2015   11        3    18  27    3.5183   560.8    4.202      54.099
2015   11        3    18  35    3.5002   560.6    4.185      53.795
2015   11        3    18  42    3.4842   560.5    4.169      53.501
2015   11        3    18  49    3.4690   560.4    4.152      53.216
2015   11        3    18  56    3.4560   560.3    4.137      52.939
2015   11        3    19   3    3.4413   560.1    4.121      52.667
2015   11        3    19  10    3.4244   560.0    4.106      52.403
2015   11        3    19  18    3.4103   559.8    4.091      52.141
2015   11        3    19  25    3.3984   559.6    4.077      51.885
2015   11        3    19  32    3.3848   559.5    4.064      51.633
2015   11        3    19  39    3.3691   559.3    4.051      51.387
2015   11        3    19  46    3.3560   559.1    4.039      51.145
2015   11        3    19  53    3.3431   558.9    4.027      50.907
2015   11        3    20   0    3.3304   558.7    4.016      50.673
2015   11        3    20   8    3.3201   558.4    4.005      50.443
2015   11        3    20  15    3.3057   558.2    3.995      50.216
2015   11        3    20  22    3.2936   558.0    3.985      49.993
2015   11        3    20  29    3.2839   557.8    3.975      49.774
2015   11        3    20  36    3.2701   557.5    3.966      49.560
2015   11        3    20  43    3.2587   557.3    3.957      49.350
2015   11        3    20  51    3.2473   557.1    3.948      49.146
2015   11        3    20  58    3.2380   556.9    3.939      48.945
2015   11        3    21   5    3.2269   556.6    3.931      48.747
2015   11        3    21  12    3.2141   556.4    3.922      48.550
2015   11        3    21  19    3.2052   556.1    3.913      48.357
2015   11        3    21  26    3.1927   555.9    3.905      48.165
2015   11        3    21  34    3.1822   555.7    3.896      47.977
2015   11        3    21  41    3.1736   555.4    3.888      47.790
2015   11        3    21  48    3.1616   555.2    3.879      47.607
2015   11        3    21  55    3.1531   554.9    3.870      47.424
2015   11        3    22   2    3.1415   554.7    3.862      47.243
2015   11        3    22   9    3.1333   554.4    3.854      47.063
2015   11        3    22  17    3.1235   554.2    3.845      46.885
2015   11        3    22  24    3.1123   553.9    3.837      46.708
2015   11        3    22  31    3.1029   553.6    3.829      46.534
2015   11        3    22  38    3.0951   553.4    3.821      46.360
2015   11        3    22  45    3.0859   553.1    3.813      46.189
2015   11        3    22  52    3.0769   552.8    3.805      46.019
2015   11        3    23   0    3.0665   552.6    3.798      45.852
2015   11        3    23   7    3.0592   552.3    3.790      45.685
2015   11        3    23  14    3.0491   552.0    3.783      45.522
2015   11        3    23  21    3.0421   551.8    3.775      45.360
2015   11        3    23  28    3.0323   551.5    3.768      45.201
2015   11        3    23  35    3.0242   551.2    3.761      45.042
2015   11        3    23  43    3.0161   550.9    3.754      44.888
2015   11        3    23  50    3.0082   550.7    3.747      44.734
2015   11        3    23  57    3.0004   550.4    3.741      44.584
2015   11        4     0   4    2.9928   550.1    3.734      44.434
2015   11        4     0  11    2.9866   549.9    3.727      44.289
2015   11        4     0  19    2.9779   549.6    3.721      44.144
2015   11        4     0  26    2.9706   549.3    3.715      44.003
2015   11        4     0  33    2.9634   549.0    3.708      43.863
2015   11        4     0  40    2.9562   548.8    3.702      43.726
2015   11        4     0  47    2.9505   548.5    3.696      43.591
2015   11        4     0  54    2.9423   548.3    3.690      43.460
2015   11        4     1   2    2.9355   548.0    3.683      43.330
2015   11        4     1   9    2.9299   547.8    3.677      43.203
2015   11        4     1  16    2.9232   547.5    3.671      43.078
2015   11        4     1  23    2.9154   547.3    3.665      42.956
2015   11        4     1  30    2.9088   547.0    3.659      42.835
2015   11        4     1  37    2.9023   546.8    3.653      42.717
2015   11        4     1  45    2.8971   546.5    3.647      42.600
2015   11        4     1  52    2.8907   546.2    3.642      42.486
2015   11        4     1  59    2.8834   546.0    3.636      42.371
2015   11        4     2   6    2.8773   545.7    3.631      42.258
2015   11        4     2  13    2.8712   545.4    3.625      42.145
2015   11        4     2  20    2.8663   545.1    3.621      42.034
2015   11        4     2  28    2.8604   544.8    3.616      41.924
2015   11        4     2  35    2.8546   544.5    3.612      41.814
2015   11        4     2  42    2.8489   544.1    3.608      41.704
2015   11        4     2  49    2.8433   543.8    3.605      41.598
2015   11        4     2  56    2.8368   543.5    3.602      41.494
2015   11        4     3   3    2.8323   543.2    3.600      41.392
2015   11        4     3  11    2.8261   542.9    3.598      41.292
2015   11        4     3  18    2.8208   542.5    3.596      41.196
2015   11        4     3  25    2.8157   542.2    3.595      41.100
2015   11        4     3  32    2.8114   541.9    3.594      41.007
2015   11        4     3  39    2.8055   541.6    3.593      40.916
2015   11        4     3  46    2.8005   541.3    3.592      40.830
2015   11        4     3  54    2.7955   541.0    3.592      40.745
2015   11        4     4   1    2.7906   540.7    3.591      40.664
2015   11        4     4   8    2.7857   540.4    3.591      40.586
2015   11        4     4  15    2.7809   540.1    3.590      40.509
2015   11        4     4  22    2.7769   539.8    3.589      40.432
2015   11        4     4  29    2.7714   539.5    3.588      40.356
2015   11        4     4  36    2.7667   539.2    3.588      40.280
2015   11        4     4  44    2.7620   538.9    3.587      40.206
2015   11        4     4  51    2.7575   538.6    3.586      40.131
2015   11        4     4  58    2.7536   538.4    3.585      40.059
2015   11        4     5   5    2.7485   538.1    3.584      39.986
2015   11        4     5  12    2.7447   537.8    3.583      39.913
2015   11        4     5  19    2.7397   537.5    3.582      39.840
2015   11        4     5  27    2.7355   537.2    3.581      39.768
2015   11        4     5  34    2.7313   536.9    3.580      39.695
2015   11        4     5  41    2.7272   536.6    3.579      39.624
2015   11        4     5  48    2.7232   536.3    3.578      39.553
2015   11        4     5  55    2.7192   536.0    3.578      39.483
2015   11        4     6   2    2.7154   535.7    3.577      39.414
2015   11        4     6  10    2.7122   535.4    3.577      39.346
2015   11        4     6  17    2.7079   535.1    3.577      39.279
2015   11        4     6  24    2.7043   534.8    3.577      39.213
2015   11        4     6  31    2.7014   534.5    3.578      39.148
2015   11        4     6  38    2.6974   534.3    3.578      39.085
2015   11        4     6  46    2.6941   534.0    3.579      39.023
2015   11        4     6  53    2.6909   533.7    3.580      38.962
2015   11        4     7   0    2.6878   533.4    3.581      38.902
2015   11        4     7   7    2.6847   533.1    3.582      38.844
2015   11        4     7  14    2.6822   532.8    3.583      38.786
2015   11        4     7  21    2.6788   532.5    3.584      38.730
2015   11        4     7  29    2.6759   532.2    3.586      38.674
2015   11        4     7  36    2.6731   531.9    3.587      38.620
2015   11        4     7  43    2.6709   531.6    3.588      38.565
2015   11        4     7  50    2.6677   531.3    3.589      38.512
2015   11        4     7  57    2.6655   531.0    3.591      38.459
2015   11        4     8   4    2.6624   530.7    3.592      38.407
2015   11        4     8  12    2.6598   530.5    3.593      38.354
2015   11        4     8  19    2.6572   530.2    3.594      38.302
2015   11        4     8  26    2.6551   529.9    3.595      38.249
2015   11        4     8  33    2.6521   529.6    3.596      38.197
2015   11        4     8  40    2.6500   529.3    3.596      38.145
2015   11        4     8  48    2.6470   529.0    3.597      38.092
2015   11        4     8  55    2.6445   528.8    3.597      38.038
2015   11        4     9   2    2.6425   528.5    3.598      37.985
2015   11        4     9   9    2.6395   528.2    3.598      37.931
2015   11        4     9  16    2.6371   527.9    3.598      37.877
2015   11        4     9  23    2.6346   527.6    3.598      37.822
2015   11        4     9  31    2.6322   527.4    3.598      37.768
2015   11        4     9  38    2.6298   527.1    3.598      37.712
2015   11        4     9  45    2.6278   526.8    3.598      37.657
2015   11        4     9  52    2.6250   526.6    3.598      37.601
2015   11        4     9  59    2.6230   526.3    3.598      37.545
2015   11        4    10   6    2.6202   526.0    3.597      37.489
2015   11        4    10  13    2.6179   525.7    3.597      37.433
2015   11        4    10  21    2.6155   525.5    3.596      37.376
2015   11        4    10  28    2.6136   525.2    3.596      37.319
2015   11        4    10  35    2.6109   524.9    3.595      37.262
2015   11        4    10  42    2.6090   524.7    3.595      37.205
2015   11        4    10  49    2.6064   524.4    3.594      37.148
2015   11        4    10  56    2.6045   524.1    3.594      37.091
2015   11        4    11   4    2.6023   523.8    3.593      37.033
2015   11        4    11  11    2.6000   523.6    3.592      36.977
2015   11        4    11  18    2.5975   523.3    3.592      36.919
2015   11        4    11  25    2.5957   523.0    3.591      36.862
2015   11        4    11  32    2.5932   522.8    3.590      36.805
2015   11        4    11  39    2.5911   522.5    3.590      36.748
2015   11        4    11  47    2.5890   522.2    3.589      36.692
2015   11        4    11  54    2.5869   521.9    3.589      36.636
2015   11        4    12   1    2.5848   521.6    3.589      36.581
2015   11        4    12   8    2.5832   521.4    3.588      36.526
2015   11        4    12  15    2.5809   521.1    3.588      36.472
2015   11        4    12  22    2.5793   520.8    3.588      36.419
2015   11        4    12  30    2.5771   520.5    3.589      36.367
2015   11        4    12  37    2.5752   520.2    3.589      36.317
2015   11        4    12  44    2.5735   519.9    3.590      36.268
2015   11        4    12  51    2.5717   519.6    3.591      36.221
2015   11        4    12  58    2.5701   519.4    3.592      36.175
2015   11        4    13   5    2.5688   519.1    3.594      36.132
2015   11        4    13  13    2.5672   518.8    3.596      36.090
2015   11        4    13  20    2.5655   518.5    3.598      36.050
2015   11        4    13  27    2.5641   518.2    3.601      36.012
2015   11        4    13  34    2.5627   517.9    3.604      35.977
2015   11        4    13  41    2.5615   517.6    3.607      35.943
2015   11        4    13  48    2.5603   517.4    3.611      35.911
2015   11        4    13  56    2.5594   517.1    3.614      35.882
2015   11        4    14   3    2.5581   516.8    3.619      35.854
2015   11        4    14  10    2.5572   516.5    3.623      35.828
2015   11        4    14  17    2.5563   516.2    3.628      35.804
2015   11        4    14  24    2.5554   515.9    3.633      35.782
2015   11        4    14  31    2.5549   515.7    3.638      35.761
2015   11        4    14  39    2.5541   515.4    3.644      35.741
2015   11        4    14  46    2.5532   515.1    3.649      35.722
2015   11        4    14  53    2.5525   514.8    3.655      35.703
2015   11        4    15   0    2.5519   514.6    3.660      35.686
2015   11        4    15   7    2.5513   514.3    3.666      35.669
2015   11        4    15  15    2.5510   514.0    3.671      35.652
2015   11        4    15  22    2.5504   513.8    3.677      35.635
2015   11        4    15  29    2.5497   513.5    3.682      35.619
2015   11        4    15  36    2.5492   513.2    3.688      35.602
2015   11        4    15  43    2.5489   512.9    3.693      35.585
2015   11        4    15  50    2.5482   512.7    3.699      35.567
2015   11        4    15  58    2.5478   512.4    3.704      35.550
2015   11        4    16   5    2.5476   512.1    3.709      35.532
2015   11        4    16  12    2.5472   511.8    3.714      35.513
2015   11        4    16  19    2.5465   511.6    3.719      35.494
2015   11        4    16  26    2.5462   511.3    3.724      35.475
2015   11        4    16  33    2.5458   511.0    3.729      35.456
2015   11        4    16  41    2.5455   510.8    3.734      35.437
2015   11        4    16  48    2.5452   510.5    3.739      35.417
2015   11        4    16  55    2.5449   510.2    3.743      35.397
2015   11        4    17   2    2.5446   510.0    3.748      35.377
2015   11        4    17   9    2.5444   509.7    3.753      35.358
2015   11        4    17  16    2.5442   509.4    3.758      35.338
2015   11        4    17  24    2.5440   509.2    3.763      35.319
2015   11        4    17  31    2.5438   508.9    3.768      35.300
2015   11        4    17  38    2.5437   508.6    3.773      35.281
2015   11        4    17  45    2.5436   508.4    3.778      35.262
2015   11        4    17  52    2.5435   508.1    3.783      35.244
2015   11        4    17  59    2.5435   507.9    3.789      35.226
2015   11        4    18   7    2.5438   507.6    3.794      35.209
2015   11        4    18  14    2.5435   507.4    3.799      35.191
2015   11        4    18  21    2.5436   507.1    3.805      35.175
2015   11        4    18  28    2.5439   506.9    3.810      35.159
2015   11        4    18  35    2.5440   506.6    3.816      35.144
2015   11        4    18  42    2.5438   506.4    3.822      35.129
2015   11        4    18  49    2.5442   506.1    3.828      35.116
2015   11        4    18  57    2.5443   505.9    3.833      35.103
2015   11        4    19   4    2.5442   505.7    3.839      35.091
2015   11        4    19  11    2.5444   505.4    3.845      35.080
2015   11        4    19  18    2.5448   505.2    3.851      35.070
2015   11        4    19  25    2.5450   505.0    3.857      35.060
2015   11        4    19  32    2.5450   504.7    3.863      35.051
2015   11        4    19  40    2.5455   504.5    3.869      35.044
2015   11        4    19  47    2.5457   504.3    3.875      35.037
2015   11        4    19  54    2.5458   504.0    3.880      35.031
2015   11        4    20   1    2.5461   503.8    3.886      35.026
2015   11        4    20   8    2.5466   503.6    3.892      35.021
2015   11        4    20  15    2.5470   503.4    3.899      35.018
2015   11        4    20  23    2.5471   503.2    3.905      35.015
2015   11        4    20  30    2.5475   502.9    3.911      35.013
2015   11        4    20  37    2.5480   502.7    3.917      35.011
2015   11        4    20  44    2.5484   502.5    3.923      35.010
2015   11        4    20  51    2.5489   502.3    3.930      35.010
2015   11        4    20  58    2.5497   502.1    3.936      35.010
2015   11        4    21   6    2.5503   501.9    3.943      35.010
2015   11        4    21  13    2.5506   501.7    3.949      35.011
2015   11        4    21  20    2.5515   501.5    3.956      35.012
2015   11        4    21  27    2.5522   501.3    3.963      35.014
2015   11        4    21  34    2.5527   501.1    3.970      35.016
2015   11        4    21  42    2.5536   500.9    3.977      35.019
2015   11        4    21  49    2.5542   500.7    3.984      35.022
2015   11        4    21  56    2.5550   500.5    3.991      35.025
2015   11        4    22   3    2.5559   500.3    3.998      35.028
2015   11        4    22  10    2.5567   500.1    4.005      35.031
2015   11        4    22  17    2.5576   499.9    4.012      35.035
2015   11        4    22  25    2.5587   499.7    4.019      35.039
2015   11        4    22  32    2.5595   499.5    4.027      35.042
2015   11        4    22  39    2.5605   499.3    4.034      35.046
2015   11        4    22  46    2.5615   499.1    4.041      35.050
2015   11        4    22  53    2.5626   498.9    4.049      35.053
2015   11        4    23   1    2.5635   498.8    4.056      35.057
2015   11        4    23   8    2.5646   498.6    4.063      35.061
2015   11        4    23  15    2.5657   498.4    4.071      35.066
2015   11        4    23  22    2.5669   498.2    4.078      35.071
2015   11        4    23  29    2.5680   498.0    4.085      35.076
2015   11        4    23  36    2.5692   497.8    4.093      35.082
2015   11        4    23  44    2.5706   497.7    4.100      35.088
2015   11        4    23  51    2.5716   497.5    4.108      35.095
2015   11        4    23  58    2.5730   497.3    4.115      35.102
2015   11        5     0   5    2.5743   497.1    4.122      35.109
2015   11        5     0  12    2.5754   497.0    4.129      35.116
2015   11        5     0  19    2.5768   496.8    4.137      35.124
2015   11        5     0  26    2.5782   496.6    4.144      35.132
2015   11        5     0  34    2.5795   496.4    4.152      35.140
2015   11        5     0  41    2.5809   496.3    4.159      35.148
2015   11        5     0  48    2.5821   496.1    4.167      35.156
2015   11        5     0  55    2.5837   496.0    4.174      35.165
2015   11        5     1   2    2.5850   495.8    4.182      35.175
2015   11        5     1   9    2.5864   495.6    4.190      35.185
2015   11        5     1  17    2.5879   495.5    4.197      35.196
2015   11        5     1  24    2.5895   495.4    4.205      35.208
2015   11        5     1  31    2.5909   495.2    4.213      35.219
2015   11        5     1  38    2.5924   495.1    4.220      35.231
2015   11        5     1  45    2.5939   494.9    4.228      35.244
2015   11        5     1  52    2.5952   494.8    4.236      35.257
2015   11        5     2   0    2.5968   494.7    4.243      35.270
2015   11        5     2   7    2.5981   494.5    4.251      35.283
2015   11        5     2  14    2.5995   494.4    4.258      35.297
2015   11        5     2  21    2.6011   494.3    4.266      35.310
2015   11        5     2  28    2.6024   494.1    4.273      35.323
2015   11        5     2  35    2.6037   494.0    4.280      35.337
2015   11        5     2  43    2.6050   493.9    4.287      35.350
2015   11        5     2  50    2.6065   493.8    4.294      35.364
2015   11        5     2  57    2.6077   493.7    4.301      35.377
2015   11        5     3   4    2.6090   493.5    4.308      35.390
2015   11        5     3  11    2.6103   493.4    4.314      35.404
2015   11        5     3  18    2.6116   493.3    4.320      35.416
2015   11        5     3  26    2.6129   493.2    4.327      35.429
2015   11        5     3  33    2.6143   493.1    4.333      35.441
2015   11        5     3  40    2.6155   493.0    4.338      35.453
2015   11        5     3  47    2.6167   492.8    4.344      35.464
2015   11        5     3  54    2.6179   492.7    4.350      35.474
2015   11        5     4   1    2.6193   492.6    4.355      35.484
2015   11        5     4   9    2.6205   492.5    4.361      35.492
2015   11        5     4  16    2.6217   492.4    4.366      35.501
2015   11        5     4  23    2.6230   492.3    4.371      35.508
2015   11        5     4  30    2.6241   492.2    4.376      35.515
2015   11        5     4  37    2.6253   492.1    4.381      35.521
2015   11        5     4  44    2.6266   492.0    4.386      35.527
2015   11        5     4  52    2.6279   491.8    4.391      35.532
2015   11        5     4  59    2.6291   491.7    4.396      35.536
2015   11        5     5   6    2.6302   491.6    4.401      35.541
2015   11        5     5  13    2.6315   491.5    4.406      35.544
2015   11        5     5  20    2.6328   491.4    4.410      35.548
2015   11        5     5  28    2.6339   491.3    4.415      35.551
2015   11        5     5  35    2.6352   491.2    4.420      35.554
2015   11        5     5  42    2.6365   491.1    4.425      35.557
2015   11        5     5  49    2.6377   491.0    4.429      35.560
2015   11        5     5  56    2.6389   490.9    4.434      35.563
2015   11        5     6   3    2.6402   490.8    4.439      35.566
2015   11        5     6  11    2.6414   490.7    4.444      35.568
2015   11        5     6  18    2.6427   490.6    4.449      35.571
2015   11        5     6  25    2.6440   490.5    4.454      35.575
2015   11        5     6  32    2.6452   490.4    4.459      35.579
2015   11        5     6  39    2.6465   490.3    4.463      35.583
2015   11        5     6  46    2.6477   490.2    4.468      35.588
2015   11        5     6  54    2.6490   490.1    4.473      35.593
2015   11        5     7   1    2.6502   490.0    4.478      35.599
2015   11        5     7   8    2.6515   489.9    4.483      35.605
2015   11        5     7  15    2.6527   489.8    4.488      35.611
2015   11        5     7  22    2.6538   489.8    4.493      35.617
2015   11        5     7  29    2.6551   489.7    4.497      35.624
2015   11        5     7  37    2.6563   489.6    4.502      35.630
2015   11        5     7  44    2.6574   489.5    4.507      35.637
2015   11        5     7  51    2.6586   489.4    4.512      35.643
2015   11        5     7  58    2.6597   489.3    4.517      35.650
2015   11        5     8   5    2.6609   489.2    4.522      35.657
2015   11        5     8  12    2.6620   489.1    4.526      35.664
2015   11        5     8  20    2.6631   489.1    4.531      35.672
2015   11        5     8  27    2.6643   489.0    4.536      35.681
2015   11        5     8  34    2.6654   488.9    4.540      35.689
2015   11        5     8  41    2.6665   488.8    4.545      35.698
2015   11        5     8  48    2.6676   488.7    4.550      35.707
2015   11        5     8  55    2.6686   488.7    4.554      35.715
2015   11        5     9   2    2.6696   488.6    4.558      35.724
2015   11        5     9  10    2.6707   488.5    4.563      35.733
2015   11        5     9  17    2.6716   488.4    4.567      35.741
2015   11        5     9  24    2.6726   488.4    4.571      35.748
2015   11        5     9  31    2.6736   488.3    4.575      35.755
2015   11        5     9  38    2.6744   488.2    4.578      35.762
2015   11        5     9  45    2.6752   488.1    4.582      35.768
2015   11        5     9  53    2.6761   488.0    4.586      35.774
2015   11        5    10   0    2.6769   488.0    4.589      35.780
2015   11        5    10   7    2.6776   487.9    4.592      35.785
2015   11        5    10  14    2.6783   487.8    4.596      35.789
2015   11        5    10  21    2.6791   487.7    4.599      35.793
2015   11        5    10  28    2.6799   487.6    4.602      35.797
2015   11        5    10  36    2.6806   487.6    4.605      35.800
2015   11        5    10  43    2.6812   487.5    4.607      35.803
2015   11        5    10  50    2.6819   487.4    4.610      35.805
2015   11        5    10  57    2.6825   487.3    4.613      35.806
2015   11        5    11   4    2.6832   487.2    4.615      35.808
2015   11        5    11  11    2.6838   487.2    4.618      35.808
2015   11        5    11  19    2.6844   487.1    4.620      35.808
2015   11        5    11  26    2.6850   487.0    4.623      35.808
2015   11        5    11  33    2.6856   486.9    4.625      35.807
2015   11        5    11  40    2.6861   486.8    4.628      35.805
2015   11        5    11  47    2.6867   486.7    4.630      35.804
2015   11        5    11  55    2.6874   486.7    4.632      35.801
2015   11        5    12   2    2.6879   486.6    4.635      35.799
2015   11        5    12   9    2.6885   486.5    4.637      35.796
2015   11        5    12  16    2.6890   486.4    4.639      35.792
2015   11        5    12  23    2.6896   486.3    4.641      35.788
2015   11        5    12  30    2.6901   486.2    4.644      35.784
2015   11        5    12  38    2.6907   486.2    4.646      35.780
2015   11        5    12  45    2.6911   486.1    4.648      35.775
2015   11        5    12  52    2.6917   486.0    4.650      35.770
2015   11        5    12  59    2.6922   485.9    4.653      35.765
2015   11        5    13   6    2.6928   485.8    4.655      35.760
2015   11        5    13  13    2.6932   485.7    4.657      35.755
2015   11        5    13  21    2.6938   485.7    4.659      35.749
2015   11        5    13  28    2.6942   485.6    4.661      35.743
2015   11        5    13  35    2.6947   485.5    4.663      35.737
2015   11        5    13  42    2.6951   485.4    4.666      35.731
2015   11        5    13  49    2.6956   485.3    4.668      35.724
2015   11        5    13  56    2.6961   485.2    4.670      35.718
2015   11        5    14   4    2.6965   485.2    4.672      35.712
2015   11        5    14  11    2.6970   485.1    4.674      35.705
2015   11        5    14  18    2.6974   485.0    4.676      35.699
2015   11        5    14  25    2.6978   484.9    4.678      35.692
2015   11        5    14  32    2.6982   484.8    4.681      35.686
2015   11        5    14  39    2.6986   484.7    4.683      35.680
2015   11        5    14  47    2.6990   484.6    4.685      35.674
2015   11        5    14  54    2.6994   484.6    4.687      35.668
2015   11        5    15   1    2.6998   484.5    4.689      35.662
2015   11        5    15   8    2.7002   484.4    4.691      35.657
2015   11        5    15  15    2.7006   484.3    4.693      35.651
2015   11        5    15  22    2.7010   484.2    4.696      35.646
2015   11        5    15  30    2.7014   484.1    4.698      35.641
2015   11        5    15  37    2.7018   484.1    4.700      35.636
2015   11        5    15  44    2.7022   484.0    4.702      35.632
2015   11        5    15  51    2.7026   483.9    4.705      35.628
2015   11        5    15  58    2.7030   483.8    4.707      35.624
2015   11        5    16   5    2.7034   483.7    4.709      35.620
2015   11        5    16  13    2.7038   483.7    4.712      35.617
2015   11        5    16  20    2.7042   483.6    4.714      35.613
2015   11        5    16  27    2.7045   483.5    4.716      35.610
2015   11        5    16  34    2.7049   483.4    4.718      35.607
2015   11        5    16  41    2.7052   483.3    4.721      35.603
2015   11        5    16  48    2.7055   483.3    4.723      35.600
2015   11        5    16  56    2.7058   483.2    4.725      35.597
2015   11        5    17   3    2.7062   483.1    4.727      35.594
2015   11        5    17  10    2.7064   483.0    4.729      35.591
2015   11        5    17  17    2.7066   482.9    4.731      35.588
2015   11        5    17  24    2.7069   482.9    4.733      35.585
2015   11        5    17  31    2.7072   482.8    4.735      35.582
2015   11        5    17  39    2.7075   482.7    4.737      35.578
2015   11        5    17  46    2.7076   482.6    4.739      35.575
2015   11        5    17  53    2.7079   482.5    4.741      35.571
2015   11        5    18   0    2.7081   482.5    4.742      35.567
2015   11        5    18   7    2.7084   482.4    4.744      35.563
2015   11        5    18  14    2.7085   482.3    4.746      35.558
2015   11        5    18  22    2.7087   482.2    4.748      35.553
2015   11        5    18  29    2.7089   482.1    4.750      35.548
2015   11        5    18  36    2.7092   482.0    4.752      35.543
2015   11        5    18  43    2.7094   481.9    4.753      35.538
2015   11        5    18  50    2.7096   481.9    4.755      35.532
2015   11        5    18  57    2.7098   481.8    4.757      35.527
2015   11        5    19   5    2.7100   481.7    4.759      35.521
2015   11        5    19  12    2.7102   481.6    4.761      35.515
2015   11        5    19  19    2.7104   481.5    4.763      35.509
2015   11        5    19  26    2.7106   481.4    4.765      35.502
2015   11        5    19  33    2.7108   481.3    4.768      35.496
2015   11        5    19  40    2.7110   481.2    4.770      35.489
2015   11        5    19  48    2.7112   481.2    4.772      35.482
2015   11        5    19  55    2.7114   481.1    4.774      35.475
2015   11        5    20   2    2.7116   481.0    4.776      35.468
2015   11        5    20   9    2.7117   480.9    4.779      35.460
2015   11        5    20  16    2.7120   480.8    4.781      35.453
2015   11        5    20  23    2.7121   480.7    4.783      35.445
2015   11        5    20  31    2.7123   480.6    4.785      35.437
2015   11        5    20  38    2.7125   480.5    4.788      35.428
2015   11        5    20  45    2.7127   480.4    4.790      35.419
2015   11        5    20  52    2.7128   480.3    4.792      35.410
2015   11        5    20  59    2.7130   480.2    4.794      35.401
2015   11        5    21   7    2.7131   480.2    4.797      35.392
2015   11        5    21  14    2.7132   480.1    4.799      35.382
2015   11        5    21  21    2.7134   480.0    4.801      35.373
2015   11        5    21  28    2.7135   479.9    4.803      35.363
2015   11        5    21  35    2.7136   479.8    4.805      35.353
2015   11        5    21  42    2.7138   479.7    4.807      35.342
2015   11        5    21  50    2.7139   479.6    4.809      35.332
2015   11        5    21  57    2.7140   479.5    4.811      35.322
2015   11        5    22   4    2.7141   479.4    4.812      35.311
2015   11        5    22  11    2.7142   479.3    4.814      35.300
2015   11        5    22  18    2.7143   479.2    4.816      35.290
2015   11        5    22  25    2.7144   479.1    4.818      35.279
2015   11        5    22  32    2.7145   479.0    4.819      35.269
2015   11        5    22  40    2.7146   478.9    4.821      35.258
2015   11        5    22  47    2.7148   478.8    4.823      35.248
2015   11        5    22  54    2.7149   478.7    4.824      35.238
2015   11        5    23   1    2.7150   478.6    4.826      35.227
2015   11        5    23   8    2.7151   478.5    4.827      35.217
2015   11        5    23  15    2.7151   478.4    4.828      35.207
2015   11        5    23  23    2.7153   478.3    4.830      35.197
2015   11        5    23  30    2.7153   478.2    4.831      35.187
2015   11        5    23  37    2.7154   478.1    4.832      35.177
2015   11        5    23  44    2.7155   478.0    4.833      35.167
2015   11        5    23  51    2.7155   478.0    4.834      35.157
2015   11        5    23  58    2.7156   477.9    4.835      35.146
2015   11        6     0   6    2.7156   477.8    4.836      35.136
2015   11        6     0  13    2.7157   477.7    4.837      35.125
2015   11        6     0  20    2.7157   477.6    4.838      35.114
2015   11        6     0  27    2.7158   477.5    4.839      35.103
2015   11        6     0  34    2.7158   477.4    4.840      35.092
2015   11        6     0  41    2.7158   477.3    4.841      35.080
2015   11        6     0  49    2.7158   477.2    4.842      35.069
2015   11        6     0  56    2.7159   477.1    4.843      35.057
2015   11        6     1   3    2.7159   477.0    4.843      35.045
2015   11        6     1  10    2.7159   476.9    4.844      35.033
2015   11        6     1  17    2.7159   476.8    4.845      35.020
2015   11        6     1  24    2.7159   476.7    4.846      35.008
2015   11        6     1  32    2.7159   476.6    4.846      34.996
2015   11        6     1  39    2.7159   476.5    4.847      34.983
2015   11        6     1  46    2.7159   476.4    4.848      34.970
2015   11        6     1  53    2.7159   476.3    4.849      34.957
2015   11        6     2   0    2.7159   476.2    4.849      34.944
2015   11        6     2   7    2.7159   476.1    4.850      34.931
2015   11        6     2  15    2.7159   476.0    4.851      34.918
2015   11        6     2  22    2.7159   475.9    4.852      34.905
2015   11        6     2  29    2.7159   475.8    4.853      34.892
2015   11        6     2  36    2.7158   475.7    4.854      34.878
2015   11        6     2  43    2.7158   475.6    4.855      34.865
2015   11        6     2  50    2.7158   475.5    4.856      34.851
2015   11        6     2  58    2.7158   475.4    4.857      34.838
2015   11        6     3   5    2.7157   475.3    4.858      34.824
2015   11        6     3  12    2.7158   475.2    4.859      34.810
2015   11        6     3  19    2.7157   475.1    4.861      34.797
2015   11        6     3  26    2.7157   475.0    4.862      34.783
2015   11        6     3  34    2.7157   474.9    4.863      34.769
2015   11        6     3  41    2.7157   474.8    4.865      34.755
2015   11        6     3  48    2.7157   474.7    4.866      34.741
2015   11        6     3  55    2.7157   474.6    4.868      34.727
2015   11        6     4   2    2.7157   474.5    4.869      34.713
2015   11        6     4   9    2.7157   474.4    4.871      34.699
2015   11        6     4  17    2.7157   474.3    4.872      34.685
2015   11        6     4  24    2.7157   474.2    4.874      34.671
2015   11        6     4  31    2.7157   474.1    4.876      34.657
2015   11        6     4  38    2.7157   474.0    4.878      34.643
2015   11        6     4  45    2.7157   473.9    4.879      34.629
2015   11        6     4  52    2.7157   473.8    4.881      34.615
2015   11        6     5   0    2.7157   473.7    4.883      34.600
2015   11        6     5   7    2.7157   473.5    4.885      34.586
2015   11        6     5  14    2.7157   473.4    4.886      34.572
2015   11        6     5  21    2.7158   473.3    4.888      34.558
2015   11        6     5  28    2.7158   473.2    4.890      34.544
2015   11        6     5  35    2.7158   473.1    4.892      34.530
2015   11        6     5  43    2.7159   473.0    4.894      34.516
2015   11        6     5  50    2.7159   472.9    4.896      34.502
2015   11        6     5  57    2.7159   472.8    4.897      34.489
2015   11        6     6   4    2.7160   472.6    4.899      34.475
2015   11        6     6  11    2.7161   472.5    4.901      34.461
2015   11        6     6  18    2.7161   472.4    4.903      34.448
2015   11        6     6  26    2.7162   472.3    4.905      34.434
2015   11        6     6  33    2.7163   472.2    4.907      34.420
2015   11        6     6  40    2.7163   472.1    4.908      34.407
2015   11        6     6  47    2.7164   472.0    4.910      34.393
2015   11        6     6  54    2.7165   471.8    4.912      34.379
2015   11        6     7   1    2.7165   471.7    4.914      34.365
2015   11        6     7   8    2.7166   471.6    4.915      34.351
2015   11        6     7  16    2.7167   471.5    4.917      34.337
2015   11        6     7  23    2.7168   471.4    4.919      34.322
2015   11        6     7  30    2.7168   471.3    4.920      34.308
2015   11        6     7  37    2.7169   471.1    4.922      34.293
2015   11        6     7  44    2.7170   471.0    4.924      34.278
2015   11        6     7  51    2.7171   470.9    4.925      34.264
2015   11        6     7  59    2.7172   470.8    4.927      34.249
2015   11        6     8   6    2.7172   470.7    4.928      34.234
2015   11        6     8  13    2.7173   470.5    4.930      34.219
2015   11        6     8  20    2.7174   470.4    4.931      34.204
2015   11        6     8  27    2.7175   470.3    4.932      34.188
2015   11        6     8  34    2.7176   470.2    4.934      34.173
2015   11        6     8  42    2.7177   470.1    4.935      34.158
2015   11        6     8  49    2.7178   469.9    4.936      34.143
2015   11        6     8  56    2.7179   469.8    4.938      34.127
2015   11        6     9   3    2.7180   469.7    4.939      34.112
2015   11        6     9  10    2.7181   469.6    4.940      34.096
2015   11        6     9  17    2.7182   469.5    4.941      34.080
2015   11        6     9  25    2.7184   469.3    4.943      34.065
2015   11        6     9  32    2.7185   469.2    4.944      34.049
2015   11        6     9  39    2.7186   469.1    4.945      34.033
2015   11        6     9  46    2.7187   469.0    4.946      34.017
2015   11        6     9  53    2.7188   468.8    4.947      34.001
2015   11        6    10   1    2.7189   468.7    4.948      33.985
2015   11        6    10   8    2.7190   468.6    4.949      33.968
2015   11        6    10  15    2.7191   468.5    4.950      33.952
2015   11        6    10  22    2.7192   468.4    4.951      33.935
2015   11        6    10  29    2.7193   468.2    4.952      33.919
2015   11        6    10  36    2.7194   468.1    4.953      33.902
2015   11        6    10  44    2.7195   468.0    4.953      33.886
2015   11        6    10  51    2.7196   467.9    4.954      33.869
2015   11        6    10  58    2.7197   467.7    4.955      33.852
2015   11        6    11   5    2.7199   467.6    4.956      33.836
2015   11        6    11  12    2.7200   467.5    4.957      33.819
2015   11        6    11  20    2.7201   467.4    4.958      33.802
2015   11        6    11  27    2.7203   467.2    4.959      33.785
2015   11        6    11  34    2.7204   467.1    4.960      33.769
2015   11        6    11  41    2.7206   467.0    4.962      33.752
2015   11        6    11  48    2.7207   466.8    4.963      33.736
2015   11        6    11  55    2.7209   466.7    4.964      33.719
2015   11        6    12   2    2.7211   466.6    4.965      33.703
2015   11        6    12  10    2.7213   466.5    4.967      33.687
2015   11        6    12  17    2.7215   466.3    4.968      33.670
2015   11        6    12  24    2.7218   466.2    4.970      33.654
2015   11        6    12  31    2.7220   466.1    4.972      33.638
2015   11        6    12  38    2.7223   466.0    4.973      33.622
2015   11        6    12  45    2.7225   465.8    4.975      33.606
2015   11        6    12  53    2.7228   465.7    4.977      33.590
2015   11        6    13   0    2.7231   465.6    4.979      33.575
2015   11        6    13   7    2.7234   465.4    4.981      33.559
2015   11        6    13  14    2.7237   465.3    4.983      33.543
2015   11        6    13  21    2.7240   465.2    4.985      33.528
2015   11        6    13  28    2.7244   465.1    4.987      33.512
2015   11        6    13  36    2.7247   464.9    4.990      33.497
2015   11        6    13  43    2.7251   464.8    4.992      33.481
2015   11        6    13  50    2.7254   464.7    4.995      33.466
2015   11        6    13  57    2.7258   464.5    4.997      33.451
2015   11        6    14   4    2.7262   464.4    5.000      33.436
2015   11        6    14  11    2.7266   464.3    5.003      33.420
2015   11        6    14  19    2.7270   464.1    5.005      33.405
2015   11        6    14  26    2.7275   464.0    5.008      33.390
2015   11        6    14  33    2.7279   463.9    5.011      33.375
2015   11        6    14  40    2.7283   463.7    5.014      33.360
2015   11        6    14  47    2.7288   463.6    5.017      33.346
2015   11        6    14  54    2.7293   463.5    5.020      33.331
2015   11        6    15   2    2.7297   463.3    5.023      33.316
2015   11        6    15   9    2.7302   463.2    5.026      33.301
2015   11        6    15  16    2.7307   463.1    5.029      33.286
2015   11        6    15  23    2.7312   462.9    5.032      33.272
2015   11        6    15  30    2.7317   462.8    5.035      33.257
2015   11        6    15  37    2.7322   462.6    5.038      33.243
2015   11        6    15  45    2.7328   462.5    5.041      33.228
2015   11        6    15  52    2.7333   462.4    5.044      33.214
2015   11        6    15  59    2.7338   462.2    5.048      33.200
2015   11        6    16   6    2.7344   462.1    5.051      33.185
2015   11        6    16  13    2.7350   461.9    5.054      33.171
2015   11        6    16  20    2.7355   461.8    5.057      33.157
2015   11        6    16  28    2.7361   461.7    5.060      33.143
2015   11        6    16  35    2.7367   461.5    5.063      33.129
2015   11        6    16  42    2.7373   461.4    5.067      33.115
2015   11        6    16  49    2.7379   461.2    5.070      33.102
2015   11        6    16  56    2.7385   461.1    5.073      33.088
2015   11        6    17   3    2.7392   460.9    5.076      33.074
2015   11        6    17  11    2.7398   460.8    5.079      33.061
2015   11        6    17  18    2.7404   460.6    5.082      33.047
2015   11        6    17  25    2.7410   460.5    5.085      33.034
2015   11        6    17  32    2.7416   460.4    5.088      33.020
2015   11        6    17  39    2.7423   460.2    5.091      33.007
2015   11        6    17  46    2.7429   460.1    5.094      32.993
2015   11        6    17  54    2.7436   459.9    5.097      32.980
2015   11        6    18   1    2.7443   459.8    5.100      32.967
2015   11        6    18   8    2.7450   459.6    5.103      32.953
2015   11        6    18  15    2.7457   459.5    5.106      32.940
2015   11        6    18  22    2.7464   459.3    5.109      32.926
2015   11        6    18  30    2.7471   459.2    5.112      32.913
2015   11        6    18  37    2.7479   459.0    5.114      32.900
2015   11        6    18  44    2.7486   458.9    5.117      32.886
2015   11        6    18  51    2.7494   458.7    5.120      32.873
2015   11        6    18  58    2.7502   458.6    5.123      32.860
2015   11        6    19   5    2.7510   458.4    5.126      32.847
2015   11        6    19  13    2.7518   458.3    5.128      32.834
2015   11        6    19  20    2.7527   458.1    5.131      32.821
2015   11        6    19  27    2.7535   458.0    5.134      32.807
2015   11        6    19  34    2.7544   457.8    5.137      32.794
2015   11        6    19  41    2.7553   457.7    5.140      32.781
2015   11        6    19  48    2.7563   457.5    5.143      32.769
2015   11        6    19  56    2.7572   457.4    5.146      32.756
2015   11        6    20   3    2.7582   457.2    5.149      32.743
2015   11        6    20  10    2.7592   457.1    5.152      32.731
2015   11        6    20  17    2.7603   456.9    5.156      32.718
2015   11        6    20  24    2.7613   456.8    5.159      32.706
2015   11        6    20  31    2.7624   456.6    5.163      32.694
2015   11        6    20  38    2.7636   456.5    5.166      32.682
2015   11        6    20  46    2.7648   456.3    5.170      32.671
2015   11        6    20  53    2.7661   456.2    5.174      32.660
2015   11        6    21   0    2.7672   456.0    5.178      32.649
2015   11        6    21   7    2.7685   455.9    5.182      32.638
2015   11        6    21  14    2.7699   455.7    5.186      32.628
2015   11        6    21  21    2.7712   455.6    5.190      32.618
2015   11        6    21  29    2.7725   455.4    5.195      32.608
2015   11        6    21  36    2.7740   455.3    5.199      32.599
2015   11        6    21  43    2.7754   455.1    5.204      32.590
2015   11        6    21  50    2.7770   455.0    5.209      32.581
2015   11        6    21  57    2.7785   454.8    5.214      32.573
2015   11        6    22   4    2.7800   454.7    5.220      32.565
2015   11        6    22  12    2.7817   454.5    5.225      32.558
2015   11        6    22  19    2.7833   454.4    5.231      32.551
2015   11        6    22  26    2.7849   454.2    5.236      32.544
2015   11        6    22  33    2.7866   454.1    5.242      32.538
2015   11        6    22  40    2.7883   453.9    5.248      32.532
2015   11        6    22  47    2.7901   453.8    5.254      32.527
2015   11        6    22  55    2.7917   453.6    5.261      32.522
2015   11        6    23   2    2.7934   453.5    5.267      32.517
2015   11        6    23   9    2.7952   453.4    5.273      32.513
2015   11        6    23  16    2.7969   453.2    5.280      32.510
2015   11        6    23  23    2.7988   453.1    5.286      32.507
2015   11        6    23  30    2.8005   452.9    5.292      32.504
2015   11        6    23  38    2.8023   452.8    5.299      32.501
2015   11        6    23  45    2.8040   452.7    5.305      32.499
2015   11        6    23  52    2.8057   452.5    5.311      32.497
2015   11        6    23  59    2.8075   452.4    5.318      32.495
2015   11        7     0   6    2.8093   452.2    5.324      32.493
