year    month   day   hour  minute  B_enl V_enl   n_enl       T_enl
[year] [month] [day] [hour][minute] [nT]  [km/s]  [cm-3]      [kK]
2015   10       26     0   4    2.5606   463.5    4.587      32.157
2015   10       26     0  12    2.5604   463.4    4.589      32.145
2015   10       26     0  19    2.5602   463.3    4.591      32.132
2015   10       26     0  26    2.5600   463.1    4.593      32.120
2015   10       26     0  33    2.5598   463.0    4.595      32.108
2015   10       26     0  40    2.5596   462.9    4.597      32.096
2015   10       26     0  47    2.5593   462.7    4.600      32.083
2015   10       26     0  54    2.5591   462.6    4.602      32.071
2015   10       26     1   1    2.5588   462.5    4.604      32.059
2015   10       26     1   9    2.5585   462.3    4.606      32.047
2015   10       26     1  16    2.5583   462.2    4.608      32.034
2015   10       26     1  23    2.5580   462.1    4.610      32.022
2015   10       26     1  30    2.5577   462.0    4.612      32.009
2015   10       26     1  37    2.5574   461.8    4.614      31.996
2015   10       26     1  44    2.5570   461.7    4.616      31.983
2015   10       26     1  51    2.5567   461.6    4.618      31.970
2015   10       26     1  58    2.5564   461.4    4.619      31.957
2015   10       26     2   6    2.5560   461.3    4.621      31.943
2015   10       26     2  13    2.5556   461.2    4.623      31.930
2015   10       26     2  20    2.5553   461.0    4.624      31.916
2015   10       26     2  27    2.5549   460.9    4.626      31.902
2015   10       26     2  34    2.5545   460.8    4.627      31.887
2015   10       26     2  41    2.5541   460.6    4.629      31.873
2015   10       26     2  48    2.5537   460.5    4.630      31.858
2015   10       26     2  55    2.5533   460.4    4.632      31.843
2015   10       26     3   3    2.5528   460.2    4.633      31.828
2015   10       26     3  10    2.5524   460.1    4.634      31.813
2015   10       26     3  17    2.5520   460.0    4.636      31.798
2015   10       26     3  24    2.5515   459.9    4.637      31.782
2015   10       26     3  31    2.5511   459.7    4.638      31.767
2015   10       26     3  38    2.5506   459.6    4.639      31.751
2015   10       26     3  45    2.5501   459.5    4.641      31.735
2015   10       26     3  52    2.5497   459.3    4.642      31.719
2015   10       26     4   0    2.5492   459.2    4.643      31.703
2015   10       26     4   7    2.5487   459.1    4.644      31.686
2015   10       26     4  14    2.5482   458.9    4.645      31.670
2015   10       26     4  21    2.5477   458.8    4.646      31.654
2015   10       26     4  28    2.5472   458.7    4.647      31.637
2015   10       26     4  35    2.5467   458.5    4.648      31.621
2015   10       26     4  42    2.5462   458.4    4.650      31.605
2015   10       26     4  50    2.5457   458.2    4.651      31.588
2015   10       26     4  57    2.5452   458.1    4.652      31.572
2015   10       26     5   4    2.5448   458.0    4.653      31.556
2015   10       26     5  11    2.5443   457.8    4.654      31.540
2015   10       26     5  18    2.5438   457.7    4.656      31.524
2015   10       26     5  25    2.5433   457.5    4.657      31.508
2015   10       26     5  32    2.5429   457.4    4.658      31.493
2015   10       26     5  39    2.5424   457.3    4.660      31.477
2015   10       26     5  47    2.5420   457.1    4.661      31.462
2015   10       26     5  54    2.5415   457.0    4.663      31.447
2015   10       26     6   1    2.5410   456.8    4.665      31.432
2015   10       26     6   8    2.5406   456.7    4.666      31.418
2015   10       26     6  15    2.5402   456.6    4.668      31.403
2015   10       26     6  22    2.5397   456.4    4.670      31.389
2015   10       26     6  29    2.5393   456.3    4.671      31.375
2015   10       26     6  37    2.5388   456.2    4.673      31.362
2015   10       26     6  44    2.5384   456.0    4.675      31.348
2015   10       26     6  51    2.5380   455.9    4.677      31.335
2015   10       26     6  58    2.5375   455.7    4.679      31.322
2015   10       26     7   5    2.5371   455.6    4.681      31.308
2015   10       26     7  12    2.5366   455.5    4.682      31.295
2015   10       26     7  19    2.5362   455.3    4.684      31.282
2015   10       26     7  26    2.5357   455.2    4.686      31.269
2015   10       26     7  34    2.5353   455.1    4.688      31.256
2015   10       26     7  41    2.5348   454.9    4.690      31.243
2015   10       26     7  48    2.5343   454.8    4.692      31.230
2015   10       26     7  55    2.5338   454.6    4.693      31.217
2015   10       26     8   2    2.5333   454.5    4.695      31.203
2015   10       26     8   9    2.5327   454.4    4.697      31.190
2015   10       26     8  16    2.5322   454.2    4.698      31.176
2015   10       26     8  23    2.5316   454.1    4.700      31.162
2015   10       26     8  31    2.5311   454.0    4.702      31.148
2015   10       26     8  38    2.5305   453.8    4.703      31.134
2015   10       26     8  45    2.5299   453.7    4.705      31.120
2015   10       26     8  52    2.5293   453.6    4.706      31.106
2015   10       26     8  59    2.5287   453.4    4.707      31.091
2015   10       26     9   6    2.5281   453.3    4.709      31.076
2015   10       26     9  13    2.5274   453.2    4.710      31.061
2015   10       26     9  20    2.5268   453.0    4.711      31.046
2015   10       26     9  28    2.5262   452.9    4.712      31.030
2015   10       26     9  35    2.5255   452.8    4.713      31.014
2015   10       26     9  42    2.5248   452.6    4.714      30.998
2015   10       26     9  49    2.5242   452.5    4.716      30.982
2015   10       26     9  56    2.5235   452.4    4.717      30.965
2015   10       26    10   3    2.5228   452.2    4.718      30.949
2015   10       26    10  10    2.5221   452.1    4.719      30.932
2015   10       26    10  17    2.5213   451.9    4.719      30.915
2015   10       26    10  25    2.5206   451.8    4.720      30.898
2015   10       26    10  32    2.5199   451.7    4.721      30.880
2015   10       26    10  39    2.5191   451.5    4.722      30.863
2015   10       26    10  46    2.5184   451.4    4.723      30.845
2015   10       26    10  53    2.5176   451.3    4.724      30.828
2015   10       26    11   0    2.5169   451.1    4.725      30.810
2015   10       26    11   7    2.5161   451.0    4.726      30.792
2015   10       26    11  15    2.5154   450.8    4.727      30.774
2015   10       26    11  22    2.5146   450.7    4.727      30.756
2015   10       26    11  29    2.5138   450.6    4.728      30.739
2015   10       26    11  36    2.5131   450.4    4.729      30.721
2015   10       26    11  43    2.5123   450.3    4.730      30.703
2015   10       26    11  50    2.5116   450.1    4.731      30.686
2015   10       26    11  57    2.5108   450.0    4.732      30.669
2015   10       26    12   4    2.5101   449.9    4.734      30.651
2015   10       26    12  12    2.5093   449.7    4.735      30.634
2015   10       26    12  19    2.5085   449.6    4.736      30.618
2015   10       26    12  26    2.5078   449.4    4.737      30.601
2015   10       26    12  33    2.5070   449.3    4.739      30.585
2015   10       26    12  40    2.5063   449.1    4.740      30.568
2015   10       26    12  47    2.5055   449.0    4.741      30.552
2015   10       26    12  54    2.5048   448.9    4.743      30.536
2015   10       26    13   2    2.5040   448.7    4.744      30.520
2015   10       26    13   9    2.5033   448.6    4.746      30.505
2015   10       26    13  16    2.5025   448.4    4.747      30.489
2015   10       26    13  23    2.5018   448.3    4.749      30.473
2015   10       26    13  30    2.5010   448.1    4.751      30.457
2015   10       26    13  37    2.5002   448.0    4.752      30.442
2015   10       26    13  44    2.4994   447.9    4.754      30.426
2015   10       26    13  51    2.4986   447.7    4.755      30.411
2015   10       26    13  59    2.4978   447.6    4.757      30.395
2015   10       26    14   6    2.4970   447.4    4.758      30.380
2015   10       26    14  13    2.4962   447.3    4.760      30.364
2015   10       26    14  20    2.4954   447.1    4.761      30.348
2015   10       26    14  27    2.4945   447.0    4.763      30.332
2015   10       26    14  34    2.4937   446.8    4.764      30.316
2015   10       26    14  41    2.4928   446.7    4.765      30.299
2015   10       26    14  49    2.4920   446.5    4.767      30.283
2015   10       26    14  56    2.4911   446.4    4.768      30.266
2015   10       26    15   3    2.4902   446.3    4.769      30.250
2015   10       26    15  10    2.4893   446.1    4.770      30.233
2015   10       26    15  17    2.4884   446.0    4.771      30.215
2015   10       26    15  24    2.4875   445.8    4.772      30.198
2015   10       26    15  31    2.4866   445.7    4.774      30.180
2015   10       26    15  38    2.4857   445.5    4.775      30.162
2015   10       26    15  46    2.4847   445.4    4.776      30.144
2015   10       26    15  53    2.4838   445.2    4.777      30.126
2015   10       26    16   0    2.4828   445.1    4.778      30.107
2015   10       26    16   7    2.4819   444.9    4.779      30.089
2015   10       26    16  14    2.4809   444.8    4.779      30.070
2015   10       26    16  21    2.4799   444.6    4.780      30.051
2015   10       26    16  28    2.4789   444.5    4.781      30.032
2015   10       26    16  35    2.4779   444.3    4.782      30.013
2015   10       26    16  43    2.4769   444.2    4.783      29.994
2015   10       26    16  50    2.4759   444.0    4.784      29.974
2015   10       26    16  57    2.4749   443.9    4.785      29.955
2015   10       26    17   4    2.4739   443.7    4.786      29.936
2015   10       26    17  11    2.4729   443.6    4.787      29.916
2015   10       26    17  18    2.4719   443.4    4.788      29.897
2015   10       26    17  25    2.4709   443.3    4.789      29.878
2015   10       26    17  32    2.4699   443.1    4.789      29.858
2015   10       26    17  40    2.4688   443.0    4.790      29.838
2015   10       26    17  47    2.4678   442.8    4.791      29.819
2015   10       26    17  54    2.4668   442.7    4.792      29.800
2015   10       26    18   1    2.4657   442.5    4.793      29.780
2015   10       26    18   8    2.4647   442.3    4.794      29.761
2015   10       26    18  15    2.4636   442.2    4.795      29.741
2015   10       26    18  22    2.4626   442.0    4.796      29.722
2015   10       26    18  29    2.4615   441.9    4.797      29.703
2015   10       26    18  37    2.4605   441.7    4.798      29.683
2015   10       26    18  44    2.4594   441.6    4.799      29.664
2015   10       26    18  51    2.4583   441.4    4.800      29.645
2015   10       26    18  58    2.4573   441.3    4.801      29.626
2015   10       26    19   5    2.4562   441.1    4.802      29.607
2015   10       26    19  12    2.4551   440.9    4.803      29.587
2015   10       26    19  19    2.4540   440.8    4.805      29.569
2015   10       26    19  27    2.4529   440.6    4.806      29.550
2015   10       26    19  34    2.4519   440.5    4.807      29.531
2015   10       26    19  41    2.4508   440.3    4.808      29.512
2015   10       26    19  48    2.4497   440.2    4.809      29.493
2015   10       26    19  55    2.4486   440.0    4.810      29.474
2015   10       26    20   2    2.4475   439.8    4.811      29.456
2015   10       26    20   9    2.4464   439.7    4.812      29.436
2015   10       26    20  16    2.4452   439.5    4.813      29.418
2015   10       26    20  24    2.4441   439.4    4.814      29.398
2015   10       26    20  31    2.4430   439.2    4.815      29.379
2015   10       26    20  38    2.4418   439.0    4.817      29.360
2015   10       26    20  45    2.4407   438.9    4.818      29.340
2015   10       26    20  52    2.4395   438.7    4.819      29.320
2015   10       26    20  59    2.4383   438.6    4.819      29.301
2015   10       26    21   6    2.4371   438.4    4.820      29.280
2015   10       26    21  14    2.4359   438.2    4.821      29.260
2015   10       26    21  21    2.4347   438.1    4.822      29.240
2015   10       26    21  28    2.4335   437.9    4.823      29.219
2015   10       26    21  35    2.4323   437.8    4.824      29.198
2015   10       26    21  42    2.4310   437.6    4.824      29.177
2015   10       26    21  49    2.4298   437.4    4.825      29.156
2015   10       26    21  56    2.4286   437.3    4.826      29.134
2015   10       26    22   3    2.4273   437.1    4.827      29.113
2015   10       26    22  11    2.4261   436.9    4.827      29.091
2015   10       26    22  18    2.4248   436.8    4.828      29.069
2015   10       26    22  25    2.4235   436.6    4.828      29.047
2015   10       26    22  32    2.4223   436.4    4.829      29.024
2015   10       26    22  39    2.4210   436.3    4.830      29.002
2015   10       26    22  46    2.4197   436.1    4.830      28.979
2015   10       26    22  53    2.4184   436.0    4.831      28.956
2015   10       26    23   0    2.4171   435.8    4.831      28.934
2015   10       26    23   8    2.4158   435.6    4.832      28.911
2015   10       26    23  15    2.4145   435.4    4.833      28.888
2015   10       26    23  22    2.4132   435.3    4.833      28.864
2015   10       26    23  29    2.4119   435.1    4.834      28.841
2015   10       26    23  36    2.4106   434.9    4.834      28.818
2015   10       26    23  43    2.4093   434.8    4.835      28.795
2015   10       26    23  50    2.4079   434.6    4.836      28.771
2015   10       26    23  57    2.4066   434.4    4.836      28.748
2015   10       27     0   5    2.4053   434.3    4.837      28.725
2015   10       27     0  12    2.4040   434.1    4.838      28.702
2015   10       27     0  19    2.4026   433.9    4.839      28.679
2015   10       27     0  26    2.4013   433.7    4.840      28.656
2015   10       27     0  33    2.4000   433.6    4.841      28.633
2015   10       27     0  40    2.3987   433.4    4.842      28.610
2015   10       27     0  47    2.3974   433.2    4.843      28.587
2015   10       27     0  55    2.3961   433.0    4.844      28.564
2015   10       27     1   2    2.3948   432.9    4.845      28.542
2015   10       27     1   9    2.3935   432.7    4.846      28.519
2015   10       27     1  16    2.3921   432.5    4.847      28.497
2015   10       27     1  23    2.3908   432.3    4.848      28.475
2015   10       27     1  30    2.3895   432.2    4.849      28.453
2015   10       27     1  37    2.3882   432.0    4.851      28.430
2015   10       27     1  44    2.3869   431.8    4.852      28.408
2015   10       27     1  52    2.3856   431.6    4.853      28.386
2015   10       27     1  59    2.3843   431.4    4.855      28.364
2015   10       27     2   6    2.3829   431.3    4.856      28.342
2015   10       27     2  13    2.3816   431.1    4.857      28.320
2015   10       27     2  20    2.3803   430.9    4.858      28.298
2015   10       27     2  27    2.3789   430.7    4.860      28.276
2015   10       27     2  34    2.3776   430.5    4.861      28.254
2015   10       27     2  41    2.3762   430.4    4.862      28.232
2015   10       27     2  49    2.3749   430.2    4.864      28.210
2015   10       27     2  56    2.3735   430.0    4.865      28.187
2015   10       27     3   3    2.3721   429.8    4.866      28.165
2015   10       27     3  10    2.3708   429.6    4.867      28.142
2015   10       27     3  17    2.3694   429.4    4.868      28.120
2015   10       27     3  24    2.3680   429.3    4.870      28.097
2015   10       27     3  31    2.3666   429.1    4.871      28.075
2015   10       27     3  39    2.3653   428.9    4.872      28.052
2015   10       27     3  46    2.3639   428.7    4.873      28.029
2015   10       27     3  53    2.3625   428.5    4.874      28.006
2015   10       27     4   0    2.3611   428.3    4.875      27.982
2015   10       27     4   7    2.3597   428.2    4.876      27.959
2015   10       27     4  14    2.3583   428.0    4.877      27.936
2015   10       27     4  21    2.3569   427.8    4.878      27.912
2015   10       27     4  28    2.3555   427.6    4.879      27.889
2015   10       27     4  36    2.3541   427.4    4.880      27.865
2015   10       27     4  43    2.3527   427.2    4.881      27.841
2015   10       27     4  50    2.3513   427.1    4.882      27.817
2015   10       27     4  57    2.3499   426.9    4.883      27.793
2015   10       27     5   4    2.3485   426.7    4.884      27.769
2015   10       27     5  11    2.3471   426.5    4.885      27.745
2015   10       27     5  18    2.3457   426.3    4.886      27.721
2015   10       27     5  26    2.3443   426.1    4.886      27.697
2015   10       27     5  33    2.3428   425.9    4.887      27.673
2015   10       27     5  40    2.3414   425.7    4.888      27.648
2015   10       27     5  47    2.3400   425.6    4.889      27.624
2015   10       27     5  54    2.3386   425.4    4.890      27.599
2015   10       27     6   1    2.3372   425.2    4.891      27.575
2015   10       27     6   8    2.3357   425.0    4.892      27.550
2015   10       27     6  15    2.3343   424.8    4.892      27.525
2015   10       27     6  22    2.3329   424.6    4.893      27.501
2015   10       27     6  30    2.3315   424.4    4.894      27.476
2015   10       27     6  37    2.3300   424.2    4.895      27.451
2015   10       27     6  44    2.3286   424.0    4.896      27.426
2015   10       27     6  51    2.3271   423.9    4.897      27.401
2015   10       27     6  58    2.3257   423.7    4.898      27.375
2015   10       27     7   5    2.3243   423.5    4.899      27.350
2015   10       27     7  12    2.3228   423.3    4.899      27.325
2015   10       27     7  20    2.3214   423.1    4.900      27.299
2015   10       27     7  27    2.3199   422.9    4.901      27.274
2015   10       27     7  34    2.3185   422.7    4.902      27.248
2015   10       27     7  41    2.3170   422.5    4.903      27.223
2015   10       27     7  48    2.3156   422.3    4.904      27.197
2015   10       27     7  55    2.3141   422.1    4.905      27.171
2015   10       27     8   2    2.3127   421.9    4.906      27.145
2015   10       27     8   9    2.3112   421.7    4.907      27.120
2015   10       27     8  17    2.3098   421.5    4.908      27.094
2015   10       27     8  24    2.3083   421.3    4.909      27.068
2015   10       27     8  31    2.3069   421.1    4.910      27.042
2015   10       27     8  38    2.3054   420.9    4.911      27.016
2015   10       27     8  45    2.3040   420.8    4.912      26.990
2015   10       27     8  52    2.3026   420.6    4.913      26.964
2015   10       27     8  59    2.3011   420.4    4.914      26.938
2015   10       27     9   6    2.2997   420.2    4.915      26.912
2015   10       27     9  14    2.2982   420.0    4.916      26.885
2015   10       27     9  21    2.2968   419.8    4.917      26.859
2015   10       27     9  28    2.2954   419.6    4.918      26.833
2015   10       27     9  35    2.2939   419.4    4.919      26.807
2015   10       27     9  42    2.2925   419.2    4.921      26.780
2015   10       27     9  49    2.2911   419.0    4.922      26.754
2015   10       27     9  56    2.2896   418.8    4.923      26.728
2015   10       27    10   3    2.2882   418.5    4.924      26.702
2015   10       27    10  11    2.2868   418.3    4.925      26.675
2015   10       27    10  18    2.2854   418.1    4.927      26.649
2015   10       27    10  25    2.2839   417.9    4.928      26.623
2015   10       27    10  32    2.2825   417.7    4.929      26.597
2015   10       27    10  39    2.2811   417.5    4.930      26.571
2015   10       27    10  46    2.2797   417.3    4.932      26.544
2015   10       27    10  53    2.2783   417.1    4.933      26.518
2015   10       27    11   1    2.2769   416.9    4.935      26.492
2015   10       27    11   8    2.2755   416.7    4.936      26.466
2015   10       27    11  15    2.2741   416.5    4.937      26.441
2015   10       27    11  22    2.2727   416.3    4.939      26.415
2015   10       27    11  29    2.2713   416.1    4.940      26.389
2015   10       27    11  36    2.2700   415.9    4.942      26.364
2015   10       27    11  43    2.2686   415.7    4.943      26.338
2015   10       27    11  50    2.2673   415.5    4.945      26.313
2015   10       27    11  58    2.2659   415.3    4.947      26.288
2015   10       27    12   5    2.2646   415.1    4.948      26.262
2015   10       27    12  12    2.2632   414.9    4.950      26.237
2015   10       27    12  19    2.2619   414.6    4.952      26.212
2015   10       27    12  26    2.2606   414.4    4.953      26.188
2015   10       27    12  33    2.2593   414.2    4.955      26.163
2015   10       27    12  40    2.2580   414.0    4.957      26.138
2015   10       27    12  47    2.2567   413.8    4.958      26.114
2015   10       27    12  55    2.2554   413.6    4.960      26.089
2015   10       27    13   2    2.2541   413.4    4.962      26.065
2015   10       27    13   9    2.2528   413.2    4.964      26.041
2015   10       27    13  16    2.2515   413.0    4.966      26.016
2015   10       27    13  23    2.2502   412.8    4.968      25.992
2015   10       27    13  30    2.2489   412.6    4.969      25.968
2015   10       27    13  37    2.2476   412.4    4.971      25.944
2015   10       27    13  44    2.2464   412.1    4.973      25.919
2015   10       27    13  52    2.2451   411.9    4.975      25.895
2015   10       27    13  59    2.2438   411.7    4.977      25.871
2015   10       27    14   6    2.2425   411.5    4.979      25.846
2015   10       27    14  13    2.2413   411.3    4.981      25.822
2015   10       27    14  20    2.2400   411.1    4.982      25.798
2015   10       27    14  27    2.2387   410.9    4.984      25.773
2015   10       27    14  34    2.2375   410.7    4.986      25.748
2015   10       27    14  42    2.2362   410.5    4.988      25.724
2015   10       27    14  49    2.2350   410.2    4.990      25.699
2015   10       27    14  56    2.2337   410.0    4.991      25.674
2015   10       27    15   3    2.2325   409.8    4.993      25.649
2015   10       27    15  10    2.2312   409.6    4.995      25.624
2015   10       27    15  17    2.2300   409.4    4.997      25.599
2015   10       27    15  24    2.2287   409.2    4.998      25.574
2015   10       27    15  31    2.2275   409.0    5.000      25.549
2015   10       27    15  39    2.2263   408.7    5.002      25.523
2015   10       27    15  46    2.2250   408.5    5.004      25.498
2015   10       27    15  53    2.2238   408.3    5.005      25.472
2015   10       27    16   0    2.2226   408.1    5.007      25.447
2015   10       27    16   7    2.2213   407.9    5.008      25.421
2015   10       27    16  14    2.2201   407.7    5.010      25.395
2015   10       27    16  21    2.2189   407.4    5.012      25.369
2015   10       27    16  28    2.2177   407.2    5.013      25.343
2015   10       27    16  36    2.2165   407.0    5.015      25.317
2015   10       27    16  43    2.2152   406.8    5.017      25.291
2015   10       27    16  50    2.2140   406.6    5.018      25.265
2015   10       27    16  57    2.2128   406.4    5.020      25.238
2015   10       27    17   4    2.2116   406.1    5.021      25.212
2015   10       27    17  11    2.2104   405.9    5.023      25.186
2015   10       27    17  18    2.2092   405.7    5.024      25.159
2015   10       27    17  25    2.2081   405.5    5.026      25.133
2015   10       27    17  33    2.2069   405.3    5.028      25.106
2015   10       27    17  40    2.2057   405.0    5.029      25.080
2015   10       27    17  47    2.2045   404.8    5.031      25.053
2015   10       27    17  54    2.2033   404.6    5.033      25.026
2015   10       27    18   1    2.2022   404.4    5.034      25.000
2015   10       27    18   8    2.2010   404.1    5.036      24.973
2015   10       27    18  15    2.1999   403.9    5.038      24.947
2015   10       27    18  23    2.1987   403.7    5.039      24.920
2015   10       27    18  30    2.1976   403.5    5.041      24.894
2015   10       27    18  37    2.1965   403.2    5.043      24.867
2015   10       27    18  44    2.1954   403.0    5.045      24.841
2015   10       27    18  51    2.1942   402.8    5.047      24.815
2015   10       27    18  58    2.1932   402.6    5.049      24.789
2015   10       27    19   5    2.1921   402.3    5.051      24.763
2015   10       27    19  12    2.1910   402.1    5.053      24.736
2015   10       27    19  20    2.1899   401.9    5.055      24.711
2015   10       27    19  27    2.1888   401.6    5.057      24.685
2015   10       27    19  34    2.1878   401.4    5.059      24.659
2015   10       27    19  41    2.1867   401.2    5.061      24.634
2015   10       27    19  48    2.1857   401.0    5.064      24.608
2015   10       27    19  55    2.1846   400.7    5.066      24.583
2015   10       27    20   2    2.1836   400.5    5.068      24.557
2015   10       27    20  10    2.1826   400.3    5.071      24.532
2015   10       27    20  17    2.1816   400.0    5.073      24.507
2015   10       27    20  24    2.1806   399.8    5.076      24.482
2015   10       27    20  31    2.1796   399.6    5.078      24.457
2015   10       27    20  38    2.1787   399.3    5.081      24.433
2015   10       27    20  45    2.1777   399.1    5.083      24.408
2015   10       27    20  52    2.1767   398.9    5.086      24.384
2015   10       27    20  59    2.1758   398.6    5.089      24.359
2015   10       27    21   6    2.1749   398.4    5.092      24.335
2015   10       27    21  14    2.1739   398.2    5.095      24.311
2015   10       27    21  21    2.1730   397.9    5.098      24.287
2015   10       27    21  28    2.1721   397.7    5.101      24.263
2015   10       27    21  35    2.1712   397.5    5.104      24.239
2015   10       27    21  42    2.1703   397.2    5.107      24.215
2015   10       27    21  49    2.1694   397.0    5.110      24.191
2015   10       27    21  56    2.1686   396.8    5.113      24.168
2015   10       27    22   4    2.1677   396.5    5.116      24.144
2015   10       27    22  11    2.1669   396.3    5.119      24.120
2015   10       27    22  18    2.1660   396.1    5.123      24.097
2015   10       27    22  25    2.1652   395.8    5.126      24.074
2015   10       27    22  32    2.1644   395.6    5.129      24.050
2015   10       27    22  39    2.1635   395.4    5.132      24.027
2015   10       27    22  46    2.1627   395.1    5.136      24.004
2015   10       27    22  53    2.1619   394.9    5.139      23.980
2015   10       27    23   1    2.1612   394.7    5.143      23.957
2015   10       27    23   8    2.1604   394.4    5.146      23.934
2015   10       27    23  15    2.1596   394.2    5.150      23.911
2015   10       27    23  22    2.1588   394.0    5.153      23.888
2015   10       27    23  29    2.1581   393.7    5.157      23.865
2015   10       27    23  36    2.1573   393.5    5.160      23.842
2015   10       27    23  43    2.1566   393.2    5.164      23.819
2015   10       27    23  50    2.1559   393.0    5.167      23.796
2015   10       27    23  58    2.1551   392.8    5.171      23.773
2015   10       28     0   5    2.1544   392.5    5.175      23.750
2015   10       28     0  12    2.1537   392.3    5.178      23.727
2015   10       28     0  19    2.1530   392.0    5.182      23.704
2015   10       28     0  26    2.1523   391.8    5.185      23.681
2015   10       28     0  33    2.1516   391.6    5.189      23.658
2015   10       28     0  40    2.1509   391.3    5.193      23.635
2015   10       28     0  47    2.1502   391.1    5.196      23.612
2015   10       28     0  55    2.1496   390.8    5.200      23.589
2015   10       28     1   2    2.1489   390.6    5.204      23.566
2015   10       28     1   9    2.1483   390.4    5.208      23.543
2015   10       28     1  16    2.1476   390.1    5.211      23.520
2015   10       28     1  23    2.1470   389.9    5.215      23.497
2015   10       28     1  30    2.1464   389.6    5.219      23.474
2015   10       28     1  37    2.1458   389.4    5.223      23.451
2015   10       28     1  44    2.1452   389.1    5.226      23.428
2015   10       28     1  52    2.1446   388.9    5.230      23.406
2015   10       28     1  59    2.1440   388.7    5.234      23.383
2015   10       28     2   6    2.1434   388.4    5.238      23.360
2015   10       28     2  13    2.1428   388.2    5.242      23.337
2015   10       28     2  20    2.1423   387.9    5.246      23.314
2015   10       28     2  27    2.1417   387.7    5.250      23.292
2015   10       28     2  34    2.1412   387.4    5.254      23.269
2015   10       28     2  41    2.1407   387.2    5.258      23.247
2015   10       28     2  48    2.1402   386.9    5.262      23.224
2015   10       28     2  56    2.1397   386.7    5.266      23.202
2015   10       28     3   3    2.1392   386.4    5.270      23.179
2015   10       28     3  10    2.1388   386.2    5.274      23.157
2015   10       28     3  17    2.1383   385.9    5.279      23.135
2015   10       28     3  24    2.1379   385.7    5.283      23.113
2015   10       28     3  31    2.1375   385.4    5.288      23.091
2015   10       28     3  38    2.1371   385.2    5.292      23.069
2015   10       28     3  45    2.1368   384.9    5.297      23.047
2015   10       28     3  53    2.1364   384.7    5.301      23.025
2015   10       28     4   0    2.1361   384.4    5.306      23.003
2015   10       28     4   7    2.1357   384.2    5.311      22.982
2015   10       28     4  14    2.1354   383.9    5.316      22.960
2015   10       28     4  21    2.1351   383.7    5.320      22.939
2015   10       28     4  28    2.1349   383.4    5.325      22.917
2015   10       28     4  35    2.1346   383.2    5.330      22.896
2015   10       28     4  42    2.1344   382.9    5.335      22.874
2015   10       28     4  50    2.1342   382.7    5.341      22.853
2015   10       28     4  57    2.1340   382.4    5.346      22.832
2015   10       28     5   4    2.1338   382.2    5.351      22.811
2015   10       28     5  11    2.1337   381.9    5.357      22.790
2015   10       28     5  18    2.1335   381.7    5.362      22.769
2015   10       28     5  25    2.1334   381.4    5.368      22.748
2015   10       28     5  32    2.1333   381.2    5.373      22.727
2015   10       28     5  39    2.1332   380.9    5.379      22.707
2015   10       28     5  47    2.1332   380.7    5.384      22.686
2015   10       28     5  54    2.1331   380.4    5.390      22.665
2015   10       28     6   1    2.1331   380.2    5.396      22.645
2015   10       28     6   8    2.1331   379.9    5.402      22.625
2015   10       28     6  15    2.1331   379.7    5.408      22.604
2015   10       28     6  22    2.1331   379.4    5.414      22.584
2015   10       28     6  29    2.1332   379.2    5.420      22.564
2015   10       28     6  36    2.1333   378.9    5.426      22.544
2015   10       28     6  44    2.1334   378.7    5.433      22.524
2015   10       28     6  51    2.1335   378.4    5.439      22.505
2015   10       28     6  58    2.1336   378.2    5.445      22.485
2015   10       28     7   5    2.1338   377.9    5.452      22.465
2015   10       28     7  12    2.1339   377.7    5.458      22.446
2015   10       28     7  19    2.1341   377.4    5.465      22.427
2015   10       28     7  26    2.1343   377.2    5.472      22.408
2015   10       28     7  34    2.1346   376.9    5.479      22.389
2015   10       28     7  41    2.1349   376.7    5.485      22.370
2015   10       28     7  48    2.1351   376.4    5.492      22.351
2015   10       28     7  55    2.1355   376.2    5.499      22.333
2015   10       28     8   2    2.1358   375.9    5.506      22.315
2015   10       28     8   9    2.1361   375.7    5.514      22.296
2015   10       28     8  16    2.1365   375.4    5.521      22.278
2015   10       28     8  23    2.1369   375.2    5.528      22.261
2015   10       28     8  31    2.1374   374.9    5.536      22.243
2015   10       28     8  38    2.1378   374.7    5.543      22.225
2015   10       28     8  45    2.1383   374.4    5.551      22.208
2015   10       28     8  52    2.1388   374.2    5.558      22.191
2015   10       28     8  59    2.1393   373.9    5.566      22.174
2015   10       28     9   6    2.1399   373.7    5.574      22.157
2015   10       28     9  13    2.1404   373.4    5.581      22.140
2015   10       28     9  21    2.1410   373.2    5.589      22.124
2015   10       28     9  28    2.1417   372.9    5.597      22.107
2015   10       28     9  35    2.1423   372.7    5.605      22.091
2015   10       28     9  42    2.1430   372.4    5.614      22.075
2015   10       28     9  49    2.1437   372.2    5.622      22.059
2015   10       28     9  56    2.1444   372.0    5.630      22.043
2015   10       28    10   3    2.1452   371.7    5.638      22.028
2015   10       28    10  11    2.1460   371.5    5.647      22.012
2015   10       28    10  18    2.1468   371.2    5.655      21.997
2015   10       28    10  25    2.1476   371.0    5.664      21.981
2015   10       28    10  32    2.1485   370.7    5.672      21.966
2015   10       28    10  39    2.1494   370.5    5.681      21.951
2015   10       28    10  46    2.1503   370.2    5.690      21.936
2015   10       28    10  53    2.1513   370.0    5.698      21.922
2015   10       28    11   0    2.1522   369.7    5.707      21.907
2015   10       28    11   8    2.1532   369.5    5.716      21.892
2015   10       28    11  15    2.1543   369.3    5.725      21.878
2015   10       28    11  22    2.1553   369.0    5.734      21.864
2015   10       28    11  29    2.1564   368.8    5.743      21.849
2015   10       28    11  36    2.1575   368.5    5.753      21.835
2015   10       28    11  43    2.1587   368.3    5.762      21.821
2015   10       28    11  50    2.1598   368.0    5.771      21.808
2015   10       28    11  58    2.1610   367.8    5.780      21.794
2015   10       28    12   5    2.1623   367.6    5.790      21.780
2015   10       28    12  12    2.1635   367.3    5.799      21.767
2015   10       28    12  19    2.1648   367.1    5.809      21.753
2015   10       28    12  26    2.1661   366.8    5.819      21.740
2015   10       28    12  33    2.1675   366.6    5.828      21.727
2015   10       28    12  40    2.1688   366.3    5.838      21.714
2015   10       28    12  47    2.1702   366.1    5.848      21.701
2015   10       28    12  55    2.1716   365.9    5.858      21.688
2015   10       28    13   2    2.1731   365.6    5.868      21.675
2015   10       28    13   9    2.1746   365.4    5.878      21.663
2015   10       28    13  16    2.1761   365.1    5.888      21.650
2015   10       28    13  23    2.1777   364.9    5.898      21.638
2015   10       28    13  30    2.1793   364.7    5.909      21.626
2015   10       28    13  37    2.1808   364.4    5.919      21.614
2015   10       28    13  44    2.1825   364.2    5.930      21.602
2015   10       28    13  52    2.1842   364.0    5.940      21.590
2015   10       28    13  59    2.1859   363.7    5.951      21.578
2015   10       28    14   6    2.1876   363.5    5.961      21.567
2015   10       28    14  13    2.1894   363.2    5.972      21.556
2015   10       28    14  20    2.1912   363.0    5.983      21.544
2015   10       28    14  27    2.1930   362.8    5.994      21.534
2015   10       28    14  34    2.1949   362.5    6.005      21.523
2015   10       28    14  41    2.1968   362.3    6.017      21.512
2015   10       28    14  49    2.1987   362.1    6.028      21.502
2015   10       28    14  56    2.2007   361.8    6.039      21.491
2015   10       28    15   3    2.2027   361.6    6.051      21.481
2015   10       28    15  10    2.2048   361.4    6.062      21.471
2015   10       28    15  17    2.2068   361.1    6.074      21.462
2015   10       28    15  24    2.2089   360.9    6.086      21.452
2015   10       28    15  31    2.2111   360.7    6.097      21.442
2015   10       28    15  39    2.2132   360.5    6.109      21.433
2015   10       28    15  46    2.2154   360.2    6.121      21.424
2015   10       28    15  53    2.2177   360.0    6.134      21.415
2015   10       28    16   0    2.2199   359.8    6.146      21.407
2015   10       28    16   7    2.2223   359.5    6.158      21.398
2015   10       28    16  14    2.2246   359.3    6.170      21.390
2015   10       28    16  21    2.2270   359.1    6.183      21.382
2015   10       28    16  29    2.2294   358.9    6.195      21.374
2015   10       28    16  36    2.2319   358.6    6.208      21.366
2015   10       28    16  43    2.2343   358.4    6.221      21.358
2015   10       28    16  50    2.2369   358.2    6.234      21.351
2015   10       28    16  57    2.2394   358.0    6.247      21.343
2015   10       28    17   4    2.2420   357.8    6.260      21.336
2015   10       28    17  11    2.2446   357.5    6.273      21.329
2015   10       28    17  19    2.2473   357.3    6.286      21.323
2015   10       28    17  26    2.2500   357.1    6.299      21.316
2015   10       28    17  33    2.2527   356.9    6.312      21.310
2015   10       28    17  40    2.2554   356.7    6.326      21.303
2015   10       28    17  47    2.2582   356.5    6.339      21.297
2015   10       28    17  54    2.2610   356.2    6.353      21.291
2015   10       28    18   1    2.2639   356.0    6.366      21.285
2015   10       28    18   8    2.2668   355.8    6.380      21.280
2015   10       28    18  16    2.2697   355.6    6.394      21.274
2015   10       28    18  23    2.2727   355.4    6.407      21.269
2015   10       28    18  30    2.2757   355.2    6.421      21.264
2015   10       28    18  37    2.2787   355.0    6.435      21.259
2015   10       28    18  44    2.2818   354.8    6.449      21.254
2015   10       28    18  51    2.2848   354.6    6.464      21.250
2015   10       28    18  58    2.2880   354.3    6.478      21.245
2015   10       28    19   6    2.2911   354.1    6.492      21.241
2015   10       28    19  13    2.2943   353.9    6.507      21.237
2015   10       28    19  20    2.2976   353.7    6.521      21.233
2015   10       28    19  27    2.3008   353.5    6.536      21.229
2015   10       28    19  34    2.3041   353.3    6.551      21.226
2015   10       28    19  41    2.3075   353.1    6.566      21.222
2015   10       28    19  48    2.3109   352.9    6.581      21.219
2015   10       28    19  55    2.3143   352.7    6.596      21.216
2015   10       28    20   3    2.3177   352.5    6.611      21.214
2015   10       28    20  10    2.3212   352.3    6.627      21.211
2015   10       28    20  17    2.3248   352.1    6.642      21.209
2015   10       28    20  24    2.3283   351.9    6.658      21.207
2015   10       28    20  31    2.3320   351.7    6.674      21.205
2015   10       28    20  38    2.3356   351.5    6.690      21.204
2015   10       28    20  45    2.3393   351.3    6.706      21.203
2015   10       28    20  52    2.3431   351.1    6.723      21.202
2015   10       28    21   0    2.3468   350.9    6.739      21.201
2015   10       28    21   7    2.3507   350.7    6.756      21.201
2015   10       28    21  14    2.3546   350.5    6.773      21.201
2015   10       28    21  21    2.3585   350.3    6.790      21.201
2015   10       28    21  28    2.3625   350.1    6.807      21.202
2015   10       28    21  35    2.3665   349.9    6.825      21.203
2015   10       28    21  42    2.3705   349.7    6.843      21.204
2015   10       28    21  49    2.3747   349.5    6.861      21.206
2015   10       28    21  57    2.3788   349.3    6.879      21.207
2015   10       28    22   4    2.3830   349.2    6.898      21.210
2015   10       28    22  11    2.3873   349.0    6.916      21.212
2015   10       28    22  18    2.3916   348.8    6.935      21.216
2015   10       28    22  25    2.3959   348.6    6.954      21.219
2015   10       28    22  32    2.4003   348.4    6.974      21.223
2015   10       28    22  39    2.4048   348.2    6.993      21.227
2015   10       28    22  47    2.4093   348.0    7.013      21.232
2015   10       28    22  54    2.4138   347.9    7.033      21.236
2015   10       28    23   1    2.4184   347.7    7.053      21.242
2015   10       28    23   8    2.4230   347.5    7.074      21.248
2015   10       28    23  15    2.4277   347.3    7.094      21.254
2015   10       28    23  22    2.4324   347.1    7.115      21.260
2015   10       28    23  29    2.4371   347.0    7.136      21.267
2015   10       28    23  36    2.4419   346.8    7.157      21.275
2015   10       28    23  44    2.4467   346.6    7.178      21.282
2015   10       28    23  51    2.4516   346.5    7.200      21.291
2015   10       28    23  58    2.4565   346.3    7.221      21.299
2015   10       29     0   5    2.4614   346.1    7.243      21.308
2015   10       29     0  12    2.4663   346.0    7.264      21.318
2015   10       29     0  19    2.4713   345.8    7.286      21.328
2015   10       29     0  26    2.4763   345.6    7.308      21.338
2015   10       29     0  34    2.4814   345.5    7.330      21.349
2015   10       29     0  41    2.4865   345.3    7.352      21.360
2015   10       29     0  48    2.4916   345.1    7.374      21.372
2015   10       29     0  55    2.4967   345.0    7.396      21.384
2015   10       29     1   2    2.5019   344.8    7.418      21.396
2015   10       29     1   9    2.5071   344.7    7.440      21.409
2015   10       29     1  16    2.5123   344.5    7.462      21.421
2015   10       29     1  23    2.5175   344.4    7.484      21.434
2015   10       29     1  31    2.5228   344.2    7.506      21.448
2015   10       29     1  38    2.5281   344.1    7.528      21.462
2015   10       29     1  45    2.5334   343.9    7.550      21.476
2015   10       29     1  52    2.5388   343.8    7.572      21.490
2015   10       29     1  59    2.5441   343.6    7.594      21.504
2015   10       29     2   6    2.5495   343.5    7.616      21.518
2015   10       29     2  13    2.5549   343.3    7.639      21.533
2015   10       29     2  21    2.5604   343.2    7.661      21.548
2015   10       29     2  28    2.5659   343.0    7.683      21.564
2015   10       29     2  35    2.5714   342.9    7.705      21.579
2015   10       29     2  42    2.5769   342.8    7.728      21.595
2015   10       29     2  49    2.5825   342.6    7.750      21.610
2015   10       29     2  56    2.5880   342.5    7.772      21.626
2015   10       29     3   3    2.5936   342.3    7.795      21.643
2015   10       29     3  10    2.5993   342.2    7.817      21.659
2015   10       29     3  18    2.6049   342.1    7.840      21.676
2015   10       29     3  25    2.6106   341.9    7.863      21.693
2015   10       29     3  32    2.6164   341.8    7.886      21.710
2015   10       29     3  39    2.6221   341.7    7.909      21.727
2015   10       29     3  46    2.6279   341.5    7.932      21.745
2015   10       29     3  53    2.6337   341.4    7.955      21.763
2015   10       29     4   0    2.6396   341.3    7.978      21.781
2015   10       29     4   7    2.6455   341.1    8.002      21.799
2015   10       29     4  15    2.6515   341.0    8.026      21.818
2015   10       29     4  22    2.6574   340.9    8.050      21.837
2015   10       29     4  29    2.6635   340.8    8.074      21.856
2015   10       29     4  36    2.6695   340.6    8.098      21.875
2015   10       29     4  43    2.6757   340.5    8.123      21.895
2015   10       29     4  50    2.6818   340.4    8.148      21.915
2015   10       29     4  57    2.6880   340.3    8.173      21.935
2015   10       29     5   4    2.6943   340.2    8.199      21.956
2015   10       29     5  12    2.7006   340.0    8.225      21.977
2015   10       29     5  19    2.7069   339.9    8.251      21.998
2015   10       29     5  26    2.7133   339.8    8.277      22.019
2015   10       29     5  33    2.7198   339.7    8.304      22.041
2015   10       29     5  40    2.7263   339.6    8.332      22.063
2015   10       29     5  47    2.7329   339.5    8.359      22.086
2015   10       29     5  54    2.7395   339.4    8.387      22.110
2015   10       29     6   2    2.7462   339.3    8.415      22.133
2015   10       29     6   9    2.7530   339.2    8.444      22.157
2015   10       29     6  16    2.7598   339.1    8.473      22.182
2015   10       29     6  23    2.7666   339.0    8.502      22.208
2015   10       29     6  30    2.7735   338.9    8.531      22.235
2015   10       29     6  37    2.7804   338.8    8.561      22.262
2015   10       29     6  44    2.7874   338.7    8.591      22.290
2015   10       29     6  51    2.7944   338.6    8.620      22.319
2015   10       29     6  59    2.8014   338.5    8.650      22.349
2015   10       29     7   6    2.8084   338.4    8.680      22.380
2015   10       29     7  13    2.8154   338.3    8.709      22.412
2015   10       29     7  20    2.8225   338.3    8.739      22.445
2015   10       29     7  27    2.8295   338.2    8.768      22.479
2015   10       29     7  34    2.8365   338.1    8.797      22.513
2015   10       29     7  41    2.8436   338.0    8.826      22.548
2015   10       29     7  49    2.8506   338.0    8.854      22.584
2015   10       29     7  56    2.8576   337.9    8.883      22.620
2015   10       29     8   3    2.8645   337.8    8.911      22.656
2015   10       29     8  10    2.8715   337.8    8.938      22.693
2015   10       29     8  17    2.8784   337.7    8.966      22.730
2015   10       29     8  24    2.8854   337.6    8.993      22.766
2015   10       29     8  31    2.8923   337.6    9.020      22.803
2015   10       29     8  38    2.8992   337.5    9.047      22.840
2015   10       29     8  46    2.9060   337.4    9.073      22.876
2015   10       29     8  53    2.9129   337.4    9.099      22.912
2015   10       29     9   0    2.9197   337.3    9.125      22.948
2015   10       29     9   7    2.9265   337.3    9.150      22.984
2015   10       29     9  14    2.9333   337.2    9.176      23.020
2015   10       29     9  21    2.9400   337.1    9.201      23.055
2015   10       29     9  28    2.9468   337.1    9.226      23.090
2015   10       29     9  36    2.9535   337.0    9.251      23.125
2015   10       29     9  43    2.9602   337.0    9.275      23.160
2015   10       29     9  50    2.9669   336.9    9.299      23.195
2015   10       29     9  57    2.9736   336.9    9.324      23.229
2015   10       29    10   4    2.9803   336.8    9.348      23.263
2015   10       29    10  11    2.9870   336.8    9.371      23.297
2015   10       29    10  18    2.9936   336.7    9.395      23.331
2015   10       29    10  25    3.0003   336.7    9.419      23.365
2015   10       29    10  33    3.0069   336.6    9.442      23.398
2015   10       29    10  40    3.0136   336.6    9.466      23.431
2015   10       29    10  47    3.0202   336.5    9.489      23.465
2015   10       29    10  54    3.0268   336.5    9.512      23.497
2015   10       29    11   1    3.0335   336.4    9.535      23.530
2015   10       29    11   8    3.0401   336.4    9.559      23.563
2015   10       29    11  15    3.0467   336.3    9.582      23.595
2015   10       29    11  22    3.0534   336.3    9.605      23.628
2015   10       29    11  30    3.0600   336.3    9.628      23.660
2015   10       29    11  37    3.0666   336.2    9.651      23.692
2015   10       29    11  44    3.0733   336.2    9.674      23.724
2015   10       29    11  51    3.0799   336.1    9.698      23.756
2015   10       29    11  58    3.0866   336.1    9.721      23.788
2015   10       29    12   5    3.0933   336.1    9.744      23.820
2015   10       29    12  12    3.1000   336.0    9.768      23.851
2015   10       29    12  19    3.1067   336.0    9.791      23.883
2015   10       29    12  27    3.1134   336.0    9.815      23.915
2015   10       29    12  34    3.1201   335.9    9.839      23.947
2015   10       29    12  41    3.1269   335.9    9.863      23.979
2015   10       29    12  48    3.1337   335.9    9.887      24.011
2015   10       29    12  55    3.1405   335.8    9.912      24.043
2015   10       29    13   2    3.1474   335.8    9.936      24.075
2015   10       29    13   9    3.1543   335.8    9.961      24.108
2015   10       29    13  17    3.1612   335.7    9.987      24.141
2015   10       29    13  24    3.1681   335.7   10.012      24.174
2015   10       29    13  31    3.1752   335.7   10.038      24.207
2015   10       29    13  38    3.1822   335.7   10.064      24.242
2015   10       29    13  45    3.1893   335.6   10.091      24.277
2015   10       29    13  52    3.1964   335.6   10.117      24.312
2015   10       29    13  59    3.2036   335.6   10.144      24.349
2015   10       29    14   6    3.2108   335.6   10.171      24.386
2015   10       29    14  14    3.2181   335.6   10.198      24.424
2015   10       29    14  21    3.2253   335.6   10.225      24.462
2015   10       29    14  28    3.2326   335.6   10.253      24.502
2015   10       29    14  35    3.2399   335.6   10.280      24.543
2015   10       29    14  42    3.2472   335.6   10.307      24.585
2015   10       29    14  49    3.2544   335.6   10.335      24.628
2015   10       29    14  56    3.2617   335.6   10.362      24.672
2015   10       29    15   4    3.2689   335.6   10.389      24.718
2015   10       29    15  11    3.2761   335.6   10.415      24.764
2015   10       29    15  18    3.2832   335.6   10.442      24.812
2015   10       29    15  25    3.2903   335.6   10.468      24.859
2015   10       29    15  32    3.2974   335.6   10.493      24.908
2015   10       29    15  39    3.3044   335.6   10.518      24.957
2015   10       29    15  46    3.3113   335.6   10.543      25.006
2015   10       29    15  53    3.3182   335.6   10.567      25.055
2015   10       29    16   1    3.3249   335.6   10.591      25.104
2015   10       29    16   8    3.3316   335.7   10.614      25.154
2015   10       29    16  15    3.3383   335.7   10.637      25.203
2015   10       29    16  22    3.3449   335.7   10.659      25.252
2015   10       29    16  29    3.3514   335.7   10.680      25.301
2015   10       29    16  36    3.3578   335.7   10.702      25.349
2015   10       29    16  43    3.3642   335.8   10.722      25.396
2015   10       29    16  50    3.3706   335.8   10.742      25.443
2015   10       29    16  58    3.3768   335.8   10.762      25.489
2015   10       29    17   5    3.3830   335.8   10.781      25.535
2015   10       29    17  12    3.3892   335.8   10.800      25.580
2015   10       29    17  19    3.3953   335.9   10.819      25.625
2015   10       29    17  26    3.4014   335.9   10.837      25.668
2015   10       29    17  33    3.4074   335.9   10.855      25.712
2015   10       29    17  40    3.4134   335.9   10.873      25.754
2015   10       29    17  48    3.4193   335.9   10.890      25.796
2015   10       29    17  55    3.4252   336.0   10.907      25.837
2015   10       29    18   2    3.4311   336.0   10.924      25.878
2015   10       29    18   9    3.4369   336.0   10.940      25.919
2015   10       29    18  16    3.4427   336.0   10.956      25.958
2015   10       29    18  23    3.4485   336.1   10.973      25.998
2015   10       29    18  30    3.4543   336.1   10.988      26.037
2015   10       29    18  37    3.4600   336.1   11.004      26.075
2015   10       29    18  45    3.4657   336.1   11.020      26.113
2015   10       29    18  52    3.4714   336.2   11.035      26.150
2015   10       29    18  59    3.4771   336.2   11.051      26.188
2015   10       29    19   6    3.4827   336.2   11.066      26.224
2015   10       29    19  13    3.4884   336.2   11.081      26.261
2015   10       29    19  20    3.4940   336.3   11.096      26.297
2015   10       29    19  27    3.4996   336.3   11.111      26.333
2015   10       29    19  34    3.5052   336.3   11.126      26.368
2015   10       29    19  42    3.5107   336.4   11.141      26.404
2015   10       29    19  49    3.5163   336.4   11.155      26.439
2015   10       29    19  56    3.5219   336.4   11.170      26.474
2015   10       29    20   3    3.5274   336.4   11.185      26.508
2015   10       29    20  10    3.5330   336.5   11.200      26.543
2015   10       29    20  17    3.5385   336.5   11.215      26.578
2015   10       29    20  24    3.5440   336.5   11.230      26.612
2015   10       29    20  31    3.5496   336.6   11.245      26.646
2015   10       29    20  39    3.5552   336.6   11.260      26.681
2015   10       29    20  46    3.5607   336.6   11.275      26.715
2015   10       29    20  53    3.5663   336.7   11.291      26.750
2015   10       29    21   0    3.5720   336.7   11.306      26.785
2015   10       29    21   7    3.5776   336.8   11.322      26.820
2015   10       29    21  14    3.5833   336.8   11.338      26.855
2015   10       29    21  21    3.5890   336.8   11.355      26.890
2015   10       29    21  29    3.5948   336.9   11.372      26.925
2015   10       29    21  36    3.6006   336.9   11.389      26.960
2015   10       29    21  43    3.6064   337.0   11.407      26.996
2015   10       29    21  50    3.6122   337.0   11.425      27.033
2015   10       29    21  57    3.6182   337.0   11.444      27.070
2015   10       29    22   4    3.6241   337.1   11.462      27.108
2015   10       29    22  11    3.6301   337.1   11.482      27.147
2015   10       29    22  18    3.6361   337.2   11.501      27.186
2015   10       29    22  26    3.6421   337.2   11.521      27.227
2015   10       29    22  33    3.6482   337.3   11.541      27.269
2015   10       29    22  40    3.6542   337.4   11.561      27.313
2015   10       29    22  47    3.6602   337.4   11.582      27.357
2015   10       29    22  54    3.6662   337.5   11.602      27.402
2015   10       29    23   1    3.6722   337.5   11.622      27.449
2015   10       29    23   8    3.6781   337.6   11.641      27.497
2015   10       29    23  15    3.6839   337.7   11.661      27.545
2015   10       29    23  23    3.6897   337.8   11.680      27.593
2015   10       29    23  30    3.6954   337.8   11.698      27.642
2015   10       29    23  37    3.7010   337.9   11.716      27.692
2015   10       29    23  44    3.7066   338.0   11.734      27.741
2015   10       29    23  51    3.7120   338.0   11.751      27.789
2015   10       29    23  58    3.7174   338.1   11.767      27.838
2015   10       30     0   5    3.7227   338.2   11.783      27.887
2015   10       30     0  13    3.7279   338.3   11.798      27.934
2015   10       30     0  20    3.7331   338.4   11.813      27.981
2015   10       30     0  27    3.7382   338.4   11.827      28.027
2015   10       30     0  34    3.7432   338.5   11.841      28.073
2015   10       30     0  41    3.7482   338.6   11.854      28.118
2015   10       30     0  48    3.7531   338.7   11.867      28.162
2015   10       30     0  55    3.7580   338.7   11.880      28.206
2015   10       30     1   2    3.7628   338.8   11.892      28.249
2015   10       30     1  10    3.7676   338.9   11.904      28.293
2015   10       30     1  17    3.7723   339.0   11.916      28.335
2015   10       30     1  24    3.7770   339.0   11.927      28.378
2015   10       30     1  31    3.7816   339.1   11.938      28.420
2015   10       30     1  38    3.7862   339.2   11.948      28.462
2015   10       30     1  45    3.7908   339.3   11.958      28.503
2015   10       30     1  52    3.7953   339.4   11.968      28.544
2015   10       30     1  59    3.7997   339.4   11.978      28.585
2015   10       30     2   7    3.8041   339.5   11.987      28.625
2015   10       30     2  14    3.8085   339.6   11.996      28.665
2015   10       30     2  21    3.8128   339.7   12.004      28.705
2015   10       30     2  28    3.8171   339.8   12.013      28.744
2015   10       30     2  35    3.8214   339.8   12.021      28.782
2015   10       30     2  42    3.8256   339.9   12.028      28.820
2015   10       30     2  49    3.8297   340.0   12.036      28.858
2015   10       30     2  56    3.8339   340.1   12.043      28.894
2015   10       30     3   4    3.8380   340.2   12.050      28.931
2015   10       30     3  11    3.8420   340.2   12.057      28.966
2015   10       30     3  18    3.8460   340.3   12.063      29.002
2015   10       30     3  25    3.8500   340.4   12.070      29.037
2015   10       30     3  32    3.8540   340.5   12.076      29.071
2015   10       30     3  39    3.8580   340.6   12.082      29.105
2015   10       30     3  46    3.8619   340.6   12.088      29.139
2015   10       30     3  53    3.8658   340.7   12.094      29.172
2015   10       30     4   1    3.8697   340.8   12.100      29.205
2015   10       30     4   8    3.8736   340.9   12.106      29.238
2015   10       30     4  15    3.8774   341.0   12.111      29.271
2015   10       30     4  22    3.8813   341.1   12.117      29.303
2015   10       30     4  29    3.8852   341.1   12.123      29.335
2015   10       30     4  36    3.8890   341.2   12.129      29.367
2015   10       30     4  43    3.8929   341.3   12.135      29.399
2015   10       30     4  51    3.8968   341.4   12.141      29.430
2015   10       30     4  58    3.9006   341.5   12.147      29.462
2015   10       30     5   5    3.9045   341.6   12.153      29.494
2015   10       30     5  12    3.9084   341.6   12.159      29.525
2015   10       30     5  19    3.9123   341.7   12.166      29.557
2015   10       30     5  26    3.9163   341.8   12.173      29.588
2015   10       30     5  33    3.9203   341.9   12.180      29.620
2015   10       30     5  40    3.9243   342.0   12.188      29.652
2015   10       30     5  48    3.9283   342.1   12.195      29.684
2015   10       30     5  55    3.9323   342.2   12.203      29.717
2015   10       30     6   2    3.9364   342.3   12.211      29.751
2015   10       30     6   9    3.9404   342.4   12.219      29.785
2015   10       30     6  16    3.9444   342.5   12.227      29.820
2015   10       30     6  23    3.9485   342.6   12.236      29.856
2015   10       30     6  30    3.9525   342.7   12.244      29.892
2015   10       30     6  37    3.9565   342.8   12.252      29.928
2015   10       30     6  45    3.9605   342.9   12.260      29.964
2015   10       30     6  52    3.9644   343.0   12.268      30.000
2015   10       30     6  59    3.9684   343.1   12.276      30.037
2015   10       30     7   6    3.9722   343.2   12.284      30.074
2015   10       30     7  13    3.9761   343.3   12.292      30.111
2015   10       30     7  20    3.9799   343.4   12.299      30.148
2015   10       30     7  27    3.9837   343.5   12.307      30.185
2015   10       30     7  34    3.9874   343.6   12.314      30.222
2015   10       30     7  42    3.9911   343.7   12.321      30.259
2015   10       30     7  49    3.9947   343.8   12.328      30.295
2015   10       30     7  56    3.9983   343.9   12.335      30.331
2015   10       30     8   3    4.0019   344.0   12.342      30.367
2015   10       30     8  10    4.0054   344.1   12.348      30.403
2015   10       30     8  17    4.0089   344.2   12.355      30.440
2015   10       30     8  24    4.0123   344.4   12.362      30.477
2015   10       30     8  31    4.0157   344.5   12.368      30.515
2015   10       30     8  39    4.0191   344.6   12.374      30.552
2015   10       30     8  46    4.0225   344.7   12.380      30.590
2015   10       30     8  53    4.0258   344.8   12.386      30.629
2015   10       30     9   0    4.0290   344.9   12.392      30.667
2015   10       30     9   7    4.0323   345.0   12.397      30.706
2015   10       30     9  14    4.0355   345.1   12.403      30.745
2015   10       30     9  21    4.0386   345.3   12.408      30.783
2015   10       30     9  29    4.0417   345.4   12.413      30.822
2015   10       30     9  36    4.0448   345.5   12.417      30.861
2015   10       30     9  43    4.0478   345.6   12.421      30.900
2015   10       30     9  50    4.0508   345.7   12.425      30.939
2015   10       30     9  57    4.0538   345.8   12.429      30.978
2015   10       30    10   4    4.0567   345.9   12.432      31.016
2015   10       30    10  11    4.0595   346.1   12.435      31.054
2015   10       30    10  18    4.0623   346.2   12.438      31.091
2015   10       30    10  26    4.0650   346.3   12.441      31.128
2015   10       30    10  33    4.0677   346.4   12.443      31.165
2015   10       30    10  40    4.0704   346.5   12.445      31.201
2015   10       30    10  47    4.0729   346.6   12.446      31.237
2015   10       30    10  54    4.0755   346.7   12.447      31.272
2015   10       30    11   1    4.0780   346.9   12.448      31.306
2015   10       30    11   8    4.0804   347.0   12.449      31.340
2015   10       30    11  15    4.0828   347.1   12.449      31.373
2015   10       30    11  23    4.0852   347.2   12.449      31.406
2015   10       30    11  30    4.0875   347.3   12.449      31.438
2015   10       30    11  37    4.0898   347.4   12.449      31.469
2015   10       30    11  44    4.0920   347.6   12.448      31.500
2015   10       30    11  51    4.0942   347.7   12.447      31.530
2015   10       30    11  58    4.0964   347.8   12.446      31.560
2015   10       30    12   5    4.0986   347.9   12.445      31.589
2015   10       30    12  12    4.1007   348.0   12.443      31.617
2015   10       30    12  20    4.1028   348.1   12.442      31.645
2015   10       30    12  27    4.1048   348.2   12.440      31.673
2015   10       30    12  34    4.1069   348.4   12.438      31.700
2015   10       30    12  41    4.1089   348.5   12.436      31.727
2015   10       30    12  48    4.1109   348.6   12.434      31.754
2015   10       30    12  55    4.1129   348.7   12.432      31.780
2015   10       30    13   2    4.1149   348.8   12.430      31.806
2015   10       30    13   9    4.1169   348.9   12.428      31.832
2015   10       30    13  17    4.1188   349.1   12.426      31.858
2015   10       30    13  24    4.1208   349.2   12.424      31.883
2015   10       30    13  31    4.1227   349.3   12.422      31.908
2015   10       30    13  38    4.1246   349.4   12.420      31.933
2015   10       30    13  45    4.1266   349.5   12.417      31.958
2015   10       30    13  52    4.1285   349.6   12.415      31.983
2015   10       30    13  59    4.1304   349.8   12.414      32.008
2015   10       30    14   7    4.1324   349.9   12.412      32.032
2015   10       30    14  14    4.1343   350.0   12.410      32.057
2015   10       30    14  21    4.1363   350.1   12.408      32.082
2015   10       30    14  28    4.1382   350.2   12.407      32.106
2015   10       30    14  35    4.1402   350.3   12.405      32.131
2015   10       30    14  42    4.1421   350.5   12.404      32.156
2015   10       30    14  49    4.1441   350.6   12.403      32.181
2015   10       30    14  56    4.1460   350.7   12.402      32.206
2015   10       30    15   4    4.1479   350.8   12.402      32.230
2015   10       30    15  11    4.1499   350.9   12.401      32.256
2015   10       30    15  18    4.1519   351.1   12.401      32.281
2015   10       30    15  25    4.1538   351.2   12.402      32.306
2015   10       30    15  32    4.1558   351.3   12.402      32.332
2015   10       30    15  39    4.1578   351.4   12.403      32.359
2015   10       30    15  46    4.1598   351.5   12.404      32.386
2015   10       30    15  53    4.1618   351.7   12.405      32.413
2015   10       30    16   1    4.1638   351.8   12.406      32.441
2015   10       30    16   8    4.1659   351.9   12.408      32.470
2015   10       30    16  15    4.1679   352.0   12.410      32.499
2015   10       30    16  22    4.1700   352.2   12.412      32.529
2015   10       30    16  29    4.1721   352.3   12.415      32.560
2015   10       30    16  36    4.1742   352.4   12.417      32.592
2015   10       30    16  43    4.1763   352.5   12.420      32.625
2015   10       30    16  50    4.1784   352.7   12.423      32.659
2015   10       30    16  58    4.1805   352.8   12.426      32.694
2015   10       30    17   5    4.1826   352.9   12.429      32.730
2015   10       30    17  12    4.1846   353.1   12.432      32.767
2015   10       30    17  19    4.1866   353.2   12.434      32.804
2015   10       30    17  26    4.1886   353.3   12.437      32.842
2015   10       30    17  33    4.1905   353.5   12.439      32.881
2015   10       30    17  40    4.1923   353.6   12.441      32.920
2015   10       30    17  47    4.1941   353.8   12.442      32.959
2015   10       30    17  55    4.1958   353.9   12.443      32.998
2015   10       30    18   2    4.1974   354.0   12.444      33.036
2015   10       30    18   9    4.1990   354.2   12.444      33.075
2015   10       30    18  16    4.2005   354.3   12.443      33.112
2015   10       30    18  23    4.2020   354.5   12.443      33.149
2015   10       30    18  30    4.2034   354.6   12.441      33.186
2015   10       30    18  37    4.2046   354.7   12.440      33.221
2015   10       30    18  44    4.2059   354.9   12.437      33.256
2015   10       30    18  52    4.2070   355.0   12.435      33.290
2015   10       30    18  59    4.2082   355.2   12.432      33.323
2015   10       30    19   6    4.2092   355.3   12.428      33.355
2015   10       30    19  13    4.2102   355.4   12.424      33.386
2015   10       30    19  20    4.2112   355.6   12.420      33.416
2015   10       30    19  27    4.2121   355.7   12.416      33.446
2015   10       30    19  34    4.2129   355.9   12.411      33.475
2015   10       30    19  42    4.2137   356.0   12.406      33.502
2015   10       30    19  49    4.2145   356.2   12.400      33.529
2015   10       30    19  56    4.2152   356.3   12.395      33.556
2015   10       30    20   3    4.2158   356.4   12.389      33.581
2015   10       30    20  10    4.2164   356.6   12.382      33.606
2015   10       30    20  17    4.2170   356.7   12.376      33.630
2015   10       30    20  24    4.2176   356.9   12.369      33.654
2015   10       30    20  31    4.2180   357.0   12.362      33.677
2015   10       30    20  39    4.2185   357.1   12.355      33.699
2015   10       30    20  46    4.2189   357.3   12.348      33.721
2015   10       30    20  53    4.2193   357.4   12.340      33.742
2015   10       30    21   0    4.2196   357.6   12.332      33.762
2015   10       30    21   7    4.2199   357.7   12.324      33.782
2015   10       30    21  14    4.2202   357.8   12.316      33.802
2015   10       30    21  21    4.2204   358.0   12.308      33.821
2015   10       30    21  28    4.2206   358.1   12.300      33.839
2015   10       30    21  36    4.2208   358.3   12.291      33.857
2015   10       30    21  43    4.2209   358.4   12.282      33.875
2015   10       30    21  50    4.2210   358.5   12.274      33.892
2015   10       30    21  57    4.2211   358.7   12.265      33.909
2015   10       30    22   4    4.2212   358.8   12.256      33.925
2015   10       30    22  11    4.2212   359.0   12.247      33.941
2015   10       30    22  18    4.2212   359.1   12.238      33.957
2015   10       30    22  25    4.2213   359.2   12.229      33.972
2015   10       30    22  33    4.2212   359.4   12.220      33.988
2015   10       30    22  40    4.2212   359.5   12.211      34.003
2015   10       30    22  47    4.2212   359.7   12.202      34.017
2015   10       30    22  54    4.2211   359.8   12.193      34.032
2015   10       30    23   1    4.2211   360.0   12.185      34.047
2015   10       30    23   8    4.2210   360.1   12.176      34.061
2015   10       30    23  15    4.2210   360.2   12.167      34.075
2015   10       30    23  22    4.2210   360.4   12.159      34.089
2015   10       30    23  30    4.2209   360.5   12.151      34.103
2015   10       30    23  37    4.2208   360.7   12.143      34.117
2015   10       30    23  44    4.2208   360.8   12.135      34.132
2015   10       30    23  51    4.2207   361.0   12.127      34.148
2015   10       30    23  58    4.2206   361.1   12.119      34.164
2015   10       31     0   5    4.2205   361.3   12.111      34.180
2015   10       31     0  12    4.2203   361.4   12.104      34.197
2015   10       31     0  19    4.2202   361.5   12.096      34.215
2015   10       31     0  27    4.2199   361.7   12.088      34.233
2015   10       31     0  34    4.2197   361.8   12.080      34.252
2015   10       31     0  41    4.2194   362.0   12.072      34.271
2015   10       31     0  48    4.2190   362.1   12.064      34.291
2015   10       31     0  55    4.2185   362.3   12.056      34.311
2015   10       31     1   2    4.2180   362.4   12.048      34.331
2015   10       31     1   9    4.2175   362.6   12.039      34.352
2015   10       31     1  16    4.2168   362.7   12.030      34.372
2015   10       31     1  24    4.2161   362.9   12.020      34.393
2015   10       31     1  31    4.2154   363.0   12.011      34.412
2015   10       31     1  38    4.2145   363.2   12.001      34.432
2015   10       31     1  45    4.2136   363.3   11.991      34.451
2015   10       31     1  52    4.2126   363.5   11.980      34.469
2015   10       31     1  59    4.2115   363.6   11.970      34.487
2015   10       31     2   6    4.2103   363.8   11.958      34.504
2015   10       31     2  13    4.2091   363.9   11.947      34.520
2015   10       31     2  21    4.2078   364.1   11.935      34.536
2015   10       31     2  28    4.2065   364.2   11.923      34.551
2015   10       31     2  35    4.2051   364.4   11.911      34.565
2015   10       31     2  42    4.2036   364.5   11.898      34.578
2015   10       31     2  49    4.2021   364.7   11.885      34.591
2015   10       31     2  56    4.2005   364.8   11.872      34.603
2015   10       31     3   3    4.1988   365.0   11.859      34.614
2015   10       31     3  10    4.1971   365.1   11.845      34.624
2015   10       31     3  18    4.1953   365.3   11.831      34.634
2015   10       31     3  25    4.1935   365.4   11.817      34.643
2015   10       31     3  32    4.1916   365.5   11.803      34.652
2015   10       31     3  39    4.1897   365.7   11.788      34.659
2015   10       31     3  46    4.1876   365.8   11.773      34.667
2015   10       31     3  53    4.1856   366.0   11.758      34.673
2015   10       31     4   0    4.1834   366.1   11.742      34.679
2015   10       31     4   7    4.1813   366.3   11.726      34.685
2015   10       31     4  15    4.1790   366.4   11.710      34.690
2015   10       31     4  22    4.1766   366.6   11.694      34.694
2015   10       31     4  29    4.1742   366.7   11.677      34.698
2015   10       31     4  36    4.1717   366.9   11.660      34.700
2015   10       31     4  43    4.1691   367.0   11.643      34.703
2015   10       31     4  50    4.1665   367.2   11.626      34.704
2015   10       31     4  57    4.1638   367.3   11.608      34.705
2015   10       31     5   4    4.1610   367.5   11.590      34.705
2015   10       31     5  12    4.1582   367.6   11.573      34.704
2015   10       31     5  19    4.1553   367.8   11.555      34.703
2015   10       31     5  26    4.1524   367.9   11.537      34.702
2015   10       31     5  33    4.1495   368.0   11.519      34.700
2015   10       31     5  40    4.1465   368.2   11.501      34.697
2015   10       31     5  47    4.1434   368.3   11.483      34.694
2015   10       31     5  54    4.1404   368.4   11.465      34.690
2015   10       31     6   1    4.1373   368.6   11.447      34.686
2015   10       31     6   9    4.1342   368.7   11.429      34.682
2015   10       31     6  16    4.1310   368.8   11.411      34.677
2015   10       31     6  23    4.1278   369.0   11.393      34.673
2015   10       31     6  30    4.1246   369.1   11.374      34.668
2015   10       31     6  37    4.1214   369.3   11.356      34.663
2015   10       31     6  44    4.1181   369.4   11.338      34.657
2015   10       31     6  51    4.1148   369.5   11.319      34.652
2015   10       31     6  58    4.1115   369.7   11.301      34.645
2015   10       31     7   6    4.1081   369.8   11.282      34.639
2015   10       31     7  13    4.1048   369.9   11.264      34.631
2015   10       31     7  20    4.1013   370.1   11.245      34.624
2015   10       31     7  27    4.0979   370.2   11.226      34.616
2015   10       31     7  34    4.0944   370.4   11.208      34.607
2015   10       31     7  41    4.0908   370.5   11.189      34.599
2015   10       31     7  48    4.0873   370.6   11.170      34.590
2015   10       31     7  55    4.0836   370.8   11.151      34.580
2015   10       31     8   3    4.0800   370.9   11.131      34.570
2015   10       31     8  10    4.0763   371.0   11.112      34.560
2015   10       31     8  17    4.0725   371.2   11.093      34.550
2015   10       31     8  24    4.0687   371.3   11.074      34.539
2015   10       31     8  31    4.0649   371.4   11.054      34.527
2015   10       31     8  38    4.0611   371.5   11.035      34.516
2015   10       31     8  45    4.0572   371.7   11.016      34.504
2015   10       31     8  53    4.0532   371.8   10.996      34.492
2015   10       31     9   0    4.0492   371.9   10.977      34.479
2015   10       31     9   7    4.0453   372.0   10.958      34.466
2015   10       31     9  14    4.0412   372.2   10.938      34.453
2015   10       31     9  21    4.0372   372.3   10.919      34.439
2015   10       31     9  28    4.0331   372.4   10.900      34.425
2015   10       31     9  35    4.0290   372.5   10.881      34.411
2015   10       31     9  42    4.0249   372.6   10.861      34.397
2015   10       31     9  50    4.0207   372.8   10.842      34.382
2015   10       31     9  57    4.0166   372.9   10.823      34.367
2015   10       31    10   4    4.0124   373.0   10.804      34.352
2015   10       31    10  11    4.0082   373.1   10.785      34.336
2015   10       31    10  18    4.0040   373.2   10.766      34.320
2015   10       31    10  25    3.9997   373.3   10.747      34.304
2015   10       31    10  32    3.9954   373.5   10.728      34.287
2015   10       31    10  39    3.9911   373.6   10.708      34.270
2015   10       31    10  47    3.9868   373.7   10.689      34.253
2015   10       31    10  54    3.9825   373.8   10.670      34.236
2015   10       31    11   1    3.9781   373.9   10.651      34.218
2015   10       31    11   8    3.9737   374.0   10.631      34.200
2015   10       31    11  15    3.9692   374.2   10.612      34.181
2015   10       31    11  22    3.9647   374.3   10.593      34.163
2015   10       31    11  29    3.9602   374.4   10.573      34.144
2015   10       31    11  36    3.9557   374.5   10.554      34.124
2015   10       31    11  43    3.9511   374.6   10.534      34.104
2015   10       31    11  51    3.9465   374.7   10.515      34.084
2015   10       31    11  58    3.9418   374.9   10.495      34.063
2015   10       31    12   5    3.9372   375.0   10.476      34.042
2015   10       31    12  12    3.9325   375.1   10.456      34.020
2015   10       31    12  19    3.9278   375.2   10.437      33.998
2015   10       31    12  26    3.9231   375.3   10.418      33.976
2015   10       31    12  33    3.9184   375.4   10.399      33.954
2015   10       31    12  40    3.9137   375.5   10.380      33.932
2015   10       31    12  48    3.9091   375.6   10.362      33.909
2015   10       31    12  55    3.9044   375.7   10.343      33.887
2015   10       31    13   2    3.8998   375.8   10.325      33.864
2015   10       31    13   9    3.8951   375.8   10.308      33.841
2015   10       31    13  16    3.8906   375.9   10.290      33.818
2015   10       31    13  23    3.8860   376.0   10.273      33.795
2015   10       31    13  30    3.8814   376.1   10.256      33.773
2015   10       31    13  37    3.8769   376.2   10.239      33.752
2015   10       31    13  45    3.8724   376.3   10.222      33.730
2015   10       31    13  52    3.8680   376.3   10.206      33.709
2015   10       31    13  59    3.8635   376.4   10.190      33.688
2015   10       31    14   6    3.8591   376.5   10.174      33.667
2015   10       31    14  13    3.8547   376.6   10.158      33.646
2015   10       31    14  20    3.8503   376.7   10.143      33.626
2015   10       31    14  27    3.8459   376.8   10.128      33.605
2015   10       31    14  34    3.8416   376.8   10.113      33.585
2015   10       31    14  42    3.8373   376.9   10.098      33.564
2015   10       31    14  49    3.8329   377.0   10.083      33.544
2015   10       31    14  56    3.8286   377.1   10.068      33.524
2015   10       31    15   3    3.8243   377.2   10.054      33.504
2015   10       31    15  10    3.8201   377.2   10.039      33.484
2015   10       31    15  17    3.8158   377.3   10.024      33.464
2015   10       31    15  24    3.8115   377.4   10.010      33.444
2015   10       31    15  31    3.8072   377.5    9.995      33.423
2015   10       31    15  39    3.8030   377.6    9.981      33.403
2015   10       31    15  46    3.7988   377.6    9.967      33.383
2015   10       31    15  53    3.7946   377.7    9.953      33.362
2015   10       31    16   0    3.7904   377.8    9.938      33.342
2015   10       31    16   7    3.7862   377.8    9.924      33.321
2015   10       31    16  14    3.7820   377.9    9.910      33.300
2015   10       31    16  21    3.7780   378.0    9.897      33.280
2015   10       31    16  29    3.7739   378.0    9.883      33.260
2015   10       31    16  36    3.7698   378.1    9.869      33.239
2015   10       31    16  43    3.7658   378.2    9.855      33.218
2015   10       31    16  50    3.7619   378.2    9.842      33.198
2015   10       31    16  57    3.7579   378.3    9.828      33.177
2015   10       31    17   4    3.7541   378.4    9.815      33.157
2015   10       31    17  11    3.7502   378.4    9.802      33.137
2015   10       31    17  18    3.7464   378.5    9.789      33.117
2015   10       31    17  26    3.7427   378.6    9.775      33.096
2015   10       31    17  33    3.7390   378.6    9.762      33.076
2015   10       31    17  40    3.7353   378.7    9.749      33.056
2015   10       31    17  47    3.7316   378.8    9.736      33.035
2015   10       31    17  54    3.7280   378.8    9.723      33.015
2015   10       31    18   1    3.7244   378.9    9.710      32.994
2015   10       31    18   8    3.7208   379.0    9.697      32.973
2015   10       31    18  15    3.7172   379.0    9.684      32.952
2015   10       31    18  22    3.7137   379.1    9.671      32.930
2015   10       31    18  30    3.7102   379.2    9.658      32.908
2015   10       31    18  37    3.7067   379.2    9.645      32.887
2015   10       31    18  44    3.7032   379.3    9.632      32.864
2015   10       31    18  51    3.6998   379.4    9.620      32.842
2015   10       31    18  58    3.6964   379.4    9.607      32.819
2015   10       31    19   5    3.6930   379.5    9.594      32.797
2015   10       31    19  12    3.6896   379.5    9.582      32.774
2015   10       31    19  19    3.6863   379.6    9.569      32.751
2015   10       31    19  27    3.6830   379.7    9.557      32.728
2015   10       31    19  34    3.6798   379.7    9.545      32.706
2015   10       31    19  41    3.6766   379.8    9.532      32.683
2015   10       31    19  48    3.6734   379.8    9.520      32.660
2015   10       31    19  55    3.6703   379.9    9.509      32.638
2015   10       31    20   2    3.6672   379.9    9.497      32.615
2015   10       31    20   9    3.6642   380.0    9.485      32.593
2015   10       31    20  16    3.6612   380.0    9.474      32.571
2015   10       31    20  24    3.6583   380.1    9.463      32.549
2015   10       31    20  31    3.6554   380.1    9.452      32.527
2015   10       31    20  38    3.6525   380.1    9.441      32.506
2015   10       31    20  45    3.6497   380.2    9.431      32.485
2015   10       31    20  52    3.6469   380.2    9.420      32.464
2015   10       31    20  59    3.6442   380.3    9.410      32.444
2015   10       31    21   6    3.6415   380.3    9.400      32.424
2015   10       31    21  13    3.6389   380.4    9.391      32.404
2015   10       31    21  21    3.6363   380.4    9.381      32.385
2015   10       31    21  28    3.6337   380.4    9.372      32.366
2015   10       31    21  35    3.6312   380.5    9.363      32.348
2015   10       31    21  42    3.6287   380.5    9.355      32.330
2015   10       31    21  49    3.6263   380.5    9.346      32.313
2015   10       31    21  56    3.6239   380.6    9.338      32.296
2015   10       31    22   3    3.6215   380.6    9.330      32.279
2015   10       31    22  10    3.6191   380.7    9.323      32.263
2015   10       31    22  18    3.6169   380.7    9.315      32.247
2015   10       31    22  25    3.6146   380.7    9.308      32.232
2015   10       31    22  32    3.6124   380.7    9.301      32.217
2015   10       31    22  39    3.6102   380.8    9.294      32.202
2015   10       31    22  46    3.6081   380.8    9.287      32.188
2015   10       31    22  53    3.6060   380.8    9.280      32.174
2015   10       31    23   0    3.6039   380.9    9.273      32.160
2015   10       31    23   7    3.6019   380.9    9.267      32.146
2015   10       31    23  15    3.6000   380.9    9.261      32.133
2015   10       31    23  22    3.5980   380.9    9.255      32.120
2015   10       31    23  29    3.5962   381.0    9.249      32.108
2015   10       31    23  36    3.5943   381.0    9.243      32.095
2015   10       31    23  43    3.5926   381.0    9.237      32.083
2015   10       31    23  50    3.5909   381.1    9.231      32.071
2015   10       31    23  57    3.5892   381.1    9.225      32.060
2015   11        1     0   4    3.5876   381.1    9.220      32.048
2015   11        1     0  12    3.5860   381.1    9.214      32.037
2015   11        1     0  19    3.5845   381.2    9.208      32.026
2015   11        1     0  26    3.5830   381.2    9.203      32.015
2015   11        1     0  33    3.5816   381.2    9.197      32.004
2015   11        1     0  40    3.5802   381.2    9.192      31.993
2015   11        1     0  47    3.5789   381.3    9.187      31.982
2015   11        1     0  54    3.5776   381.3    9.181      31.971
2015   11        1     1   1    3.5763   381.3    9.176      31.961
2015   11        1     1   9    3.5750   381.3    9.171      31.950
2015   11        1     1  16    3.5738   381.3    9.165      31.940
2015   11        1     1  23    3.5726   381.4    9.160      31.929
2015   11        1     1  30    3.5714   381.4    9.155      31.919
2015   11        1     1  37    3.5703   381.4    9.150      31.908
2015   11        1     1  44    3.5692   381.4    9.144      31.898
2015   11        1     1  51    3.5681   381.4    9.139      31.887
2015   11        1     1  58    3.5670   381.5    9.134      31.877
2015   11        1     2   6    3.5660   381.5    9.129      31.866
2015   11        1     2  13    3.5649   381.5    9.124      31.856
2015   11        1     2  20    3.5639   381.5    9.119      31.846
2015   11        1     2  27    3.5629   381.5    9.114      31.835
2015   11        1     2  34    3.5619   381.6    9.109      31.825
2015   11        1     2  41    3.5609   381.6    9.104      31.815
2015   11        1     2  48    3.5600   381.6    9.099      31.805
2015   11        1     2  55    3.5591   381.6    9.094      31.795
2015   11        1     3   2    3.5582   381.6    9.090      31.785
2015   11        1     3  10    3.5573   381.7    9.085      31.775
2015   11        1     3  17    3.5564   381.7    9.080      31.765
2015   11        1     3  24    3.5556   381.7    9.076      31.755
2015   11        1     3  31    3.5548   381.7    9.071      31.746
2015   11        1     3  38    3.5540   381.7    9.067      31.736
2015   11        1     3  45    3.5532   381.7    9.063      31.727
2015   11        1     3  52    3.5525   381.8    9.058      31.717
2015   11        1     3  59    3.5518   381.8    9.054      31.708
2015   11        1     4   7    3.5511   381.8    9.050      31.699
2015   11        1     4  14    3.5505   381.8    9.046      31.690
2015   11        1     4  21    3.5499   381.8    9.042      31.681
2015   11        1     4  28    3.5493   381.8    9.039      31.672
2015   11        1     4  35    3.5488   381.8    9.035      31.663
2015   11        1     4  42    3.5483   381.9    9.032      31.655
2015   11        1     4  49    3.5478   381.9    9.028      31.646
2015   11        1     4  56    3.5474   381.9    9.025      31.638
2015   11        1     5   4    3.5471   381.9    9.022      31.630
2015   11        1     5  11    3.5468   381.9    9.020      31.623
2015   11        1     5  18    3.5465   381.9    9.017      31.615
2015   11        1     5  25    3.5463   381.9    9.015      31.608
2015   11        1     5  32    3.5461   381.9    9.012      31.601
2015   11        1     5  39    3.5460   381.9    9.010      31.594
2015   11        1     5  46    3.5459   381.9    9.009      31.588
2015   11        1     5  53    3.5460   382.0    9.007      31.582
2015   11        1     6   1    3.5460   382.0    9.006      31.576
2015   11        1     6   8    3.5462   382.0    9.005      31.570
2015   11        1     6  15    3.5463   382.0    9.004      31.565
2015   11        1     6  22    3.5466   382.0    9.003      31.561
2015   11        1     6  29    3.5469   382.0    9.003      31.556
2015   11        1     6  36    3.5473   382.0    9.003      31.552
2015   11        1     6  43    3.5478   382.0    9.003      31.549
2015   11        1     6  50    3.5483   382.0    9.003      31.546
2015   11        1     6  58    3.5489   382.0    9.004      31.544
2015   11        1     7   5    3.5496   382.0    9.005      31.542
2015   11        1     7  12    3.5503   382.0    9.006      31.541
2015   11        1     7  19    3.5511   382.0    9.008      31.540
2015   11        1     7  26    3.5519   382.0    9.010      31.540
2015   11        1     7  33    3.5527   382.0    9.012      31.541
2015   11        1     7  40    3.5536   382.1    9.013      31.544
2015   11        1     7  47    3.5546   382.1    9.016      31.547
2015   11        1     7  55    3.5556   382.1    9.018      31.550
2015   11        1     8   2    3.5566   382.1    9.020      31.555
2015   11        1     8   9    3.5576   382.1    9.022      31.559
2015   11        1     8  16    3.5587   382.1    9.024      31.565
2015   11        1     8  23    3.5597   382.1    9.027      31.570
2015   11        1     8  30    3.5608   382.1    9.029      31.576
2015   11        1     8  37    3.5620   382.2    9.031      31.583
2015   11        1     8  44    3.5631   382.2    9.033      31.590
2015   11        1     8  52    3.5643   382.2    9.035      31.596
2015   11        1     8  59    3.5655   382.2    9.038      31.603
2015   11        1     9   6    3.5667   382.2    9.040      31.610
2015   11        1     9  13    3.5679   382.2    9.042      31.617
2015   11        1     9  20    3.5692   382.3    9.044      31.624
2015   11        1     9  27    3.5705   382.3    9.046      31.631
2015   11        1     9  34    3.5718   382.3    9.048      31.638
2015   11        1     9  41    3.5732   382.3    9.050      31.645
2015   11        1     9  48    3.5745   382.3    9.052      31.651
2015   11        1     9  56    3.5759   382.3    9.054      31.658
2015   11        1    10   3    3.5774   382.3    9.056      31.665
2015   11        1    10  10    3.5788   382.4    9.059      31.672
2015   11        1    10  17    3.5803   382.4    9.061      31.679
2015   11        1    10  24    3.5819   382.4    9.063      31.687
2015   11        1    10  31    3.5834   382.4    9.065      31.694
2015   11        1    10  38    3.5851   382.4    9.068      31.701
2015   11        1    10  45    3.5867   382.4    9.070      31.708
2015   11        1    10  53    3.5884   382.5    9.073      31.716
2015   11        1    11   0    3.5901   382.5    9.075      31.724
2015   11        1    11   7    3.5919   382.5    9.078      31.731
2015   11        1    11  14    3.5937   382.5    9.081      31.739
2015   11        1    11  21    3.5956   382.5    9.083      31.747
2015   11        1    11  28    3.5975   382.5    9.087      31.755
2015   11        1    11  35    3.5995   382.5    9.090      31.764
2015   11        1    11  42    3.6016   382.6    9.093      31.773
2015   11        1    11  50    3.6037   382.6    9.097      31.782
2015   11        1    11  57    3.6059   382.6    9.101      31.791
2015   11        1    12   4    3.6081   382.6    9.105      31.801
2015   11        1    12  11    3.6104   382.6    9.110      31.811
2015   11        1    12  18    3.6128   382.6    9.114      31.822
2015   11        1    12  25    3.6153   382.7    9.120      31.833
2015   11        1    12  32    3.6179   382.7    9.125      31.845
2015   11        1    12  39    3.6205   382.7    9.131      31.857
2015   11        1    12  47    3.6233   382.7    9.138      31.870
2015   11        1    12  54    3.6261   382.7    9.144      31.884
2015   11        1    13   1    3.6290   382.8    9.152      31.898
2015   11        1    13   8    3.6321   382.8    9.160      31.914
2015   11        1    13  15    3.6352   382.8    9.168      31.932
2015   11        1    13  22    3.6383   382.9    9.176      31.952
2015   11        1    13  29    3.6416   382.9    9.185      31.973
2015   11        1    13  36    3.6449   382.9    9.194      31.996
2015   11        1    13  44    3.6482   383.0    9.203      32.021
2015   11        1    13  51    3.6516   383.0    9.212      32.046
2015   11        1    13  58    3.6551   383.1    9.221      32.073
2015   11        1    14   5    3.6585   383.1    9.230      32.100
2015   11        1    14  12    3.6620   383.1    9.239      32.129
2015   11        1    14  19    3.6655   383.2    9.248      32.158
2015   11        1    14  26    3.6690   383.3    9.257      32.189
2015   11        1    14  33    3.6725   383.3    9.265      32.221
2015   11        1    14  41    3.6760   383.4    9.273      32.253
2015   11        1    14  48    3.6795   383.4    9.282      32.285
2015   11        1    14  55    3.6830   383.5    9.289      32.318
2015   11        1    15   2    3.6865   383.6    9.297      32.350
2015   11        1    15   9    3.6900   383.6    9.304      32.382
2015   11        1    15  16    3.6935   383.7    9.311      32.414
2015   11        1    15  23    3.6970   383.7    9.318      32.446
2015   11        1    15  30    3.7005   383.8    9.325      32.478
2015   11        1    15  38    3.7040   383.9    9.332      32.510
2015   11        1    15  45    3.7076   383.9    9.338      32.542
2015   11        1    15  52    3.7112   384.0    9.345      32.575
2015   11        1    15  59    3.7148   384.1    9.351      32.606
2015   11        1    16   6    3.7185   384.1    9.358      32.638
2015   11        1    16  13    3.7221   384.2    9.364      32.670
2015   11        1    16  20    3.7258   384.3    9.370      32.702
2015   11        1    16  27    3.7296   384.3    9.376      32.734
2015   11        1    16  35    3.7333   384.4    9.383      32.767
2015   11        1    16  42    3.7370   384.5    9.389      32.799
2015   11        1    16  49    3.7408   384.5    9.395      32.833
2015   11        1    16  56    3.7446   384.6    9.400      32.866
2015   11        1    17   3    3.7484   384.7    9.406      32.899
2015   11        1    17  10    3.7521   384.8    9.412      32.932
2015   11        1    17  17    3.7559   384.8    9.417      32.965
2015   11        1    17  24    3.7597   384.9    9.423      32.998
2015   11        1    17  31    3.7634   385.0    9.428      33.031
2015   11        1    17  39    3.7671   385.1    9.433      33.064
2015   11        1    17  46    3.7708   385.2    9.438      33.097
2015   11        1    17  53    3.7745   385.2    9.442      33.129
2015   11        1    18   0    3.7782   385.3    9.447      33.161
2015   11        1    18   7    3.7818   385.4    9.452      33.193
2015   11        1    18  14    3.7855   385.5    9.456      33.224
2015   11        1    18  21    3.7891   385.6    9.461      33.255
2015   11        1    18  28    3.7927   385.6    9.465      33.286
2015   11        1    18  36    3.7963   385.7    9.470      33.316
2015   11        1    18  43    3.7999   385.8    9.474      33.346
2015   11        1    18  50    3.8036   385.9    9.479      33.377
2015   11        1    18  57    3.8072   386.0    9.483      33.407
2015   11        1    19   4    3.8108   386.0    9.488      33.437
2015   11        1    19  11    3.8144   386.1    9.493      33.467
2015   11        1    19  18    3.8181   386.2    9.498      33.497
2015   11        1    19  25    3.8218   386.3    9.503      33.527
2015   11        1    19  33    3.8254   386.4    9.509      33.558
2015   11        1    19  40    3.8291   386.5    9.514      33.589
2015   11        1    19  47    3.8329   386.6    9.520      33.620
2015   11        1    19  54    3.8366   386.6    9.526      33.651
2015   11        1    20   1    3.8405   386.7    9.533      33.682
2015   11        1    20   8    3.8443   386.8    9.540      33.714
2015   11        1    20  15    3.8481   386.9    9.547      33.747
2015   11        1    20  22    3.8520   387.0    9.555      33.780
2015   11        1    20  30    3.8559   387.1    9.563      33.815
2015   11        1    20  37    3.8598   387.2    9.571      33.852
2015   11        1    20  44    3.8637   387.3    9.579      33.889
2015   11        1    20  51    3.8676   387.4    9.588      33.929
2015   11        1    20  58    3.8714   387.5    9.596      33.969
2015   11        1    21   5    3.8752   387.6    9.604      34.011
2015   11        1    21  12    3.8791   387.7    9.613      34.053
2015   11        1    21  19    3.8828   387.8    9.621      34.096
2015   11        1    21  27    3.8866   388.0    9.629      34.140
2015   11        1    21  34    3.8902   388.1    9.637      34.185
2015   11        1    21  41    3.8939   388.2    9.645      34.230
2015   11        1    21  48    3.8975   388.3    9.653      34.277
2015   11        1    21  55    3.9011   388.4    9.661      34.324
2015   11        1    22   2    3.9047   388.6    9.669      34.370
2015   11        1    22   9    3.9083   388.7    9.677      34.417
2015   11        1    22  16    3.9119   388.8    9.685      34.465
2015   11        1    22  24    3.9155   388.9    9.694      34.512
2015   11        1    22  31    3.9191   389.0    9.702      34.561
2015   11        1    22  38    3.9228   389.2    9.711      34.610
2015   11        1    22  45    3.9266   389.3    9.721      34.659
2015   11        1    22  52    3.9304   389.4    9.731      34.709
2015   11        1    22  59    3.9343   389.5    9.741      34.761
2015   11        1    23   6    3.9383   389.6    9.752      34.816
2015   11        1    23  13    3.9425   389.8    9.763      34.874
2015   11        1    23  21    3.9467   389.9    9.774      34.933
2015   11        1    23  28    3.9509   390.1    9.786      34.995
2015   11        1    23  35    3.9552   390.2    9.797      35.059
2015   11        1    23  42    3.9596   390.4    9.808      35.126
2015   11        1    23  49    3.9638   390.5    9.819      35.193
2015   11        1    23  56    3.9681   390.7    9.830      35.262
2015   11        2     0   3    3.9723   390.9    9.840      35.331
2015   11        2     0  10    3.9764   391.0    9.850      35.401
2015   11        2     0  18    3.9805   391.2    9.858      35.472
2015   11        2     0  25    3.9844   391.4    9.866      35.542
2015   11        2     0  32    3.9881   391.6    9.874      35.612
2015   11        2     0  39    3.9918   391.8    9.880      35.680
2015   11        2     0  46    3.9952   391.9    9.886      35.747
2015   11        2     0  53    3.9986   392.1    9.891      35.812
2015   11        2     1   0    4.0018   392.3    9.895      35.876
2015   11        2     1   7    4.0048   392.5    9.898      35.939
2015   11        2     1  14    4.0078   392.7    9.901      36.000
2015   11        2     1  22    4.0106   392.9    9.903      36.059
2015   11        2     1  29    4.0132   393.0    9.904      36.117
2015   11        2     1  36    4.0158   393.2    9.905      36.174
2015   11        2     1  43    4.0183   393.4    9.906      36.229
2015   11        2     1  50    4.0206   393.6    9.905      36.282
2015   11        2     1  57    4.0229   393.8    9.905      36.334
2015   11        2     2   4    4.0251   394.0    9.904      36.385
2015   11        2     2  11    4.0272   394.2    9.902      36.435
2015   11        2     2  19    4.0293   394.4    9.901      36.483
2015   11        2     2  26    4.0313   394.5    9.898      36.530
2015   11        2     2  33    4.0332   394.7    9.896      36.576
2015   11        2     2  40    4.0351   394.9    9.894      36.621
2015   11        2     2  47    4.0370   395.1    9.891      36.665
2015   11        2     2  54    4.0389   395.3    9.888      36.709
2015   11        2     3   1    4.0408   395.5    9.885      36.751
2015   11        2     3   8    4.0426   395.7    9.882      36.792
2015   11        2     3  16    4.0445   395.8    9.880      36.834
2015   11        2     3  23    4.0463   396.0    9.877      36.875
2015   11        2     3  30    4.0481   396.2    9.875      36.917
2015   11        2     3  37    4.0499   396.4    9.872      36.959
2015   11        2     3  44    4.0516   396.6    9.870      37.002
2015   11        2     3  51    4.0533   396.8    9.867      37.045
2015   11        2     3  58    4.0549   397.0    9.865      37.089
2015   11        2     4   5    4.0564   397.1    9.862      37.132
2015   11        2     4  13    4.0579   397.3    9.860      37.176
2015   11        2     4  20    4.0592   397.5    9.857      37.221
2015   11        2     4  27    4.0605   397.7    9.854      37.265
2015   11        2     4  34    4.0617   397.9    9.852      37.310
2015   11        2     4  41    4.0628   398.1    9.849      37.356
2015   11        2     4  48    4.0639   398.3    9.846      37.401
2015   11        2     4  55    4.0648   398.5    9.843      37.447
2015   11        2     5   2    4.0657   398.7    9.840      37.492
2015   11        2     5  10    4.0665   398.9    9.837      37.537
2015   11        2     5  17    4.0673   399.1    9.834      37.582
2015   11        2     5  24    4.0679   399.3    9.831      37.626
2015   11        2     5  31    4.0686   399.5    9.828      37.669
2015   11        2     5  38    4.0692   399.7    9.825      37.712
2015   11        2     5  45    4.0697   399.9    9.823      37.755
2015   11        2     5  52    4.0703   400.1    9.821      37.796
2015   11        2     5  59    4.0708   400.3    9.819      37.837
2015   11        2     6   7    4.0713   400.5    9.817      37.877
2015   11        2     6  14    4.0718   400.7    9.816      37.918
2015   11        2     6  21    4.0723   400.9    9.815      37.960
2015   11        2     6  28    4.0729   401.1    9.814      38.004
2015   11        2     6  35    4.0735   401.3    9.813      38.049
2015   11        2     6  42    4.0740   401.5    9.812      38.095
2015   11        2     6  49    4.0745   401.7    9.811      38.143
2015   11        2     6  56    4.0750   401.9    9.810      38.192
2015   11        2     7   4    4.0754   402.2    9.808      38.241
2015   11        2     7  11    4.0757   402.4    9.807      38.290
2015   11        2     7  18    4.0758   402.6    9.804      38.340
2015   11        2     7  25    4.0760   402.8    9.801      38.389
2015   11        2     7  32    4.0759   403.0    9.797      38.438
2015   11        2     7  39    4.0757   403.2    9.793      38.488
2015   11        2     7  46    4.0753   403.5    9.787      38.536
2015   11        2     7  53    4.0748   403.7    9.781      38.583
2015   11        2     8   0    4.0741   403.9    9.775      38.628
2015   11        2     8   8    4.0733   404.1    9.768      38.671
2015   11        2     8  15    4.0722   404.3    9.760      38.713
2015   11        2     8  22    4.0711   404.6    9.751      38.754
2015   11        2     8  29    4.0698   404.8    9.742      38.792
2015   11        2     8  36    4.0684   405.0    9.733      38.830
2015   11        2     8  43    4.0668   405.2    9.723      38.866
2015   11        2     8  50    4.0652   405.4    9.712      38.901
2015   11        2     8  57    4.0634   405.6    9.702      38.934
2015   11        2     9   5    4.0615   405.8    9.690      38.966
2015   11        2     9  12    4.0595   406.1    9.679      38.997
2015   11        2     9  19    4.0575   406.3    9.667      39.027
2015   11        2     9  26    4.0554   406.5    9.654      39.055
2015   11        2     9  33    4.0532   406.7    9.642      39.082
2015   11        2     9  40    4.0509   406.9    9.629      39.108
2015   11        2     9  47    4.0486   407.1    9.616      39.133
2015   11        2     9  54    4.0462   407.3    9.602      39.157
2015   11        2    10   2    4.0438   407.5    9.589      39.181
2015   11        2    10   9    4.0413   407.8    9.575      39.203
2015   11        2    10  16    4.0388   408.0    9.562      39.224
2015   11        2    10  23    4.0363   408.2    9.548      39.245
2015   11        2    10  30    4.0338   408.4    9.535      39.265
2015   11        2    10  37    4.0311   408.6    9.521      39.285
2015   11        2    10  44    4.0285   408.8    9.507      39.305
2015   11        2    10  51    4.0258   409.1    9.494      39.326
2015   11        2    10  59    4.0231   409.3    9.480      39.348
2015   11        2    11   6    4.0202   409.5    9.466      39.370
2015   11        2    11  13    4.0173   409.7    9.452      39.392
2015   11        2    11  20    4.0143   410.0    9.438      39.415
2015   11        2    11  27    4.0111   410.2    9.423      39.438
2015   11        2    11  34    4.0078   410.5    9.409      39.461
2015   11        2    11  41    4.0044   410.7    9.393      39.484
2015   11        2    11  48    4.0007   410.9    9.377      39.506
2015   11        2    11  56    3.9969   411.2    9.361      39.529
2015   11        2    12   3    3.9928   411.5    9.343      39.550
2015   11        2    12  10    3.9885   411.7    9.325      39.567
2015   11        2    12  17    3.9840   412.0    9.306      39.582
2015   11        2    12  24    3.9793   412.2    9.287      39.594
2015   11        2    12  31    3.9743   412.5    9.267      39.603
2015   11        2    12  38    3.9693   412.7    9.247      39.610
2015   11        2    12  45    3.9640   412.9    9.226      39.614
2015   11        2    12  53    3.9587   413.2    9.205      39.615
2015   11        2    13   0    3.9532   413.4    9.184      39.615
2015   11        2    13   7    3.9477   413.6    9.162      39.613
2015   11        2    13  14    3.9421   413.8    9.141      39.609
2015   11        2    13  21    3.9365   414.0    9.120      39.605
2015   11        2    13  28    3.9309   414.2    9.099      39.598
2015   11        2    13  35    3.9253   414.4    9.078      39.590
2015   11        2    13  42    3.9197   414.6    9.057      39.583
2015   11        2    13  50    3.9141   414.8    9.037      39.575
2015   11        2    13  57    3.9086   415.0    9.017      39.567
2015   11        2    14   4    3.9031   415.2    8.997      39.559
2015   11        2    14  11    3.8976   415.4    8.977      39.551
2015   11        2    14  18    3.8922   415.6    8.958      39.542
2015   11        2    14  25    3.8867   415.7    8.939      39.533
2015   11        2    14  32    3.8813   415.9    8.920      39.524
2015   11        2    14  39    3.8758   416.1    8.902      39.515
2015   11        2    14  46    3.8704   416.2    8.883      39.505
2015   11        2    14  54    3.8649   416.4    8.865      39.495
2015   11        2    15   1    3.8595   416.6    8.847      39.486
2015   11        2    15   8    3.8540   416.7    8.829      39.476
2015   11        2    15  15    3.8485   416.9    8.811      39.465
2015   11        2    15  22    3.8429   417.1    8.794      39.455
2015   11        2    15  29    3.8374   417.2    8.776      39.443
2015   11        2    15  36    3.8318   417.4    8.759      39.432
2015   11        2    15  43    3.8262   417.6    8.742      39.420
2015   11        2    15  51    3.8205   417.7    8.724      39.407
2015   11        2    15  58    3.8149   417.9    8.707      39.394
2015   11        2    16   5    3.8091   418.1    8.690      39.380
2015   11        2    16  12    3.8034   418.2    8.673      39.366
2015   11        2    16  19    3.7976   418.4    8.655      39.350
2015   11        2    16  26    3.7917   418.6    8.638      39.334
2015   11        2    16  33    3.7858   418.7    8.621      39.318
2015   11        2    16  40    3.7798   418.9    8.603      39.299
2015   11        2    16  48    3.7738   419.0    8.586      39.280
2015   11        2    16  55    3.7677   419.2    8.569      39.260
2015   11        2    17   2    3.7616   419.4    8.551      39.239
2015   11        2    17   9    3.7554   419.5    8.533      39.217
2015   11        2    17  16    3.7492   419.7    8.516      39.195
2015   11        2    17  23    3.7430   419.8    8.498      39.172
2015   11        2    17  30    3.7367   420.0    8.480      39.148
2015   11        2    17  37    3.7305   420.1    8.463      39.124
2015   11        2    17  45    3.7241   420.3    8.445      39.099
2015   11        2    17  52    3.7178   420.4    8.427      39.074
2015   11        2    17  59    3.7115   420.6    8.409      39.049
2015   11        2    18   6    3.7052   420.7    8.391      39.024
2015   11        2    18  13    3.6989   420.8    8.373      38.998
2015   11        2    18  20    3.6925   421.0    8.356      38.972
2015   11        2    18  27    3.6862   421.1    8.338      38.946
2015   11        2    18  34    3.6799   421.3    8.320      38.920
2015   11        2    18  42    3.6735   421.4    8.302      38.893
2015   11        2    18  49    3.6671   421.6    8.284      38.865
2015   11        2    18  56    3.6607   421.7    8.265      38.837
2015   11        2    19   3    3.6543   421.9    8.247      38.807
2015   11        2    19  10    3.6478   422.0    8.228      38.776
2015   11        2    19  17    3.6413   422.2    8.210      38.745
2015   11        2    19  24    3.6347   422.3    8.190      38.711
2015   11        2    19  31    3.6280   422.5    8.171      38.675
2015   11        2    19  39    3.6213   422.6    8.152      38.636
2015   11        2    19  46    3.6145   422.7    8.132      38.595
2015   11        2    19  53    3.6077   422.8    8.113      38.553
2015   11        2    20   0    3.6010   423.0    8.094      38.509
2015   11        2    20   7    3.5942   423.1    8.075      38.464
2015   11        2    20  14    3.5875   423.2    8.057      38.419
2015   11        2    20  21    3.5808   423.3    8.039      38.374
2015   11        2    20  28    3.5743   423.4    8.021      38.330
2015   11        2    20  36    3.5678   423.5    8.004      38.286
2015   11        2    20  43    3.5614   423.5    7.988      38.242
2015   11        2    20  50    3.5551   423.6    7.972      38.200
2015   11        2    20  57    3.5490   423.7    7.958      38.160
2015   11        2    21   4    3.5430   423.7    7.943      38.123
2015   11        2    21  11    3.5371   423.8    7.930      38.087
2015   11        2    21  18    3.5314   423.9    7.916      38.054
2015   11        2    21  25    3.5258   423.9    7.904      38.022
2015   11        2    21  33    3.5203   424.0    7.892      37.991
2015   11        2    21  40    3.5149   424.0    7.880      37.962
2015   11        2    21  47    3.5097   424.1    7.868      37.933
2015   11        2    21  54    3.5046   424.1    7.857      37.905
2015   11        2    22   1    3.4995   424.2    7.847      37.878
2015   11        2    22   8    3.4946   424.2    7.836      37.852
2015   11        2    22  15    3.4897   424.3    7.826      37.827
2015   11        2    22  22    3.4850   424.3    7.816      37.802
2015   11        2    22  29    3.4803   424.3    7.806      37.777
2015   11        2    22  37    3.4757   424.4    7.796      37.752
2015   11        2    22  44    3.4712   424.4    7.787      37.726
2015   11        2    22  51    3.4667   424.5    7.778      37.701
2015   11        2    22  58    3.4622   424.5    7.769      37.675
2015   11        2    23   5    3.4578   424.6    7.760      37.650
2015   11        2    23  12    3.4535   424.6    7.751      37.624
2015   11        2    23  19    3.4491   424.7    7.742      37.598
2015   11        2    23  26    3.4449   424.7    7.733      37.572
2015   11        2    23  34    3.4405   424.8    7.725      37.545
2015   11        2    23  41    3.4363   424.8    7.716      37.519
2015   11        2    23  48    3.4320   424.9    7.707      37.491
2015   11        2    23  55    3.4278   424.9    7.699      37.463
2015   11        3     0   2    3.4235   424.9    7.690      37.434
2015   11        3     0   9    3.4192   425.0    7.682      37.404
2015   11        3     0  16    3.4150   425.0    7.673      37.374
2015   11        3     0  23    3.4108   425.1    7.665      37.344
2015   11        3     0  31    3.4066   425.1    7.656      37.313
2015   11        3     0  38    3.4025   425.1    7.648      37.282
2015   11        3     0  45    3.3984   425.1    7.639      37.250
2015   11        3     0  52    3.3944   425.2    7.631      37.219
2015   11        3     0  59    3.3904   425.2    7.623      37.187
2015   11        3     1   6    3.3864   425.2    7.614      37.155
2015   11        3     1  13    3.3825   425.2    7.606      37.123
2015   11        3     1  20    3.3787   425.3    7.598      37.091
2015   11        3     1  28    3.3750   425.3    7.590      37.059
2015   11        3     1  35    3.3713   425.3    7.581      37.027
2015   11        3     1  42    3.3677   425.3    7.573      36.995
2015   11        3     1  49    3.3643   425.3    7.566      36.962
2015   11        3     1  56    3.3608   425.3    7.558      36.930
2015   11        3     2   3    3.3575   425.3    7.550      36.898
2015   11        3     2  10    3.3542   425.3    7.543      36.865
2015   11        3     2  17    3.3511   425.3    7.535      36.832
2015   11        3     2  25    3.3480   425.3    7.528      36.799
2015   11        3     2  32    3.3450   425.3    7.521      36.766
2015   11        3     2  39    3.3421   425.3    7.514      36.733
2015   11        3     2  46    3.3393   425.3    7.508      36.700
2015   11        3     2  53    3.3365   425.3    7.502      36.667
2015   11        3     3   0    3.3339   425.3    7.496      36.635
2015   11        3     3   7    3.3314   425.3    7.491      36.603
2015   11        3     3  14    3.3289   425.3    7.486      36.571
2015   11        3     3  22    3.3266   425.2    7.481      36.541
2015   11        3     3  29    3.3243   425.2    7.477      36.511
2015   11        3     3  36    3.3222   425.2    7.473      36.482
2015   11        3     3  43    3.3201   425.2    7.470      36.455
2015   11        3     3  50    3.3181   425.2    7.467      36.429
2015   11        3     3  57    3.3163   425.1    7.465      36.404
2015   11        3     4   4    3.3145   425.1    7.463      36.382
2015   11        3     4  11    3.3128   425.1    7.461      36.361
2015   11        3     4  19    3.3112   425.1    7.460      36.342
2015   11        3     4  26    3.3097   425.1    7.459      36.325
2015   11        3     4  33    3.3083   425.1    7.458      36.309
2015   11        3     4  40    3.3070   425.0    7.458      36.294
2015   11        3     4  47    3.3058   425.0    7.457      36.281
2015   11        3     4  54    3.3046   425.0    7.457      36.269
2015   11        3     5   1    3.3036   425.0    7.458      36.257
2015   11        3     5   8    3.3027   425.0    7.458      36.247
2015   11        3     5  15    3.3018   424.9    7.458      36.236
2015   11        3     5  23    3.3011   424.9    7.459      36.227
2015   11        3     5  30    3.3004   424.9    7.460      36.218
2015   11        3     5  37    3.2999   424.9    7.461      36.210
2015   11        3     5  44    3.2994   424.9    7.462      36.201
2015   11        3     5  51    3.2990   424.8    7.463      36.193
2015   11        3     5  58    3.2987   424.8    7.464      36.184
2015   11        3     6   5    3.2986   424.8    7.466      36.176
2015   11        3     6  12    3.2984   424.8    7.467      36.168
2015   11        3     6  20    3.2984   424.8    7.469      36.160
2015   11        3     6  27    3.2984   424.7    7.471      36.152
2015   11        3     6  34    3.2986   424.7    7.473      36.145
2015   11        3     6  41    3.2989   424.7    7.476      36.137
2015   11        3     6  48    3.2992   424.7    7.479      36.131
2015   11        3     6  55    3.2997   424.6    7.482      36.124
2015   11        3     7   2    3.3003   424.6    7.485      36.118
2015   11        3     7   9    3.3008   424.6    7.489      36.113
2015   11        3     7  17    3.3016   424.6    7.493      36.108
2015   11        3     7  24    3.3023   424.5    7.497      36.105
2015   11        3     7  31    3.3032   424.5    7.501      36.102
2015   11        3     7  38    3.3041   424.5    7.506      36.101
2015   11        3     7  45    3.3051   424.5    7.510      36.100
2015   11        3     7  52    3.3061   424.5    7.515      36.101
2015   11        3     7  59    3.3072   424.4    7.519      36.102
2015   11        3     8   6    3.3083   424.4    7.524      36.103
2015   11        3     8  14    3.3095   424.4    7.529      36.105
2015   11        3     8  21    3.3108   424.4    7.533      36.107
2015   11        3     8  28    3.3121   424.4    7.538      36.110
2015   11        3     8  35    3.3134   424.3    7.542      36.113
2015   11        3     8  42    3.3149   424.3    7.547      36.116
2015   11        3     8  49    3.3164   424.3    7.552      36.119
2015   11        3     8  56    3.3179   424.3    7.556      36.121
2015   11        3     9   3    3.3195   424.3    7.561      36.124
2015   11        3     9  11    3.3212   424.2    7.566      36.127
2015   11        3     9  18    3.3228   424.2    7.570      36.130
2015   11        3     9  25    3.3246   424.2    7.575      36.134
2015   11        3     9  32    3.3263   424.2    7.579      36.138
2015   11        3     9  39    3.3281   424.2    7.584      36.143
2015   11        3     9  46    3.3300   424.2    7.588      36.148
2015   11        3     9  53    3.3319   424.1    7.593      36.154
2015   11        3    10   0    3.3338   424.1    7.597      36.159
2015   11        3    10   8    3.3357   424.1    7.601      36.165
2015   11        3    10  15    3.3377   424.1    7.606      36.172
2015   11        3    10  22    3.3397   424.1    7.610      36.178
2015   11        3    10  29    3.3417   424.1    7.614      36.185
2015   11        3    10  36    3.3437   424.1    7.618      36.192
2015   11        3    10  43    3.3458   424.1    7.622      36.199
2015   11        3    10  50    3.3480   424.1    7.626      36.206
2015   11        3    10  57    3.3501   424.1    7.630      36.213
2015   11        3    11   5    3.3524   424.0    7.634      36.221
2015   11        3    11  12    3.3546   424.0    7.638      36.228
2015   11        3    11  19    3.3570   424.0    7.643      36.236
2015   11        3    11  26    3.3593   424.0    7.647      36.244
2015   11        3    11  33    3.3618   424.0    7.652      36.252
2015   11        3    11  40    3.3643   424.0    7.656      36.261
2015   11        3    11  47    3.3669   424.0    7.661      36.271
2015   11        3    11  54    3.3695   424.0    7.666      36.281
2015   11        3    12   2    3.3722   424.0    7.671      36.292
2015   11        3    12   9    3.3750   424.0    7.677      36.303
2015   11        3    12  16    3.3779   424.1    7.682      36.315
2015   11        3    12  23    3.3808   424.1    7.688      36.328
2015   11        3    12  30    3.3839   424.1    7.695      36.341
2015   11        3    12  37    3.3870   424.1    7.701      36.355
2015   11        3    12  44    3.3902   424.1    7.708      36.371
2015   11        3    12  51    3.3935   424.1    7.715      36.387
2015   11        3    12  58    3.3969   424.1    7.722      36.404
2015   11        3    13   6    3.4004   424.2    7.729      36.422
2015   11        3    13  13    3.4040   424.2    7.737      36.441
2015   11        3    13  20    3.4077   424.2    7.746      36.462
2015   11        3    13  27    3.4116   424.2    7.755      36.483
2015   11        3    13  34    3.4155   424.3    7.764      36.506
2015   11        3    13  41    3.4195   424.3    7.774      36.531
2015   11        3    13  48    3.4237   424.3    7.784      36.556
2015   11        3    13  55    3.4280   424.4    7.795      36.583
2015   11        3    14   3    3.4325   424.4    7.806      36.611
2015   11        3    14  10    3.4371   424.4    7.818      36.641
2015   11        3    14  17    3.4418   424.5    7.832      36.672
2015   11        3    14  24    3.4467   424.5    7.845      36.705
2015   11        3    14  31    3.4516   424.6    7.860      36.740
2015   11        3    14  38    3.4567   424.6    7.875      36.779
2015   11        3    14  45    3.4617   424.7    7.890      36.822
2015   11        3    14  52    3.4669   424.8    7.906      36.868
2015   11        3    15   0    3.4721   424.9    7.922      36.919
2015   11        3    15   7    3.4773   424.9    7.938      36.972
2015   11        3    15  14    3.4825   425.0    7.955      37.028
2015   11        3    15  21    3.4877   425.1    7.971      37.085
2015   11        3    15  28    3.4929   425.2    7.987      37.144
2015   11        3    15  35    3.4981   425.3    8.004      37.205
2015   11        3    15  42    3.5032   425.4    8.019      37.267
2015   11        3    15  49    3.5084   425.5    8.035      37.332
2015   11        3    15  57    3.5135   425.6    8.050      37.398
2015   11        3    16   4    3.5186   425.7    8.065      37.463
2015   11        3    16  11    3.5237   425.8    8.079      37.529
2015   11        3    16  18    3.5287   425.9    8.093      37.594
2015   11        3    16  25    3.5337   426.0    8.107      37.660
2015   11        3    16  32    3.5387   426.1    8.120      37.725
2015   11        3    16  39    3.5436   426.2    8.133      37.789
2015   11        3    16  46    3.5486   426.3    8.145      37.855
2015   11        3    16  54    3.5535   426.4    8.157      37.920
2015   11        3    17   1    3.5583   426.5    8.168      37.985
2015   11        3    17   8    3.5631   426.6    8.179      38.049
2015   11        3    17  15    3.5680   426.7    8.189      38.113
2015   11        3    17  22    3.5728   426.9    8.199      38.176
2015   11        3    17  29    3.5776   427.0    8.208      38.237
2015   11        3    17  36    3.5823   427.1    8.217      38.298
2015   11        3    17  43    3.5871   427.2    8.225      38.359
2015   11        3    17  51    3.5919   427.3    8.233      38.418
2015   11        3    17  58    3.5967   427.4    8.241      38.477
2015   11        3    18   5    3.6014   427.6    8.248      38.535
2015   11        3    18  12    3.6063   427.7    8.254      38.592
2015   11        3    18  19    3.6111   427.8    8.261      38.648
2015   11        3    18  26    3.6159   427.9    8.267      38.703
2015   11        3    18  33    3.6207   428.0    8.273      38.757
2015   11        3    18  40    3.6256   428.2    8.279      38.811
2015   11        3    18  48    3.6304   428.3    8.284      38.863
2015   11        3    18  55    3.6353   428.4    8.290      38.916
2015   11        3    19   2    3.6402   428.5    8.295      38.967
2015   11        3    19   9    3.6451   428.7    8.300      39.018
2015   11        3    19  16    3.6500   428.8    8.305      39.069
2015   11        3    19  23    3.6550   428.9    8.309      39.118
2015   11        3    19  30    3.6599   429.1    8.314      39.168
2015   11        3    19  37    3.6650   429.2    8.319      39.217
2015   11        3    19  44    3.6700   429.3    8.323      39.265
2015   11        3    19  52    3.6751   429.5    8.327      39.313
2015   11        3    19  59    3.6801   429.6    8.332      39.361
2015   11        3    20   6    3.6852   429.7    8.336      39.408
2015   11        3    20  13    3.6904   429.9    8.341      39.456
2015   11        3    20  20    3.6955   430.0    8.345      39.503
2015   11        3    20  27    3.7007   430.2    8.350      39.550
2015   11        3    20  34    3.7059   430.3    8.355      39.598
2015   11        3    20  41    3.7111   430.5    8.359      39.645
2015   11        3    20  49    3.7163   430.6    8.364      39.693
2015   11        3    20  56    3.7215   430.8    8.369      39.740
2015   11        3    21   3    3.7267   430.9    8.375      39.788
2015   11        3    21  10    3.7320   431.1    8.380      39.837
2015   11        3    21  17    3.7372   431.2    8.386      39.886
2015   11        3    21  24    3.7425   431.4    8.393      39.935
2015   11        3    21  31    3.7477   431.6    8.399      39.984
2015   11        3    21  38    3.7529   431.7    8.406      40.035
2015   11        3    21  46    3.7582   431.9    8.414      40.085
2015   11        3    21  53    3.7634   432.1    8.422      40.138
2015   11        3    22   0    3.7685   432.2    8.430      40.193
2015   11        3    22   7    3.7736   432.4    8.438      40.250
2015   11        3    22  14    3.7786   432.6    8.447      40.310
2015   11        3    22  21    3.7836   432.8    8.456      40.372
2015   11        3    22  28    3.7884   432.9    8.465      40.437
2015   11        3    22  35    3.7933   433.1    8.474      40.503
2015   11        3    22  43    3.7980   433.3    8.484      40.571
2015   11        3    22  50    3.8027   433.5    8.493      40.640
2015   11        3    22  57    3.8073   433.7    8.503      40.712
2015   11        3    23   4    3.8118   433.9    8.513      40.786
2015   11        3    23  11    3.8163   434.1    8.523      40.863
2015   11        3    23  18    3.8207   434.3    8.533      40.941
2015   11        3    23  25    3.8251   434.5    8.543      41.022
2015   11        3    23  32    3.8295   434.6    8.553      41.104
2015   11        3    23  40    3.8338   434.8    8.563      41.187
2015   11        3    23  47    3.8381   435.0    8.573      41.272
2015   11        3    23  54    3.8423   435.2    8.583      41.359
2015   11        4     0   1    3.8466   435.5    8.593      41.448
2015   11        4     0   8    3.8508   435.7    8.602      41.540
2015   11        4     0  15    3.8551   435.9    8.612      41.634
2015   11        4     0  22    3.8594   436.1    8.621      41.730
2015   11        4     0  29    3.8637   436.3    8.630      41.828
2015   11        4     0  37    3.8680   436.6    8.638      41.928
2015   11        4     0  44    3.8723   436.8    8.647      42.028
2015   11        4     0  51    3.8767   437.0    8.655      42.130
2015   11        4     0  58    3.8811   437.3    8.663      42.232
2015   11        4     1   5    3.8855   437.5    8.671      42.336
2015   11        4     1  12    3.8899   437.8    8.678      42.440
2015   11        4     1  19    3.8944   438.1    8.685      42.545
2015   11        4     1  26    3.8988   438.3    8.692      42.651
2015   11        4     1  34    3.9032   438.6    8.698      42.756
2015   11        4     1  41    3.9076   438.9    8.704      42.861
2015   11        4     1  48    3.9119   439.1    8.709      42.964
2015   11        4     1  55    3.9162   439.4    8.714      43.065
2015   11        4     2   2    3.9204   439.7    8.718      43.166
2015   11        4     2   9    3.9245   440.0    8.722      43.264
2015   11        4     2  16    3.9286   440.3    8.725      43.361
2015   11        4     2  23    3.9325   440.6    8.727      43.456
2015   11        4     2  30    3.9364   440.9    8.729      43.548
2015   11        4     2  38    3.9402   441.2    8.730      43.638
2015   11        4     2  45    3.9439   441.5    8.731      43.727
2015   11        4     2  52    3.9475   441.8    8.731      43.812
2015   11        4     2  59    3.9510   442.1    8.730      43.896
2015   11        4     3   6    3.9544   442.4    8.729      43.977
2015   11        4     3  13    3.9578   442.7    8.728      44.057
2015   11        4     3  20    3.9611   443.0    8.726      44.134
2015   11        4     3  27    3.9644   443.3    8.724      44.212
2015   11        4     3  35    3.9676   443.6    8.721      44.289
2015   11        4     3  42    3.9708   443.9    8.719      44.367
2015   11        4     3  49    3.9739   444.2    8.716      44.444
2015   11        4     3  56    3.9770   444.5    8.712      44.521
2015   11        4     4   3    3.9800   444.8    8.708      44.599
2015   11        4     4  10    3.9829   445.1    8.704      44.676
2015   11        4     4  17    3.9857   445.4    8.700      44.754
2015   11        4     4  24    3.9884   445.7    8.695      44.831
2015   11        4     4  32    3.9911   446.0    8.689      44.908
2015   11        4     4  39    3.9935   446.3    8.684      44.985
2015   11        4     4  46    3.9959   446.6    8.677      45.061
2015   11        4     4  53    3.9981   446.9    8.670      45.135
2015   11        4     5   0    4.0001   447.2    8.663      45.209
2015   11        4     5   7    4.0020   447.5    8.655      45.280
2015   11        4     5  14    4.0037   447.8    8.646      45.350
2015   11        4     5  21    4.0052   448.1    8.638      45.419
2015   11        4     5  29    4.0066   448.5    8.628      45.486
2015   11        4     5  36    4.0077   448.8    8.618      45.552
2015   11        4     5  43    4.0087   449.1    8.608      45.616
2015   11        4     5  50    4.0095   449.4    8.598      45.679
2015   11        4     5  57    4.0102   449.7    8.587      45.741
2015   11        4     6   4    4.0107   450.0    8.576      45.801
2015   11        4     6  11    4.0111   450.3    8.566      45.861
2015   11        4     6  18    4.0113   450.6    8.555      45.920
2015   11        4     6  26    4.0114   450.9    8.544      45.979
2015   11        4     6  33    4.0114   451.3    8.534      46.037
2015   11        4     6  40    4.0114   451.6    8.523      46.095
2015   11        4     6  47    4.0111   451.8    8.513      46.153
2015   11        4     6  54    4.0110   452.1    8.504      46.210
2015   11        4     7   1    4.0106   452.4    8.494      46.267
2015   11        4     7   8    4.0103   452.7    8.485      46.325
2015   11        4     7  15    4.0099   453.0    8.477      46.385
2015   11        4     7  23    4.0095   453.3    8.468      46.446
2015   11        4     7  30    4.0090   453.6    8.460      46.509
2015   11        4     7  37    4.0085   453.9    8.452      46.573
2015   11        4     7  44    4.0079   454.3    8.444      46.638
2015   11        4     7  51    4.0074   454.6    8.436      46.704
2015   11        4     7  58    4.0067   454.9    8.428      46.772
2015   11        4     8   5    4.0061   455.2    8.420      46.840
2015   11        4     8  12    4.0052   455.6    8.412      46.910
2015   11        4     8  20    4.0044   455.9    8.404      46.980
2015   11        4     8  27    4.0035   456.2    8.396      47.051
2015   11        4     8  34    4.0025   456.6    8.387      47.123
2015   11        4     8  41    4.0013   456.9    8.379      47.196
2015   11        4     8  48    4.0002   457.2    8.370      47.268
2015   11        4     8  55    3.9988   457.6    8.361      47.339
2015   11        4     9   2    3.9973   457.9    8.352      47.410
2015   11        4     9   9    3.9957   458.3    8.343      47.480
2015   11        4     9  16    3.9940   458.6    8.334      47.550
2015   11        4     9  24    3.9921   459.0    8.324      47.620
2015   11        4     9  31    3.9902   459.3    8.314      47.688
2015   11        4     9  38    3.9880   459.7    8.303      47.755
2015   11        4     9  45    3.9859   460.0    8.293      47.822
2015   11        4     9  52    3.9834   460.4    8.281      47.886
2015   11        4     9  59    3.9810   460.8    8.270      47.949
2015   11        4    10   6    3.9784   461.1    8.258      48.011
2015   11        4    10  13    3.9757   461.5    8.246      48.070
2015   11        4    10  21    3.9729   461.9    8.233      48.128
2015   11        4    10  28    3.9700   462.2    8.220      48.184
2015   11        4    10  35    3.9670   462.6    8.207      48.237
2015   11        4    10  42    3.9640   462.9    8.194      48.290
2015   11        4    10  49    3.9609   463.3    8.181      48.342
2015   11        4    10  56    3.9578   463.6    8.167      48.395
2015   11        4    11   3    3.9546   464.0    8.154      48.448
2015   11        4    11  10    3.9514   464.3    8.140      48.503
2015   11        4    11  18    3.9480   464.7    8.126      48.560
2015   11        4    11  25    3.9447   465.0    8.112      48.618
2015   11        4    11  32    3.9412   465.4    8.097      48.677
2015   11        4    11  39    3.9377   465.7    8.082      48.736
2015   11        4    11  46    3.9340   466.1    8.066      48.796
2015   11        4    11  53    3.9302   466.4    8.050      48.857
2015   11        4    12   0    3.9262   466.8    8.033      48.917
2015   11        4    12   7    3.9221   467.2    8.015      48.977
2015   11        4    12  15    3.9177   467.5    7.997      49.035
2015   11        4    12  22    3.9131   467.9    7.977      49.090
2015   11        4    12  29    3.9082   468.3    7.957      49.142
2015   11        4    12  36    3.9032   468.6    7.935      49.190
2015   11        4    12  43    3.8978   469.0    7.913      49.234
2015   11        4    12  50    3.8922   469.4    7.889      49.274
2015   11        4    12  57    3.8862   469.8    7.864      49.310
2015   11        4    13   4    3.8800   470.1    7.838      49.339
2015   11        4    13  12    3.8734   470.5    7.811      49.361
2015   11        4    13  19    3.8667   470.9    7.784      49.377
2015   11        4    13  26    3.8596   471.2    7.756      49.386
2015   11        4    13  33    3.8525   471.6    7.727      49.391
2015   11        4    13  40    3.8451   471.9    7.698      49.391
2015   11        4    13  47    3.8376   472.3    7.669      49.388
2015   11        4    13  54    3.8299   472.6    7.640      49.383
2015   11        4    14   1    3.8222   473.0    7.610      49.375
2015   11        4    14   8    3.8144   473.3    7.581      49.364
2015   11        4    14  16    3.8065   473.6    7.552      49.351
2015   11        4    14  23    3.7986   474.0    7.523      49.339
2015   11        4    14  30    3.7907   474.3    7.495      49.326
2015   11        4    14  37    3.7826   474.6    7.466      49.313
2015   11        4    14  44    3.7746   474.9    7.437      49.299
2015   11        4    14  51    3.7664   475.3    7.409      49.284
2015   11        4    14  58    3.7581   475.6    7.380      49.268
2015   11        4    15   6    3.7497   475.9    7.351      49.250
2015   11        4    15  13    3.7412   476.2    7.321      49.229
2015   11        4    15  20    3.7325   476.6    7.291      49.206
2015   11        4    15  27    3.7237   476.9    7.261      49.182
2015   11        4    15  34    3.7147   477.2    7.230      49.154
2015   11        4    15  41    3.7056   477.5    7.199      49.121
2015   11        4    15  48    3.6964   477.8    7.168      49.084
2015   11        4    15  55    3.6871   478.1    7.137      49.044
2015   11        4    16   2    3.6776   478.4    7.106      49.000
2015   11        4    16  10    3.6683   478.6    7.075      48.953
2015   11        4    16  17    3.6588   478.9    7.044      48.904
2015   11        4    16  24    3.6494   479.2    7.014      48.853
2015   11        4    16  31    3.6399   479.4    6.984      48.802
2015   11        4    16  38    3.6305   479.7    6.955      48.750
2015   11        4    16  45    3.6211   479.9    6.926      48.697
2015   11        4    16  52    3.6119   480.1    6.898      48.645
2015   11        4    16  59    3.6027   480.4    6.871      48.593
2015   11        4    17   7    3.5935   480.6    6.844      48.543
2015   11        4    17  14    3.5844   480.8    6.817      48.492
2015   11        4    17  21    3.5754   481.0    6.791      48.443
2015   11        4    17  28    3.5664   481.3    6.766      48.393
2015   11        4    17  35    3.5574   481.5    6.740      48.344
2015   11        4    17  42    3.5485   481.7    6.715      48.294
2015   11        4    17  49    3.5396   481.9    6.691      48.244
2015   11        4    17  56    3.5307   482.1    6.666      48.194
2015   11        4    18   3    3.5219   482.4    6.642      48.144
2015   11        4    18  11    3.5130   482.6    6.619      48.094
2015   11        4    18  18    3.5042   482.8    6.595      48.044
2015   11        4    18  25    3.4954   483.0    6.572      47.994
2015   11        4    18  32    3.4866   483.2    6.548      47.944
2015   11        4    18  39    3.4777   483.4    6.525      47.895
2015   11        4    18  46    3.4689   483.6    6.502      47.846
2015   11        4    18  53    3.4600   483.8    6.479      47.797
2015   11        4    19   0    3.4512   484.0    6.456      47.748
2015   11        4    19   8    3.4422   484.2    6.433      47.698
2015   11        4    19  15    3.4333   484.3    6.410      47.648
2015   11        4    19  22    3.4242   484.5    6.387      47.596
2015   11        4    19  29    3.4152   484.7    6.364      47.544
2015   11        4    19  36    3.4061   484.9    6.341      47.489
2015   11        4    19  43    3.3969   485.1    6.317      47.432
2015   11        4    19  50    3.3876   485.2    6.293      47.371
2015   11        4    19  57    3.3782   485.4    6.269      47.307
2015   11        4    20   5    3.3687   485.6    6.244      47.240
2015   11        4    20  12    3.3591   485.8    6.219      47.170
2015   11        4    20  19    3.3494   485.9    6.193      47.092
2015   11        4    20  26    3.3396   486.1    6.167      47.008
2015   11        4    20  33    3.3296   486.3    6.141      46.917
2015   11        4    20  40    3.3197   486.4    6.115      46.821
2015   11        4    20  47    3.3097   486.5    6.089      46.720
2015   11        4    20  54    3.2997   486.6    6.063      46.615
2015   11        4    21   2    3.2898   486.7    6.037      46.508
2015   11        4    21   9    3.2798   486.8    6.012      46.399
2015   11        4    21  16    3.2700   486.9    5.987      46.287
2015   11        4    21  23    3.2602   487.0    5.963      46.174
2015   11        4    21  30    3.2504   487.1    5.939      46.058
2015   11        4    21  37    3.2408   487.1    5.916      45.944
2015   11        4    21  44    3.2313   487.2    5.893      45.831
2015   11        4    21  51    3.2218   487.2    5.872      45.719
2015   11        4    21  59    3.2124   487.3    5.850      45.606
2015   11        4    22   6    3.2031   487.3    5.830      45.495
2015   11        4    22  13    3.1938   487.4    5.809      45.385
2015   11        4    22  20    3.1846   487.4    5.789      45.275
2015   11        4    22  27    3.1753   487.5    5.768      45.163
2015   11        4    22  34    3.1661   487.5    5.747      45.053
2015   11        4    22  41    3.1568   487.6    5.727      44.941
2015   11        4    22  48    3.1474   487.6    5.705      44.825
2015   11        4    22  56    3.1381   487.7    5.684      44.705
2015   11        4    23   3    3.1288   487.7    5.663      44.583
2015   11        4    23  10    3.1196   487.7    5.641      44.457
2015   11        4    23  17    3.1103   487.7    5.620      44.328
2015   11        4    23  24    3.1013   487.7    5.598      44.198
2015   11        4    23  31    3.0922   487.7    5.577      44.067
2015   11        4    23  38    3.0833   487.7    5.556      43.934
2015   11        4    23  45    3.0745   487.6    5.536      43.800
2015   11        4    23  53    3.0659   487.6    5.516      43.664
2015   11        5     0   0    3.0574   487.5    5.497      43.527
