year    month   day   hour  minute  B_enl V_enl   n_enl       T_enl
[year] [month] [day] [hour][minute] [nT]  [km/s]  [cm-3]      [kK]
2015   10       28     0   5    2.3254   390.2    5.719      25.341
2015   10       28     0  12    2.3246   390.0    5.722      25.318
2015   10       28     0  19    2.3238   389.8    5.726      25.296
2015   10       28     0  26    2.3230   389.6    5.729      25.274
2015   10       28     0  33    2.3222   389.4    5.732      25.252
2015   10       28     0  41    2.3214   389.2    5.736      25.229
2015   10       28     0  48    2.3206   389.0    5.739      25.206
2015   10       28     0  55    2.3198   388.8    5.742      25.183
2015   10       28     1   2    2.3190   388.6    5.746      25.161
2015   10       28     1   9    2.3182   388.4    5.749      25.138
2015   10       28     1  17    2.3174   388.2    5.752      25.115
2015   10       28     1  24    2.3166   388.0    5.755      25.091
2015   10       28     1  31    2.3159   387.8    5.759      25.069
2015   10       28     1  38    2.3151   387.6    5.762      25.045
2015   10       28     1  45    2.3143   387.4    5.765      25.022
2015   10       28     1  53    2.3136   387.2    5.768      24.999
2015   10       28     2   0    2.3128   387.0    5.772      24.975
2015   10       28     2   7    2.3121   386.8    5.775      24.952
2015   10       28     2  14    2.3113   386.6    5.778      24.929
2015   10       28     2  21    2.3106   386.4    5.781      24.905
2015   10       28     2  29    2.3098   386.2    5.785      24.882
2015   10       28     2  36    2.3091   386.0    5.788      24.859
2015   10       28     2  43    2.3084   385.8    5.791      24.836
2015   10       28     2  50    2.3077   385.6    5.795      24.813
2015   10       28     2  57    2.3070   385.4    5.798      24.790
2015   10       28     3   5    2.3064   385.2    5.802      24.767
2015   10       28     3  12    2.3057   385.0    5.805      24.744
2015   10       28     3  19    2.3051   384.8    5.809      24.721
2015   10       28     3  26    2.3044   384.6    5.812      24.698
2015   10       28     3  33    2.3038   384.3    5.816      24.676
2015   10       28     3  40    2.3031   384.1    5.819      24.653
2015   10       28     3  48    2.3025   383.9    5.823      24.631
2015   10       28     3  55    2.3019   383.7    5.827      24.608
2015   10       28     4   2    2.3013   383.5    5.831      24.586
2015   10       28     4   9    2.3007   383.3    5.835      24.564
2015   10       28     4  16    2.3001   383.1    5.839      24.542
2015   10       28     4  23    2.2996   382.9    5.843      24.520
2015   10       28     4  31    2.2990   382.7    5.847      24.498
2015   10       28     4  38    2.2984   382.5    5.851      24.477
2015   10       28     4  45    2.2979   382.3    5.855      24.455
2015   10       28     4  52    2.2973   382.1    5.859      24.433
2015   10       28     4  59    2.2968   381.9    5.863      24.412
2015   10       28     5   6    2.2963   381.7    5.867      24.390
2015   10       28     5  14    2.2958   381.5    5.872      24.369
2015   10       28     5  21    2.2952   381.3    5.876      24.348
2015   10       28     5  28    2.2947   381.1    5.880      24.326
2015   10       28     5  35    2.2942   380.9    5.885      24.305
2015   10       28     5  42    2.2937   380.7    5.889      24.284
2015   10       28     5  49    2.2933   380.5    5.894      24.263
2015   10       28     5  57    2.2928   380.3    5.898      24.242
2015   10       28     6   4    2.2923   380.1    5.903      24.221
2015   10       28     6  11    2.2918   379.9    5.907      24.200
2015   10       28     6  18    2.2913   379.7    5.912      24.179
2015   10       28     6  25    2.2909   379.5    5.917      24.158
2015   10       28     6  32    2.2904   379.3    5.921      24.137
2015   10       28     6  40    2.2899   379.1    5.926      24.116
2015   10       28     6  47    2.2895   378.9    5.931      24.095
2015   10       28     6  54    2.2890   378.7    5.935      24.074
2015   10       28     7   1    2.2886   378.5    5.940      24.053
2015   10       28     7   8    2.2881   378.3    5.945      24.032
2015   10       28     7  16    2.2877   378.1    5.950      24.011
2015   10       28     7  23    2.2872   377.9    5.954      23.990
2015   10       28     7  30    2.2868   377.7    5.959      23.969
2015   10       28     7  37    2.2864   377.5    5.964      23.948
2015   10       28     7  44    2.2860   377.3    5.969      23.927
2015   10       28     7  52    2.2855   377.1    5.974      23.906
2015   10       28     7  59    2.2851   376.9    5.978      23.885
2015   10       28     8   6    2.2847   376.6    5.983      23.864
2015   10       28     8  13    2.2843   376.4    5.988      23.843
2015   10       28     8  20    2.2839   376.2    5.993      23.821
2015   10       28     8  28    2.2835   376.0    5.997      23.800
2015   10       28     8  35    2.2831   375.8    6.002      23.779
2015   10       28     8  42    2.2827   375.6    6.007      23.758
2015   10       28     8  49    2.2823   375.4    6.012      23.736
2015   10       28     8  56    2.2820   375.2    6.017      23.715
2015   10       28     9   4    2.2816   375.0    6.022      23.694
2015   10       28     9  11    2.2812   374.8    6.026      23.673
2015   10       28     9  18    2.2809   374.6    6.031      23.651
2015   10       28     9  25    2.2805   374.4    6.036      23.630
2015   10       28     9  32    2.2802   374.2    6.041      23.609
2015   10       28     9  40    2.2799   374.0    6.046      23.588
2015   10       28     9  47    2.2795   373.8    6.051      23.567
2015   10       28     9  54    2.2792   373.6    6.055      23.546
2015   10       28    10   1    2.2789   373.4    6.060      23.525
2015   10       28    10   8    2.2786   373.2    6.065      23.504
2015   10       28    10  16    2.2784   373.0    6.070      23.483
2015   10       28    10  23    2.2781   372.8    6.075      23.462
2015   10       28    10  30    2.2778   372.6    6.080      23.441
2015   10       28    10  37    2.2775   372.4    6.085      23.421
2015   10       28    10  44    2.2773   372.2    6.090      23.400
2015   10       28    10  51    2.2771   372.0    6.095      23.379
2015   10       28    10  59    2.2768   371.8    6.100      23.359
2015   10       28    11   6    2.2766   371.6    6.105      23.338
2015   10       28    11  13    2.2764   371.4    6.111      23.318
2015   10       28    11  20    2.2762   371.2    6.116      23.297
2015   10       28    11  27    2.2760   370.9    6.121      23.277
2015   10       28    11  34    2.2758   370.7    6.126      23.257
2015   10       28    11  41    2.2756   370.5    6.132      23.236
2015   10       28    11  49    2.2755   370.3    6.137      23.216
2015   10       28    11  56    2.2753   370.1    6.142      23.196
2015   10       28    12   3    2.2752   369.9    6.148      23.176
2015   10       28    12  10    2.2751   369.7    6.153      23.156
2015   10       28    12  17    2.2749   369.5    6.159      23.136
2015   10       28    12  24    2.2748   369.3    6.164      23.116
2015   10       28    12  32    2.2747   369.1    6.170      23.096
2015   10       28    12  39    2.2746   368.9    6.175      23.076
2015   10       28    12  46    2.2745   368.7    6.181      23.056
2015   10       28    12  53    2.2744   368.5    6.187      23.036
2015   10       28    13   0    2.2744   368.3    6.193      23.017
2015   10       28    13   8    2.2743   368.1    6.198      22.997
2015   10       28    13  15    2.2743   367.9    6.204      22.977
2015   10       28    13  22    2.2742   367.7    6.210      22.957
2015   10       28    13  29    2.2742   367.5    6.216      22.938
2015   10       28    13  36    2.2742   367.3    6.222      22.918
2015   10       28    13  43    2.2742   367.1    6.228      22.899
2015   10       28    13  51    2.2742   366.9    6.234      22.879
2015   10       28    13  58    2.2742   366.7    6.240      22.860
2015   10       28    14   5    2.2742   366.5    6.246      22.840
2015   10       28    14  12    2.2742   366.3    6.252      22.821
2015   10       28    14  19    2.2743   366.1    6.258      22.802
2015   10       28    14  26    2.2743   365.9    6.264      22.783
2015   10       28    14  34    2.2744   365.7    6.270      22.764
2015   10       28    14  41    2.2744   365.5    6.276      22.744
2015   10       28    14  48    2.2745   365.3    6.283      22.725
2015   10       28    14  55    2.2746   365.1    6.289      22.706
2015   10       28    15   2    2.2747   364.9    6.295      22.688
2015   10       28    15  10    2.2748   364.7    6.302      22.669
2015   10       28    15  17    2.2749   364.5    6.308      22.650
2015   10       28    15  24    2.2750   364.3    6.315      22.631
2015   10       28    15  31    2.2752   364.1    6.321      22.613
2015   10       28    15  38    2.2753   363.8    6.328      22.594
2015   10       28    15  46    2.2755   363.6    6.334      22.576
2015   10       28    15  53    2.2757   363.4    6.341      22.557
2015   10       28    16   0    2.2759   363.2    6.348      22.539
2015   10       28    16   7    2.2761   363.0    6.354      22.521
2015   10       28    16  14    2.2763   362.8    6.361      22.503
2015   10       28    16  22    2.2766   362.6    6.368      22.485
2015   10       28    16  29    2.2768   362.4    6.375      22.467
2015   10       28    16  36    2.2771   362.2    6.382      22.449
2015   10       28    16  43    2.2773   362.0    6.389      22.432
2015   10       28    16  50    2.2776   361.8    6.396      22.414
2015   10       28    16  58    2.2779   361.6    6.403      22.397
2015   10       28    17   5    2.2782   361.4    6.410      22.380
2015   10       28    17  12    2.2786   361.2    6.417      22.363
2015   10       28    17  19    2.2790   361.0    6.425      22.346
2015   10       28    17  26    2.2793   360.8    6.432      22.329
2015   10       28    17  34    2.2796   360.6    6.439      22.313
2015   10       28    17  41    2.2800   360.4    6.447      22.296
2015   10       28    17  48    2.2804   360.2    6.454      22.280
2015   10       28    17  55    2.2808   360.0    6.461      22.263
2015   10       28    18   2    2.2813   359.9    6.469      22.247
2015   10       28    18   9    2.2817   359.7    6.477      22.231
2015   10       28    18  17    2.2822   359.5    6.484      22.215
2015   10       28    18  24    2.2826   359.3    6.492      22.200
2015   10       28    18  31    2.2831   359.1    6.500      22.184
2015   10       28    18  38    2.2836   358.9    6.507      22.168
2015   10       28    18  45    2.2841   358.7    6.515      22.153
2015   10       28    18  52    2.2846   358.5    6.523      22.138
2015   10       28    19   0    2.2851   358.3    6.531      22.122
2015   10       28    19   7    2.2857   358.1    6.539      22.107
2015   10       28    19  14    2.2862   357.9    6.547      22.092
2015   10       28    19  21    2.2868   357.7    6.555      22.077
2015   10       28    19  28    2.2874   357.5    6.563      22.062
2015   10       28    19  35    2.2880   357.3    6.571      22.047
2015   10       28    19  43    2.2886   357.1    6.579      22.033
2015   10       28    19  50    2.2892   356.9    6.588      22.018
2015   10       28    19  57    2.2898   356.7    6.596      22.004
2015   10       28    20   4    2.2905   356.5    6.604      21.989
2015   10       28    20  11    2.2911   356.3    6.613      21.975
2015   10       28    20  18    2.2918   356.1    6.621      21.960
2015   10       28    20  26    2.2925   355.9    6.630      21.946
2015   10       28    20  33    2.2932   355.7    6.638      21.932
2015   10       28    20  40    2.2939   355.5    6.647      21.918
2015   10       28    20  47    2.2946   355.3    6.655      21.904
2015   10       28    20  54    2.2953   355.2    6.664      21.890
2015   10       28    21   2    2.2961   355.0    6.672      21.876
2015   10       28    21   9    2.2968   354.8    6.681      21.862
2015   10       28    21  16    2.2976   354.6    6.690      21.848
2015   10       28    21  23    2.2984   354.4    6.698      21.834
2015   10       28    21  30    2.2992   354.2    6.707      21.821
2015   10       28    21  37    2.3000   354.0    6.716      21.807
2015   10       28    21  45    2.3008   353.8    6.725      21.794
2015   10       28    21  52    2.3016   353.6    6.734      21.780
2015   10       28    21  59    2.3025   353.4    6.743      21.767
2015   10       28    22   6    2.3033   353.2    6.752      21.754
2015   10       28    22  13    2.3042   353.0    6.761      21.741
2015   10       28    22  21    2.3051   352.8    6.770      21.728
2015   10       28    22  28    2.3060   352.6    6.779      21.715
2015   10       28    22  35    2.3069   352.4    6.788      21.702
2015   10       28    22  42    2.3078   352.2    6.797      21.689
2015   10       28    22  49    2.3088   352.0    6.806      21.676
2015   10       28    22  57    2.3097   351.8    6.816      21.664
2015   10       28    23   4    2.3107   351.7    6.825      21.651
2015   10       28    23  11    2.3117   351.5    6.834      21.639
2015   10       28    23  18    2.3127   351.3    6.844      21.627
2015   10       28    23  25    2.3137   351.1    6.853      21.615
2015   10       28    23  33    2.3147   350.9    6.863      21.603
2015   10       28    23  40    2.3158   350.7    6.872      21.591
2015   10       28    23  47    2.3169   350.5    6.882      21.579
2015   10       28    23  54    2.3180   350.3    6.892      21.567
2015   10       29     0   1    2.3190   350.1    6.901      21.556
2015   10       29     0   9    2.3202   349.9    6.911      21.545
2015   10       29     0  16    2.3213   349.7    6.921      21.534
2015   10       29     0  23    2.3225   349.5    6.931      21.522
2015   10       29     0  30    2.3236   349.3    6.941      21.512
2015   10       29     0  37    2.3248   349.2    6.951      21.501
2015   10       29     0  45    2.3260   349.0    6.961      21.490
2015   10       29     0  52    2.3272   348.8    6.971      21.480
2015   10       29     0  59    2.3285   348.6    6.982      21.470
2015   10       29     1   6    2.3297   348.4    6.992      21.460
2015   10       29     1  13    2.3310   348.2    7.002      21.450
2015   10       29     1  20    2.3323   348.0    7.013      21.440
2015   10       29     1  28    2.3335   347.8    7.023      21.430
2015   10       29     1  35    2.3349   347.7    7.034      21.421
2015   10       29     1  42    2.3362   347.5    7.044      21.412
2015   10       29     1  49    2.3376   347.3    7.055      21.402
2015   10       29     1  56    2.3389   347.1    7.066      21.393
2015   10       29     2   3    2.3403   346.9    7.076      21.385
2015   10       29     2  11    2.3417   346.7    7.087      21.376
2015   10       29     2  18    2.3431   346.5    7.098      21.367
2015   10       29     2  25    2.3446   346.4    7.109      21.359
2015   10       29     2  32    2.3460   346.2    7.120      21.351
2015   10       29     2  39    2.3475   346.0    7.132      21.343
2015   10       29     2  46    2.3490   345.8    7.143      21.335
2015   10       29     2  54    2.3505   345.6    7.154      21.327
2015   10       29     3   1    2.3520   345.4    7.166      21.320
2015   10       29     3   8    2.3536   345.3    7.177      21.312
2015   10       29     3  15    2.3551   345.1    7.189      21.305
2015   10       29     3  22    2.3567   344.9    7.200      21.298
2015   10       29     3  29    2.3583   344.7    7.212      21.291
2015   10       29     3  37    2.3599   344.5    7.224      21.284
2015   10       29     3  44    2.3616   344.3    7.235      21.278
2015   10       29     3  51    2.3632   344.2    7.247      21.271
2015   10       29     3  58    2.3649   344.0    7.259      21.265
2015   10       29     4   5    2.3666   343.8    7.271      21.259
2015   10       29     4  13    2.3683   343.6    7.284      21.253
2015   10       29     4  20    2.3700   343.4    7.296      21.247
2015   10       29     4  27    2.3717   343.3    7.308      21.242
2015   10       29     4  34    2.3735   343.1    7.320      21.236
2015   10       29     4  41    2.3752   342.9    7.333      21.231
2015   10       29     4  48    2.3770   342.7    7.345      21.226
2015   10       29     4  56    2.3788   342.5    7.358      21.221
2015   10       29     5   3    2.3806   342.4    7.371      21.216
2015   10       29     5  10    2.3825   342.2    7.383      21.212
2015   10       29     5  17    2.3843   342.0    7.396      21.207
2015   10       29     5  24    2.3862   341.8    7.409      21.203
2015   10       29     5  32    2.3881   341.7    7.422      21.199
2015   10       29     5  39    2.3900   341.5    7.435      21.195
2015   10       29     5  46    2.3919   341.3    7.448      21.191
2015   10       29     5  53    2.3939   341.1    7.461      21.188
2015   10       29     6   0    2.3958   341.0    7.474      21.184
2015   10       29     6   8    2.3978   340.8    7.488      21.181
2015   10       29     6  15    2.3998   340.6    7.501      21.177
2015   10       29     6  22    2.4018   340.4    7.514      21.174
2015   10       29     6  29    2.4038   340.3    7.528      21.172
2015   10       29     6  36    2.4058   340.1    7.541      21.169
2015   10       29     6  44    2.4079   339.9    7.555      21.166
2015   10       29     6  51    2.4100   339.8    7.569      21.164
2015   10       29     6  58    2.4120   339.6    7.582      21.162
2015   10       29     7   5    2.4141   339.4    7.596      21.159
2015   10       29     7  12    2.4162   339.2    7.610      21.157
2015   10       29     7  20    2.4184   339.1    7.624      21.155
2015   10       29     7  27    2.4205   338.9    7.638      21.154
2015   10       29     7  34    2.4227   338.7    7.652      21.152
2015   10       29     7  41    2.4248   338.6    7.666      21.151
2015   10       29     7  48    2.4270   338.4    7.680      21.150
2015   10       29     7  56    2.4293   338.2    7.694      21.149
2015   10       29     8   3    2.4315   338.1    7.709      21.148
2015   10       29     8  10    2.4337   337.9    7.723      21.147
2015   10       29     8  17    2.4360   337.7    7.737      21.146
2015   10       29     8  24    2.4383   337.6    7.752      21.146
2015   10       29     8  31    2.4406   337.4    7.767      21.146
2015   10       29     8  39    2.4429   337.2    7.781      21.146
2015   10       29     8  46    2.4452   337.1    7.796      21.146
2015   10       29     8  53    2.4476   336.9    7.811      21.146
2015   10       29     9   0    2.4499   336.7    7.826      21.147
2015   10       29     9   7    2.4523   336.6    7.841      21.148
2015   10       29     9  14    2.4547   336.4    7.856      21.148
2015   10       29     9  22    2.4572   336.3    7.871      21.150
2015   10       29     9  29    2.4596   336.1    7.886      21.151
2015   10       29     9  36    2.4621   335.9    7.901      21.153
2015   10       29     9  43    2.4646   335.8    7.917      21.154
2015   10       29     9  50    2.4671   335.6    7.932      21.156
2015   10       29     9  57    2.4696   335.5    7.948      21.159
2015   10       29    10   5    2.4722   335.3    7.963      21.161
2015   10       29    10  12    2.4747   335.1    7.979      21.164
2015   10       29    10  19    2.4773   335.0    7.995      21.166
2015   10       29    10  26    2.4799   334.8    8.011      21.169
2015   10       29    10  33    2.4825   334.7    8.027      21.173
2015   10       29    10  40    2.4852   334.5    8.043      21.176
2015   10       29    10  47    2.4879   334.4    8.059      21.180
2015   10       29    10  55    2.4905   334.2    8.075      21.184
2015   10       29    11   2    2.4932   334.1    8.091      21.188
2015   10       29    11   9    2.4960   333.9    8.108      21.193
2015   10       29    11  16    2.4987   333.8    8.124      21.198
2015   10       29    11  23    2.5015   333.6    8.141      21.202
2015   10       29    11  30    2.5042   333.5    8.157      21.208
2015   10       29    11  38    2.5070   333.3    8.174      21.213
2015   10       29    11  45    2.5098   333.2    8.190      21.219
2015   10       29    11  52    2.5127   333.0    8.207      21.224
2015   10       29    11  59    2.5155   332.9    8.224      21.231
2015   10       29    12   6    2.5184   332.7    8.241      21.237
2015   10       29    12  14    2.5214   332.6    8.258      21.243
2015   10       29    12  21    2.5242   332.4    8.275      21.250
2015   10       29    12  28    2.5271   332.3    8.292      21.257
2015   10       29    12  35    2.5300   332.2    8.309      21.264
2015   10       29    12  42    2.5329   332.0    8.326      21.272
2015   10       29    12  49    2.5359   331.9    8.343      21.279
2015   10       29    12  57    2.5389   331.7    8.361      21.287
2015   10       29    13   4    2.5419   331.6    8.378      21.295
2015   10       29    13  11    2.5449   331.5    8.395      21.304
2015   10       29    13  18    2.5479   331.3    8.413      21.312
2015   10       29    13  25    2.5509   331.2    8.430      21.321
2015   10       29    13  32    2.5540   331.1    8.448      21.330
2015   10       29    13  40    2.5570   330.9    8.465      21.339
2015   10       29    13  47    2.5601   330.8    8.483      21.348
2015   10       29    13  54    2.5632   330.6    8.500      21.358
2015   10       29    14   1    2.5664   330.5    8.518      21.367
2015   10       29    14   8    2.5694   330.4    8.536      21.377
2015   10       29    14  16    2.5726   330.3    8.554      21.387
2015   10       29    14  23    2.5757   330.1    8.572      21.398
2015   10       29    14  30    2.5789   330.0    8.589      21.408
2015   10       29    14  37    2.5820   329.9    8.607      21.419
2015   10       29    14  44    2.5852   329.7    8.625      21.429
2015   10       29    14  51    2.5884   329.6    8.643      21.440
2015   10       29    14  59    2.5916   329.5    8.661      21.451
2015   10       29    15   6    2.5948   329.4    8.679      21.463
2015   10       29    15  13    2.5980   329.2    8.698      21.474
2015   10       29    15  20    2.6012   329.1    8.716      21.486
2015   10       29    15  27    2.6045   329.0    8.734      21.498
2015   10       29    15  34    2.6077   328.9    8.753      21.510
2015   10       29    15  41    2.6110   328.7    8.771      21.522
2015   10       29    15  49    2.6143   328.6    8.789      21.534
2015   10       29    15  56    2.6176   328.5    8.808      21.547
2015   10       29    16   3    2.6209   328.4    8.827      21.559
2015   10       29    16  10    2.6242   328.3    8.845      21.572
2015   10       29    16  17    2.6276   328.1    8.864      21.585
2015   10       29    16  24    2.6309   328.0    8.883      21.598
2015   10       29    16  32    2.6343   327.9    8.901      21.612
2015   10       29    16  39    2.6377   327.8    8.920      21.625
2015   10       29    16  46    2.6410   327.7    8.939      21.639
2015   10       29    16  53    2.6444   327.6    8.958      21.653
2015   10       29    17   0    2.6479   327.4    8.977      21.667
2015   10       29    17   7    2.6513   327.3    8.996      21.681
2015   10       29    17  15    2.6547   327.2    9.015      21.695
2015   10       29    17  22    2.6582   327.1    9.035      21.709
2015   10       29    17  29    2.6616   327.0    9.054      21.724
2015   10       29    17  36    2.6651   326.9    9.073      21.738
2015   10       29    17  43    2.6685   326.8    9.092      21.753
2015   10       29    17  50    2.6720   326.7    9.112      21.768
2015   10       29    17  58    2.6755   326.6    9.131      21.783
2015   10       29    18   5    2.6790   326.4    9.150      21.798
2015   10       29    18  12    2.6825   326.3    9.170      21.813
2015   10       29    18  19    2.6861   326.2    9.189      21.828
2015   10       29    18  26    2.6896   326.1    9.209      21.844
2015   10       29    18  33    2.6932   326.0    9.228      21.859
2015   10       29    18  41    2.6967   325.9    9.248      21.874
2015   10       29    18  48    2.7003   325.8    9.268      21.890
2015   10       29    18  55    2.7039   325.7    9.287      21.906
2015   10       29    19   2    2.7075   325.6    9.307      21.922
2015   10       29    19   9    2.7111   325.5    9.327      21.938
2015   10       29    19  16    2.7147   325.4    9.347      21.954
2015   10       29    19  24    2.7184   325.3    9.367      21.970
2015   10       29    19  31    2.7220   325.2    9.386      21.987
2015   10       29    19  38    2.7257   325.1    9.406      22.004
2015   10       29    19  45    2.7294   325.0    9.426      22.021
2015   10       29    19  52    2.7331   324.9    9.446      22.039
2015   10       29    19  59    2.7368   324.9    9.465      22.056
2015   10       29    20   7    2.7405   324.8    9.485      22.074
2015   10       29    20  14    2.7442   324.7    9.505      22.093
2015   10       29    20  21    2.7479   324.6    9.524      22.111
2015   10       29    20  28    2.7516   324.5    9.543      22.130
2015   10       29    20  35    2.7553   324.4    9.563      22.149
2015   10       29    20  43    2.7590   324.3    9.582      22.168
2015   10       29    20  50    2.7627   324.3    9.601      22.187
2015   10       29    20  57    2.7664   324.2    9.620      22.207
2015   10       29    21   4    2.7701   324.1    9.639      22.226
2015   10       29    21  11    2.7738   324.0    9.657      22.246
2015   10       29    21  18    2.7775   323.9    9.676      22.265
2015   10       29    21  26    2.7812   323.8    9.695      22.285
2015   10       29    21  33    2.7848   323.8    9.713      22.304
2015   10       29    21  40    2.7885   323.7    9.731      22.324
2015   10       29    21  47    2.7922   323.6    9.749      22.343
2015   10       29    21  54    2.7958   323.5    9.767      22.363
2015   10       29    22   1    2.7995   323.5    9.785      22.382
2015   10       29    22   9    2.8031   323.4    9.803      22.402
2015   10       29    22  16    2.8068   323.3    9.821      22.421
2015   10       29    22  23    2.8104   323.2    9.839      22.441
2015   10       29    22  30    2.8140   323.2    9.856      22.460
2015   10       29    22  37    2.8177   323.1    9.874      22.480
2015   10       29    22  44    2.8213   323.0    9.891      22.499
2015   10       29    22  52    2.8249   322.9    9.909      22.519
2015   10       29    22  59    2.8285   322.9    9.926      22.538
2015   10       29    23   6    2.8322   322.8    9.943      22.557
2015   10       29    23  13    2.8358   322.7    9.960      22.577
2015   10       29    23  20    2.8394   322.6    9.977      22.596
2015   10       29    23  28    2.8430   322.6    9.994      22.615
2015   10       29    23  35    2.8466   322.5   10.011      22.635
2015   10       29    23  42    2.8502   322.4   10.028      22.654
2015   10       29    23  49    2.8538   322.4   10.045      22.673
2015   10       29    23  56    2.8573   322.3   10.062      22.692
2015   10       30     0   3    2.8609   322.2   10.078      22.711
2015   10       30     0  11    2.8645   322.2   10.095      22.730
2015   10       30     0  18    2.8681   322.1   10.111      22.749
2015   10       30     0  25    2.8716   322.0   10.128      22.767
2015   10       30     0  32    2.8752   322.0   10.144      22.786
2015   10       30     0  39    2.8788   321.9   10.161      22.805
2015   10       30     0  46    2.8823   321.8   10.177      22.823
2015   10       30     0  54    2.8859   321.8   10.193      22.841
2015   10       30     1   1    2.8894   321.7   10.210      22.860
2015   10       30     1   8    2.8930   321.7   10.226      22.878
2015   10       30     1  15    2.8965   321.6   10.242      22.896
2015   10       30     1  22    2.9000   321.5   10.258      22.914
2015   10       30     1  29    2.9036   321.5   10.274      22.932
2015   10       30     1  37    2.9071   321.4   10.290      22.949
2015   10       30     1  44    2.9107   321.3   10.306      22.967
2015   10       30     1  51    2.9142   321.3   10.322      22.984
2015   10       30     1  58    2.9177   321.2   10.338      23.002
2015   10       30     2   5    2.9212   321.2   10.354      23.019
2015   10       30     2  13    2.9248   321.1   10.370      23.036
2015   10       30     2  20    2.9283   321.0   10.386      23.053
2015   10       30     2  27    2.9319   321.0   10.402      23.070
2015   10       30     2  34    2.9354   320.9   10.417      23.087
2015   10       30     2  41    2.9390   320.9   10.433      23.104
2015   10       30     2  48    2.9425   320.8   10.449      23.121
2015   10       30     2  56    2.9461   320.8   10.465      23.138
2015   10       30     3   3    2.9496   320.7   10.481      23.155
2015   10       30     3  10    2.9532   320.7   10.497      23.172
2015   10       30     3  17    2.9567   320.6   10.512      23.190
2015   10       30     3  24    2.9603   320.6   10.528      23.207
2015   10       30     3  31    2.9638   320.5   10.543      23.225
2015   10       30     3  39    2.9674   320.5   10.559      23.242
2015   10       30     3  46    2.9710   320.4   10.574      23.260
2015   10       30     3  53    2.9745   320.4   10.590      23.279
2015   10       30     4   0    2.9780   320.3   10.605      23.297
2015   10       30     4   7    2.9816   320.3   10.620      23.315
2015   10       30     4  15    2.9850   320.2   10.636      23.333
2015   10       30     4  22    2.9886   320.2   10.651      23.351
2015   10       30     4  29    2.9921   320.1   10.666      23.369
2015   10       30     4  36    2.9956   320.1   10.681      23.388
2015   10       30     4  43    2.9990   320.0   10.696      23.406
2015   10       30     4  50    3.0025   320.0   10.711      23.425
2015   10       30     4  58    3.0060   320.0   10.726      23.443
2015   10       30     5   5    3.0095   319.9   10.741      23.461
2015   10       30     5  12    3.0130   319.9   10.756      23.480
2015   10       30     5  19    3.0165   319.8   10.771      23.498
2015   10       30     5  26    3.0199   319.8   10.786      23.517
2015   10       30     5  33    3.0234   319.7   10.800      23.536
2015   10       30     5  41    3.0268   319.7   10.815      23.555
2015   10       30     5  48    3.0302   319.7   10.830      23.575
2015   10       30     5  55    3.0336   319.6   10.844      23.594
2015   10       30     6   2    3.0370   319.6   10.859      23.614
2015   10       30     6   9    3.0404   319.6   10.873      23.634
2015   10       30     6  17    3.0438   319.5   10.887      23.654
2015   10       30     6  24    3.0471   319.5   10.901      23.674
2015   10       30     6  31    3.0505   319.4   10.914      23.694
2015   10       30     6  38    3.0538   319.4   10.928      23.713
2015   10       30     6  45    3.0570   319.4   10.941      23.733
2015   10       30     6  52    3.0603   319.3   10.954      23.753
2015   10       30     7   0    3.0635   319.3   10.967      23.773
2015   10       30     7   7    3.0667   319.3   10.980      23.792
2015   10       30     7  14    3.0699   319.2   10.992      23.812
2015   10       30     7  21    3.0731   319.2   11.004      23.831
2015   10       30     7  28    3.0762   319.2   11.016      23.850
2015   10       30     7  35    3.0793   319.1   11.028      23.868
2015   10       30     7  43    3.0825   319.1   11.040      23.887
2015   10       30     7  50    3.0856   319.1   11.052      23.904
2015   10       30     7  57    3.0886   319.1   11.063      23.922
2015   10       30     8   4    3.0917   319.0   11.074      23.940
2015   10       30     8  11    3.0947   319.0   11.085      23.957
2015   10       30     8  18    3.0978   319.0   11.096      23.974
2015   10       30     8  26    3.1008   318.9   11.107      23.990
2015   10       30     8  33    3.1038   318.9   11.118      24.006
2015   10       30     8  40    3.1068   318.9   11.128      24.023
2015   10       30     8  47    3.1097   318.8   11.138      24.038
2015   10       30     8  54    3.1127   318.8   11.149      24.054
2015   10       30     9   1    3.1156   318.8   11.159      24.069
2015   10       30     9   9    3.1186   318.8   11.169      24.084
2015   10       30     9  16    3.1215   318.7   11.179      24.099
2015   10       30     9  23    3.1244   318.7   11.188      24.113
2015   10       30     9  30    3.1273   318.7   11.198      24.127
2015   10       30     9  37    3.1302   318.6   11.208      24.141
2015   10       30     9  45    3.1331   318.6   11.217      24.155
2015   10       30     9  52    3.1359   318.6   11.226      24.169
2015   10       30     9  59    3.1388   318.6   11.236      24.182
2015   10       30    10   6    3.1416   318.5   11.245      24.195
2015   10       30    10  13    3.1445   318.5   11.254      24.209
2015   10       30    10  20    3.1473   318.5   11.263      24.221
2015   10       30    10  28    3.1501   318.5   11.272      24.234
2015   10       30    10  35    3.1530   318.4   11.281      24.247
2015   10       30    10  42    3.1557   318.4   11.290      24.259
2015   10       30    10  49    3.1586   318.4   11.299      24.271
2015   10       30    10  56    3.1614   318.4   11.308      24.283
2015   10       30    11   3    3.1642   318.3   11.317      24.295
2015   10       30    11  11    3.1669   318.3   11.326      24.307
2015   10       30    11  18    3.1698   318.3   11.335      24.319
2015   10       30    11  25    3.1725   318.3   11.344      24.331
2015   10       30    11  32    3.1753   318.2   11.353      24.342
2015   10       30    11  39    3.1781   318.2   11.362      24.354
2015   10       30    11  47    3.1809   318.2   11.371      24.365
2015   10       30    11  54    3.1837   318.2   11.380      24.377
2015   10       30    12   1    3.1865   318.1   11.389      24.389
2015   10       30    12   8    3.1893   318.1   11.398      24.400
2015   10       30    12  15    3.1921   318.1   11.408      24.411
2015   10       30    12  22    3.1949   318.1   11.417      24.423
2015   10       30    12  30    3.1978   318.0   11.426      24.434
2015   10       30    12  37    3.2005   318.0   11.436      24.446
2015   10       30    12  44    3.2034   318.0   11.446      24.458
2015   10       30    12  51    3.2062   318.0   11.455      24.470
2015   10       30    12  58    3.2090   318.0   11.465      24.483
2015   10       30    13   5    3.2118   317.9   11.475      24.495
2015   10       30    13  13    3.2146   317.9   11.485      24.508
2015   10       30    13  20    3.2172   317.9   11.494      24.521
2015   10       30    13  27    3.2201   317.9   11.504      24.535
2015   10       30    13  34    3.2228   317.9   11.514      24.548
2015   10       30    13  41    3.2255   317.9   11.524      24.562
2015   10       30    13  48    3.2282   317.8   11.533      24.576
2015   10       30    13  56    3.2309   317.8   11.543      24.590
2015   10       30    14   3    3.2334   317.8   11.552      24.604
2015   10       30    14  10    3.2362   317.8   11.561      24.619
2015   10       30    14  17    3.2388   317.8   11.571      24.634
2015   10       30    14  24    3.2413   317.8   11.580      24.648
2015   10       30    14  31    3.2438   317.8   11.588      24.663
2015   10       30    14  39    3.2464   317.8   11.597      24.678
2015   10       30    14  46    3.2489   317.7   11.605      24.693
2015   10       30    14  53    3.2513   317.7   11.614      24.708
2015   10       30    15   0    3.2538   317.7   11.622      24.722
2015   10       30    15   7    3.2562   317.7   11.630      24.737
2015   10       30    15  15    3.2586   317.7   11.637      24.751
2015   10       30    15  22    3.2610   317.7   11.645      24.765
2015   10       30    15  29    3.2633   317.7   11.652      24.779
2015   10       30    15  36    3.2656   317.7   11.659      24.792
2015   10       30    15  43    3.2679   317.7   11.666      24.806
2015   10       30    15  50    3.2702   317.7   11.673      24.819
2015   10       30    15  58    3.2725   317.7   11.680      24.831
2015   10       30    16   5    3.2747   317.7   11.686      24.844
2015   10       30    16  12    3.2769   317.7   11.692      24.856
2015   10       30    16  19    3.2791   317.7   11.698      24.868
2015   10       30    16  26    3.2813   317.7   11.704      24.880
2015   10       30    16  33    3.2835   317.6   11.710      24.891
2015   10       30    16  41    3.2856   317.6   11.716      24.902
2015   10       30    16  48    3.2877   317.6   11.722      24.913
2015   10       30    16  55    3.2898   317.6   11.727      24.923
2015   10       30    17   2    3.2920   317.6   11.732      24.933
2015   10       30    17   9    3.2940   317.6   11.738      24.944
2015   10       30    17  16    3.2961   317.6   11.743      24.953
2015   10       30    17  24    3.2981   317.6   11.748      24.963
2015   10       30    17  31    3.3003   317.6   11.753      24.972
2015   10       30    17  38    3.3023   317.6   11.757      24.982
2015   10       30    17  45    3.3044   317.6   11.762      24.991
2015   10       30    17  52    3.3064   317.6   11.767      24.999
2015   10       30    18   0    3.3084   317.6   11.772      25.008
2015   10       30    18   7    3.3104   317.6   11.776      25.016
2015   10       30    18  14    3.3124   317.6   11.781      25.025
2015   10       30    18  21    3.3144   317.6   11.785      25.033
2015   10       30    18  28    3.3164   317.6   11.789      25.041
2015   10       30    18  35    3.3184   317.6   11.793      25.049
2015   10       30    18  43    3.3204   317.6   11.798      25.056
2015   10       30    18  50    3.3223   317.6   11.802      25.064
2015   10       30    18  57    3.3243   317.6   11.806      25.071
2015   10       30    19   4    3.3263   317.6   11.810      25.078
2015   10       30    19  11    3.3282   317.6   11.814      25.085
2015   10       30    19  18    3.3302   317.6   11.818      25.092
2015   10       30    19  26    3.3321   317.6   11.822      25.099
2015   10       30    19  33    3.3340   317.5   11.826      25.106
2015   10       30    19  40    3.3359   317.5   11.830      25.113
2015   10       30    19  47    3.3379   317.5   11.834      25.120
2015   10       30    19  54    3.3398   317.5   11.838      25.127
2015   10       30    20   1    3.3417   317.5   11.842      25.133
2015   10       30    20   9    3.3436   317.5   11.846      25.140
2015   10       30    20  16    3.3455   317.5   11.850      25.147
2015   10       30    20  23    3.3473   317.5   11.854      25.154
2015   10       30    20  30    3.3492   317.5   11.858      25.161
2015   10       30    20  37    3.3511   317.5   11.862      25.168
2015   10       30    20  45    3.3529   317.5   11.866      25.175
2015   10       30    20  52    3.3547   317.5   11.870      25.182
2015   10       30    20  59    3.3565   317.5   11.874      25.189
2015   10       30    21   6    3.3583   317.5   11.878      25.197
2015   10       30    21  13    3.3601   317.5   11.882      25.204
2015   10       30    21  20    3.3619   317.5   11.886      25.211
2015   10       30    21  28    3.3636   317.5   11.890      25.219
2015   10       30    21  35    3.3652   317.5   11.893      25.226
2015   10       30    21  42    3.3669   317.6   11.897      25.234
2015   10       30    21  49    3.3687   317.6   11.901      25.242
2015   10       30    21  56    3.3703   317.6   11.905      25.250
2015   10       30    22   3    3.3720   317.6   11.909      25.257
2015   10       30    22  11    3.3736   317.6   11.912      25.265
2015   10       30    22  18    3.3752   317.6   11.916      25.273
2015   10       30    22  25    3.3767   317.6   11.919      25.281
2015   10       30    22  32    3.3782   317.6   11.922      25.289
2015   10       30    22  39    3.3798   317.6   11.925      25.296
2015   10       30    22  46    3.3813   317.6   11.929      25.304
2015   10       30    22  54    3.3827   317.6   11.931      25.311
2015   10       30    23   1    3.3842   317.6   11.934      25.319
2015   10       30    23   8    3.3856   317.6   11.937      25.326
2015   10       30    23  15    3.3870   317.6   11.939      25.333
2015   10       30    23  22    3.3884   317.6   11.941      25.340
2015   10       30    23  29    3.3898   317.6   11.944      25.346
2015   10       30    23  37    3.3911   317.7   11.946      25.353
2015   10       30    23  44    3.3925   317.7   11.948      25.359
2015   10       30    23  51    3.3938   317.7   11.950      25.365
2015   10       30    23  58    3.3951   317.7   11.951      25.371
2015   10       31     0   5    3.3964   317.7   11.953      25.376
2015   10       31     0  13    3.3977   317.7   11.954      25.381
2015   10       31     0  20    3.3989   317.7   11.956      25.386
2015   10       31     0  27    3.4002   317.7   11.957      25.391
2015   10       31     0  34    3.4015   317.7   11.958      25.396
2015   10       31     0  41    3.4027   317.7   11.960      25.400
2015   10       31     0  48    3.4039   317.7   11.961      25.405
2015   10       31     0  56    3.4051   317.7   11.962      25.409
2015   10       31     1   3    3.4064   317.7   11.962      25.413
2015   10       31     1  10    3.4076   317.7   11.963      25.416
2015   10       31     1  17    3.4087   317.7   11.964      25.420
2015   10       31     1  24    3.4099   317.8   11.965      25.424
2015   10       31     1  31    3.4111   317.8   11.965      25.427
2015   10       31     1  39    3.4123   317.8   11.966      25.430
2015   10       31     1  46    3.4135   317.8   11.967      25.433
2015   10       31     1  53    3.4146   317.8   11.967      25.436
2015   10       31     2   0    3.4158   317.8   11.967      25.438
2015   10       31     2   7    3.4169   317.8   11.968      25.441
2015   10       31     2  15    3.4181   317.8   11.968      25.443
2015   10       31     2  22    3.4192   317.8   11.968      25.446
2015   10       31     2  29    3.4203   317.8   11.969      25.448
2015   10       31     2  36    3.4215   317.8   11.969      25.450
2015   10       31     2  43    3.4226   317.8   11.969      25.452
2015   10       31     2  50    3.4237   317.8   11.969      25.454
2015   10       31     2  58    3.4249   317.8   11.969      25.456
2015   10       31     3   5    3.4260   317.8   11.969      25.458
2015   10       31     3  12    3.4271   317.8   11.969      25.459
2015   10       31     3  19    3.4282   317.8   11.969      25.461
2015   10       31     3  26    3.4292   317.8   11.969      25.463
2015   10       31     3  33    3.4303   317.8   11.969      25.464
2015   10       31     3  41    3.4314   317.9   11.969      25.466
2015   10       31     3  48    3.4325   317.9   11.969      25.468
2015   10       31     3  55    3.4335   317.9   11.969      25.470
2015   10       31     4   2    3.4346   317.9   11.969      25.471
2015   10       31     4   9    3.4356   317.9   11.969      25.473
2015   10       31     4  16    3.4367   317.9   11.969      25.475
2015   10       31     4  24    3.4377   317.9   11.968      25.476
2015   10       31     4  31    3.4387   317.9   11.968      25.478
2015   10       31     4  38    3.4397   317.9   11.968      25.480
2015   10       31     4  45    3.4407   317.9   11.967      25.481
2015   10       31     4  52    3.4417   317.9   11.967      25.483
2015   10       31     4  59    3.4426   317.9   11.967      25.485
2015   10       31     5   7    3.4436   317.9   11.966      25.486
2015   10       31     5  14    3.4446   317.9   11.966      25.488
2015   10       31     5  21    3.4455   317.9   11.965      25.489
2015   10       31     5  28    3.4464   317.9   11.964      25.490
2015   10       31     5  35    3.4473   317.9   11.964      25.492
2015   10       31     5  42    3.4482   317.9   11.963      25.493
2015   10       31     5  50    3.4491   317.9   11.962      25.494
2015   10       31     5  57    3.4500   318.0   11.961      25.495
2015   10       31     6   4    3.4508   318.0   11.960      25.496
2015   10       31     6  11    3.4517   318.0   11.959      25.497
2015   10       31     6  18    3.4525   318.0   11.958      25.497
2015   10       31     6  26    3.4534   318.0   11.957      25.498
2015   10       31     6  33    3.4542   318.0   11.956      25.498
2015   10       31     6  40    3.4550   318.0   11.954      25.499
2015   10       31     6  47    3.4558   318.0   11.953      25.499
2015   10       31     6  54    3.4565   318.0   11.951      25.499
2015   10       31     7   1    3.4573   318.0   11.950      25.499
2015   10       31     7   9    3.4581   318.0   11.948      25.499
2015   10       31     7  16    3.4589   318.0   11.946      25.498
2015   10       31     7  23    3.4596   318.0   11.945      25.498
2015   10       31     7  30    3.4604   318.0   11.943      25.497
2015   10       31     7  37    3.4611   318.0   11.941      25.497
2015   10       31     7  44    3.4618   318.0   11.939      25.495
2015   10       31     7  52    3.4626   318.0   11.937      25.494
2015   10       31     7  59    3.4633   318.0   11.935      25.493
2015   10       31     8   6    3.4640   318.0   11.933      25.492
2015   10       31     8  13    3.4647   318.0   11.931      25.490
2015   10       31     8  20    3.4654   318.0   11.928      25.489
2015   10       31     8  27    3.4661   318.0   11.926      25.487
2015   10       31     8  35    3.4668   318.1   11.924      25.485
2015   10       31     8  42    3.4675   318.1   11.922      25.483
2015   10       31     8  49    3.4681   318.1   11.919      25.481
2015   10       31     8  56    3.4688   318.1   11.917      25.479
2015   10       31     9   3    3.4695   318.1   11.914      25.476
2015   10       31     9  11    3.4702   318.1   11.912      25.474
2015   10       31     9  18    3.4708   318.1   11.910      25.471
2015   10       31     9  25    3.4715   318.1   11.907      25.469
2015   10       31     9  32    3.4722   318.1   11.905      25.466
2015   10       31     9  39    3.4728   318.1   11.902      25.464
2015   10       31     9  46    3.4735   318.1   11.900      25.461
2015   10       31     9  54    3.4741   318.1   11.897      25.458
2015   10       31    10   1    3.4748   318.1   11.894      25.455
2015   10       31    10   8    3.4754   318.1   11.892      25.452
2015   10       31    10  15    3.4761   318.1   11.889      25.449
2015   10       31    10  22    3.4767   318.1   11.887      25.446
2015   10       31    10  29    3.4773   318.1   11.884      25.442
2015   10       31    10  37    3.4780   318.1   11.882      25.439
2015   10       31    10  44    3.4786   318.1   11.879      25.436
2015   10       31    10  51    3.4793   318.1   11.876      25.433
2015   10       31    10  58    3.4799   318.1   11.874      25.429
2015   10       31    11   5    3.4805   318.1   11.871      25.426
2015   10       31    11  12    3.4812   318.1   11.869      25.422
2015   10       31    11  20    3.4818   318.1   11.866      25.419
2015   10       31    11  27    3.4825   318.1   11.864      25.415
2015   10       31    11  34    3.4831   318.1   11.861      25.411
2015   10       31    11  41    3.4837   318.1   11.858      25.407
2015   10       31    11  48    3.4844   318.1   11.856      25.404
2015   10       31    11  55    3.4850   318.1   11.853      25.400
2015   10       31    12   3    3.4856   318.1   11.851      25.396
2015   10       31    12  10    3.4863   318.0   11.849      25.392
2015   10       31    12  17    3.4869   318.0   11.846      25.389
2015   10       31    12  24    3.4876   318.0   11.844      25.385
2015   10       31    12  31    3.4882   318.0   11.841      25.381
2015   10       31    12  38    3.4888   318.0   11.839      25.377
2015   10       31    12  46    3.4895   318.0   11.836      25.373
2015   10       31    12  53    3.4901   318.0   11.834      25.369
2015   10       31    13   0    3.4907   318.0   11.832      25.366
2015   10       31    13   7    3.4914   318.0   11.829      25.362
2015   10       31    13  14    3.4920   318.0   11.827      25.358
2015   10       31    13  22    3.4926   318.0   11.825      25.354
2015   10       31    13  29    3.4933   318.0   11.822      25.350
2015   10       31    13  36    3.4939   318.0   11.820      25.346
2015   10       31    13  43    3.4945   318.0   11.817      25.343
2015   10       31    13  50    3.4951   318.0   11.815      25.339
2015   10       31    13  57    3.4957   318.0   11.813      25.335
2015   10       31    14   5    3.4964   318.0   11.810      25.331
2015   10       31    14  12    3.4970   318.0   11.808      25.327
2015   10       31    14  19    3.4976   318.0   11.806      25.323
2015   10       31    14  26    3.4982   318.0   11.803      25.319
2015   10       31    14  33    3.4988   318.0   11.801      25.315
2015   10       31    14  40    3.4994   318.0   11.799      25.311
2015   10       31    14  48    3.5001   318.0   11.796      25.307
2015   10       31    14  55    3.5007   318.0   11.794      25.303
2015   10       31    15   2    3.5013   317.9   11.792      25.298
2015   10       31    15   9    3.5019   317.9   11.789      25.294
2015   10       31    15  16    3.5025   317.9   11.787      25.290
2015   10       31    15  23    3.5031   317.9   11.785      25.286
2015   10       31    15  31    3.5037   317.9   11.782      25.282
2015   10       31    15  38    3.5043   317.9   11.780      25.277
2015   10       31    15  45    3.5049   317.9   11.778      25.273
2015   10       31    15  52    3.5055   317.9   11.776      25.269
2015   10       31    15  59    3.5062   317.9   11.774      25.265
2015   10       31    16   7    3.5068   317.9   11.771      25.261
2015   10       31    16  14    3.5074   317.9   11.769      25.256
2015   10       31    16  21    3.5080   317.9   11.767      25.252
2015   10       31    16  28    3.5086   317.9   11.765      25.248
2015   10       31    16  35    3.5092   317.9   11.763      25.244
2015   10       31    16  42    3.5098   317.9   11.761      25.239
2015   10       31    16  50    3.5105   317.8   11.759      25.235
2015   10       31    16  57    3.5111   317.8   11.757      25.231
2015   10       31    17   4    3.5117   317.8   11.755      25.227
2015   10       31    17  11    3.5123   317.8   11.753      25.223
2015   10       31    17  18    3.5130   317.8   11.751      25.219
2015   10       31    17  25    3.5136   317.8   11.749      25.215
2015   10       31    17  33    3.5142   317.8   11.747      25.210
2015   10       31    17  40    3.5149   317.8   11.745      25.206
2015   10       31    17  47    3.5155   317.8   11.744      25.202
2015   10       31    17  54    3.5161   317.8   11.742      25.198
2015   10       31    18   1    3.5168   317.8   11.740      25.194
2015   10       31    18   8    3.5175   317.8   11.738      25.190
2015   10       31    18  16    3.5181   317.7   11.737      25.186
2015   10       31    18  23    3.5188   317.7   11.735      25.183
2015   10       31    18  30    3.5194   317.7   11.733      25.179
2015   10       31    18  37    3.5201   317.7   11.732      25.175
2015   10       31    18  44    3.5208   317.7   11.730      25.171
2015   10       31    18  51    3.5215   317.7   11.729      25.167
2015   10       31    18  59    3.5222   317.7   11.727      25.163
2015   10       31    19   6    3.5229   317.7   11.726      25.159
2015   10       31    19  13    3.5236   317.7   11.724      25.155
2015   10       31    19  20    3.5243   317.7   11.723      25.151
2015   10       31    19  27    3.5250   317.6   11.722      25.148
2015   10       31    19  34    3.5258   317.6   11.721      25.144
2015   10       31    19  42    3.5265   317.6   11.719      25.140
2015   10       31    19  49    3.5273   317.6   11.718      25.137
2015   10       31    19  56    3.5280   317.6   11.717      25.133
2015   10       31    20   3    3.5288   317.6   11.716      25.129
2015   10       31    20  10    3.5296   317.6   11.715      25.125
2015   10       31    20  17    3.5304   317.6   11.714      25.122
2015   10       31    20  25    3.5312   317.6   11.713      25.118
2015   10       31    20  32    3.5320   317.5   11.712      25.115
2015   10       31    20  39    3.5328   317.5   11.711      25.111
2015   10       31    20  46    3.5336   317.5   11.710      25.108
2015   10       31    20  53    3.5344   317.5   11.710      25.104
2015   10       31    21   1    3.5353   317.5   11.709      25.101
2015   10       31    21   8    3.5361   317.5   11.708      25.097
2015   10       31    21  15    3.5370   317.5   11.708      25.094
2015   10       31    21  22    3.5379   317.5   11.707      25.091
2015   10       31    21  29    3.5388   317.5   11.707      25.087
2015   10       31    21  36    3.5397   317.4   11.706      25.084
2015   10       31    21  44    3.5406   317.4   11.706      25.081
2015   10       31    21  51    3.5415   317.4   11.706      25.078
2015   10       31    21  58    3.5424   317.4   11.705      25.075
2015   10       31    22   5    3.5434   317.4   11.705      25.072
2015   10       31    22  12    3.5443   317.4   11.705      25.069
2015   10       31    22  19    3.5453   317.4   11.705      25.066
2015   10       31    22  27    3.5463   317.4   11.705      25.064
2015   10       31    22  34    3.5473   317.3   11.705      25.061
2015   10       31    22  41    3.5483   317.3   11.705      25.058
2015   10       31    22  48    3.5493   317.3   11.706      25.056
2015   10       31    22  55    3.5503   317.3   11.706      25.053
2015   10       31    23   2    3.5514   317.3   11.706      25.051
2015   10       31    23  10    3.5524   317.3   11.707      25.048
2015   10       31    23  17    3.5535   317.3   11.707      25.046
2015   10       31    23  24    3.5546   317.2   11.708      25.044
2015   10       31    23  31    3.5557   317.2   11.708      25.042
2015   10       31    23  38    3.5568   317.2   11.709      25.040
2015   10       31    23  46    3.5579   317.2   11.710      25.038
2015   10       31    23  53    3.5591   317.2   11.711      25.036
2015   11        1     0   0    3.5602   317.2   11.712      25.034
2015   11        1     0   7    3.5614   317.2   11.713      25.032
2015   11        1     0  14    3.5626   317.1   11.714      25.031
2015   11        1     0  21    3.5638   317.1   11.715      25.029
2015   11        1     0  29    3.5651   317.1   11.717      25.028
2015   11        1     0  36    3.5663   317.1   11.718      25.027
2015   11        1     0  43    3.5676   317.1   11.719      25.026
2015   11        1     0  50    3.5689   317.1   11.721      25.025
2015   11        1     0  57    3.5702   317.1   11.723      25.024
2015   11        1     1   4    3.5715   317.0   11.724      25.023
2015   11        1     1  12    3.5729   317.0   11.726      25.023
2015   11        1     1  19    3.5743   317.0   11.728      25.022
2015   11        1     1  26    3.5757   317.0   11.730      25.021
2015   11        1     1  33    3.5771   317.0   11.733      25.021
2015   11        1     1  40    3.5785   317.0   11.735      25.021
2015   11        1     1  47    3.5800   317.0   11.737      25.021
2015   11        1     1  55    3.5815   316.9   11.740      25.021
2015   11        1     2   2    3.5830   316.9   11.742      25.021
2015   11        1     2   9    3.5845   316.9   11.745      25.022
2015   11        1     2  16    3.5861   316.9   11.748      25.022
2015   11        1     2  23    3.5877   316.9   11.751      25.023
2015   11        1     2  30    3.5893   316.9   11.754      25.023
2015   11        1     2  38    3.5909   316.8   11.757      25.024
2015   11        1     2  45    3.5926   316.8   11.760      25.025
2015   11        1     2  52    3.5943   316.8   11.763      25.026
2015   11        1     2  59    3.5960   316.8   11.767      25.028
2015   11        1     3   6    3.5977   316.8   11.770      25.029
2015   11        1     3  13    3.5995   316.8   11.774      25.031
2015   11        1     3  21    3.6013   316.7   11.777      25.032
2015   11        1     3  28    3.6031   316.7   11.781      25.034
2015   11        1     3  35    3.6049   316.7   11.785      25.036
2015   11        1     3  42    3.6068   316.7   11.789      25.038
2015   11        1     3  49    3.6086   316.7   11.793      25.040
2015   11        1     3  56    3.6106   316.7   11.798      25.042
2015   11        1     4   4    3.6125   316.7   11.802      25.045
2015   11        1     4  11    3.6145   316.6   11.806      25.047
2015   11        1     4  18    3.6164   316.6   11.811      25.050
2015   11        1     4  25    3.6185   316.6   11.816      25.053
2015   11        1     4  32    3.6205   316.6   11.820      25.056
2015   11        1     4  39    3.6226   316.6   11.825      25.059
2015   11        1     4  47    3.6246   316.6   11.830      25.062
2015   11        1     4  54    3.6268   316.5   11.835      25.065
2015   11        1     5   1    3.6289   316.5   11.841      25.069
2015   11        1     5   8    3.6311   316.5   11.846      25.073
2015   11        1     5  15    3.6333   316.5   11.851      25.076
2015   11        1     5  23    3.6355   316.5   11.857      25.080
2015   11        1     5  30    3.6378   316.4   11.863      25.084
2015   11        1     5  37    3.6401   316.4   11.869      25.089
2015   11        1     5  44    3.6423   316.4   11.875      25.093
2015   11        1     5  51    3.6447   316.4   11.881      25.098
2015   11        1     5  58    3.6471   316.4   11.887      25.103
2015   11        1     6   6    3.6495   316.4   11.893      25.108
2015   11        1     6  13    3.6519   316.4   11.900      25.113
2015   11        1     6  20    3.6543   316.3   11.906      25.119
2015   11        1     6  27    3.6568   316.3   11.913      25.125
2015   11        1     6  34    3.6593   316.3   11.920      25.131
2015   11        1     6  41    3.6619   316.3   11.927      25.137
2015   11        1     6  49    3.6645   316.3   11.934      25.143
2015   11        1     6  56    3.6671   316.3   11.942      25.150
2015   11        1     7   3    3.6697   316.2   11.949      25.157
2015   11        1     7  10    3.6723   316.2   11.957      25.164
2015   11        1     7  17    3.6751   316.2   11.965      25.171
2015   11        1     7  25    3.6778   316.2   11.973      25.179
2015   11        1     7  32    3.6806   316.2   11.981      25.186
2015   11        1     7  39    3.6833   316.2   11.989      25.195
2015   11        1     7  46    3.6862   316.2   11.998      25.203
2015   11        1     7  53    3.6890   316.2   12.006      25.211
2015   11        1     8   0    3.6919   316.1   12.015      25.220
2015   11        1     8   8    3.6948   316.1   12.024      25.229
2015   11        1     8  15    3.6978   316.1   12.033      25.239
2015   11        1     8  22    3.7007   316.1   12.043      25.248
2015   11        1     8  29    3.7038   316.1   12.052      25.258
2015   11        1     8  36    3.7068   316.1   12.062      25.268
2015   11        1     8  43    3.7099   316.1   12.072      25.279
2015   11        1     8  51    3.7130   316.1   12.082      25.289
2015   11        1     8  58    3.7162   316.1   12.092      25.300
2015   11        1     9   5    3.7194   316.1   12.102      25.311
2015   11        1     9  12    3.7226   316.0   12.113      25.323
2015   11        1     9  19    3.7259   316.0   12.124      25.334
2015   11        1     9  26    3.7292   316.0   12.135      25.346
2015   11        1     9  34    3.7326   316.0   12.146      25.359
2015   11        1     9  41    3.7360   316.0   12.157      25.371
2015   11        1     9  48    3.7394   316.0   12.169      25.384
2015   11        1     9  55    3.7429   316.0   12.181      25.397
2015   11        1    10   2    3.7464   316.0   12.193      25.410
2015   11        1    10   9    3.7500   316.0   12.205      25.424
2015   11        1    10  17    3.7536   316.0   12.218      25.438
2015   11        1    10  24    3.7572   316.0   12.230      25.452
2015   11        1    10  31    3.7609   316.0   12.243      25.466
2015   11        1    10  38    3.7646   316.0   12.256      25.481
2015   11        1    10  45    3.7684   316.0   12.270      25.496
2015   11        1    10  52    3.7723   316.0   12.283      25.512
2015   11        1    11   0    3.7761   316.0   12.297      25.527
2015   11        1    11   7    3.7801   316.0   12.311      25.543
2015   11        1    11  14    3.7840   316.0   12.325      25.559
2015   11        1    11  21    3.7881   316.0   12.340      25.576
2015   11        1    11  28    3.7922   316.0   12.355      25.593
2015   11        1    11  35    3.7963   316.0   12.370      25.610
2015   11        1    11  43    3.8005   316.0   12.385      25.628
2015   11        1    11  50    3.8048   316.0   12.401      25.646
2015   11        1    11  57    3.8091   316.0   12.417      25.664
2015   11        1    12   4    3.8134   316.0   12.433      25.683
2015   11        1    12  11    3.8178   316.0   12.450      25.703
2015   11        1    12  18    3.8222   316.0   12.466      25.723
2015   11        1    12  26    3.8267   316.1   12.483      25.744
2015   11        1    12  33    3.8312   316.1   12.500      25.765
2015   11        1    12  40    3.8357   316.1   12.517      25.787
2015   11        1    12  47    3.8403   316.1   12.534      25.810
2015   11        1    12  54    3.8449   316.1   12.551      25.833
2015   11        1    13   1    3.8496   316.1   12.569      25.857
2015   11        1    13   9    3.8542   316.1   12.586      25.881
2015   11        1    13  16    3.8589   316.2   12.604      25.907
2015   11        1    13  23    3.8636   316.2   12.621      25.932
2015   11        1    13  30    3.8683   316.2   12.639      25.958
2015   11        1    13  37    3.8730   316.2   12.657      25.985
2015   11        1    13  45    3.8778   316.2   12.674      26.012
2015   11        1    13  52    3.8825   316.3   12.692      26.040
2015   11        1    13  59    3.8873   316.3   12.710      26.068
2015   11        1    14   6    3.8921   316.3   12.728      26.096
2015   11        1    14  13    3.8969   316.3   12.746      26.125
2015   11        1    14  20    3.9017   316.4   12.764      26.155
2015   11        1    14  28    3.9066   316.4   12.782      26.184
2015   11        1    14  35    3.9114   316.4   12.799      26.214
2015   11        1    14  42    3.9162   316.5   12.817      26.244
2015   11        1    14  49    3.9211   316.5   12.835      26.274
2015   11        1    14  56    3.9259   316.5   12.853      26.304
2015   11        1    15   3    3.9308   316.5   12.871      26.334
2015   11        1    15  11    3.9357   316.6   12.889      26.365
2015   11        1    15  18    3.9405   316.6   12.907      26.395
2015   11        1    15  25    3.9455   316.6   12.925      26.426
2015   11        1    15  32    3.9504   316.7   12.943      26.457
2015   11        1    15  39    3.9554   316.7   12.961      26.488
2015   11        1    15  46    3.9603   316.7   12.979      26.518
2015   11        1    15  54    3.9653   316.8   12.998      26.549
2015   11        1    16   1    3.9703   316.8   13.016      26.581
2015   11        1    16   8    3.9754   316.8   13.035      26.612
2015   11        1    16  15    3.9805   316.9   13.053      26.643
2015   11        1    16  22    3.9856   316.9   13.072      26.674
2015   11        1    16  29    3.9908   316.9   13.091      26.705
2015   11        1    16  37    3.9960   317.0   13.111      26.737
2015   11        1    16  44    4.0012   317.0   13.130      26.769
2015   11        1    16  51    4.0065   317.0   13.150      26.801
2015   11        1    16  58    4.0118   317.1   13.170      26.833
2015   11        1    17   5    4.0173   317.1   13.190      26.865
2015   11        1    17  12    4.0227   317.1   13.211      26.898
2015   11        1    17  20    4.0282   317.2   13.232      26.931
2015   11        1    17  27    4.0338   317.2   13.254      26.964
2015   11        1    17  34    4.0395   317.3   13.276      26.998
2015   11        1    17  41    4.0452   317.3   13.298      27.032
2015   11        1    17  48    4.0511   317.4   13.321      27.067
2015   11        1    17  55    4.0570   317.4   13.344      27.102
2015   11        1    18   3    4.0631   317.5   13.368      27.138
2015   11        1    18  10    4.0693   317.5   13.393      27.174
2015   11        1    18  17    4.0756   317.5   13.418      27.211
2015   11        1    18  24    4.0820   317.6   13.444      27.248
2015   11        1    18  31    4.0886   317.7   13.470      27.288
2015   11        1    18  38    4.0953   317.7   13.497      27.328
2015   11        1    18  46    4.1022   317.8   13.524      27.369
2015   11        1    18  53    4.1092   317.8   13.552      27.411
2015   11        1    19   0    4.1164   317.9   13.580      27.455
2015   11        1    19   7    4.1237   318.0   13.609      27.499
2015   11        1    19  14    4.1312   318.0   13.637      27.545
2015   11        1    19  21    4.1387   318.1   13.667      27.591
2015   11        1    19  29    4.1464   318.2   13.696      27.639
2015   11        1    19  36    4.1541   318.3   13.725      27.687
2015   11        1    19  43    4.1620   318.4   13.754      27.737
2015   11        1    19  50    4.1699   318.4   13.783      27.788
2015   11        1    19  57    4.1780   318.5   13.812      27.840
2015   11        1    20   4    4.1859   318.6   13.840      27.893
2015   11        1    20  12    4.1940   318.7   13.868      27.947
2015   11        1    20  19    4.2020   318.8   13.895      28.001
2015   11        1    20  26    4.2100   318.9   13.923      28.055
2015   11        1    20  33    4.2180   319.0   13.949      28.108
2015   11        1    20  40    4.2260   319.1   13.976      28.162
2015   11        1    20  48    4.2339   319.2   14.001      28.216
2015   11        1    20  55    4.2418   319.3   14.026      28.270
2015   11        1    21   2    4.2496   319.4   14.051      28.323
2015   11        1    21   9    4.2575   319.5   14.075      28.377
2015   11        1    21  16    4.2652   319.5   14.098      28.430
2015   11        1    21  23    4.2729   319.6   14.121      28.483
2015   11        1    21  31    4.2806   319.7   14.144      28.535
2015   11        1    21  38    4.2882   319.8   14.166      28.587
2015   11        1    21  45    4.2958   319.9   14.188      28.637
2015   11        1    21  52    4.3034   320.0   14.210      28.688
2015   11        1    21  59    4.3109   320.1   14.231      28.738
2015   11        1    22   7    4.3185   320.2   14.252      28.788
2015   11        1    22  14    4.3260   320.3   14.273      28.837
2015   11        1    22  21    4.3335   320.4   14.293      28.885
2015   11        1    22  28    4.3410   320.4   14.314      28.933
2015   11        1    22  35    4.3486   320.5   14.334      28.981
2015   11        1    22  42    4.3561   320.6   14.354      29.028
2015   11        1    22  50    4.3637   320.7   14.374      29.075
2015   11        1    22  57    4.3713   320.8   14.394      29.121
2015   11        1    23   4    4.3790   320.8   14.414      29.168
2015   11        1    23  11    4.3867   320.9   14.435      29.213
2015   11        1    23  18    4.3945   321.0   14.455      29.259
2015   11        1    23  25    4.4024   321.1   14.475      29.305
2015   11        1    23  33    4.4104   321.2   14.496      29.350
2015   11        1    23  40    4.4184   321.2   14.517      29.395
2015   11        1    23  47    4.4267   321.3   14.538      29.441
2015   11        1    23  54    4.4349   321.4   14.560      29.486
2015   11        2     0   1    4.4434   321.5   14.581      29.532
2015   11        2     0   8    4.4523   321.5   14.604      29.578
2015   11        2     0  15    4.4608   321.6   14.627      29.624
2015   11        2     0  23    4.4697   321.7   14.650      29.671
2015   11        2     0  30    4.4789   321.8   14.674      29.718
2015   11        2     0  37    4.4882   321.9   14.699      29.766
2015   11        2     0  44    4.4979   322.0   14.725      29.815
2015   11        2     0  51    4.5077   322.1   14.751      29.865
2015   11        2     0  58    4.5179   322.1   14.779      29.916
2015   11        2     1   6    4.5283   322.2   14.807      29.967
2015   11        2     1  13    4.5392   322.3   14.837      30.020
2015   11        2     1  20    4.5503   322.4   14.867      30.074
2015   11        2     1  27    4.5618   322.5   14.899      30.129
2015   11        2     1  34    4.5736   322.6   14.933      30.186
2015   11        2     1  41    4.5860   322.7   14.967      30.244
2015   11        2     1  49    4.5986   322.8   15.003      30.304
2015   11        2     1  56    4.6118   323.0   15.040      30.366
2015   11        2     2   3    4.6253   323.1   15.078      30.430
2015   11        2     2  10    4.6394   323.2   15.118      30.495
2015   11        2     2  17    4.6537   323.3   15.159      30.563
2015   11        2     2  24    4.6687   323.5   15.202      30.632
2015   11        2     2  32    4.6838   323.6   15.245      30.703
2015   11        2     2  39    4.6996   323.7   15.290      30.776
2015   11        2     2  46    4.7155   323.9   15.336      30.851
2015   11        2     2  53    4.7318   324.0   15.384      30.927
2015   11        2     3   0    4.7482   324.2   15.432      31.005
2015   11        2     3   8    4.7650   324.3   15.482      31.086
2015   11        2     3  15    4.7818   324.5   15.532      31.169
2015   11        2     3  22    4.7988   324.7   15.582      31.256
2015   11        2     3  29    4.8157   324.9   15.632      31.347
2015   11        2     3  36    4.8327   325.1   15.683      31.441
2015   11        2     3  43    4.8495   325.3   15.733      31.539
2015   11        2     3  51    4.8663   325.5   15.783      31.640
2015   11        2     3  58    4.8829   325.7   15.832      31.742
2015   11        2     4   5    4.8994   325.9   15.880      31.848
2015   11        2     4  12    4.9156   326.1   15.928      31.955
2015   11        2     4  19    4.9317   326.3   15.975      32.065
2015   11        2     4  26    4.9474   326.5   16.020      32.176
2015   11        2     4  34    4.9630   326.8   16.064      32.289
2015   11        2     4  41    4.9789   327.0   16.106      32.402
2015   11        2     4  48    4.9933   327.2   16.148      32.517
2015   11        2     4  55    5.0081   327.5   16.188      32.632
2015   11        2     5   2    5.0228   327.7   16.227      32.747
2015   11        2     5  10    5.0372   328.0   16.266      32.862
2015   11        2     5  17    5.0515   328.2   16.303      32.976
2015   11        2     5  24    5.0656   328.4   16.340      33.089
2015   11        2     5  31    5.0797   328.7   16.376      33.202
2015   11        2     5  38    5.0935   328.9   16.411      33.313
2015   11        2     5  45    5.1074   329.2   16.446      33.425
2015   11        2     5  53    5.1210   329.4   16.480      33.536
2015   11        2     6   0    5.1348   329.6   16.514      33.647
2015   11        2     6   7    5.1484   329.9   16.548      33.757
2015   11        2     6  14    5.1621   330.1   16.582      33.867
2015   11        2     6  21    5.1758   330.4   16.616      33.977
2015   11        2     6  28    5.1896   330.6   16.650      34.088
2015   11        2     6  36    5.2034   330.9   16.684      34.199
2015   11        2     6  43    5.2173   331.1   16.719      34.310
2015   11        2     6  50    5.2313   331.4   16.754      34.421
2015   11        2     6  57    5.2455   331.7   16.790      34.534
2015   11        2     7   4    5.2598   331.9   16.826      34.648
2015   11        2     7  11    5.2744   332.2   16.863      34.764
2015   11        2     7  18    5.2892   332.4   16.902      34.880
2015   11        2     7  26    5.3044   332.7   16.942      35.000
2015   11        2     7  33    5.3197   333.0   16.983      35.122
2015   11        2     7  40    5.3354   333.3   17.027      35.247
2015   11        2     7  47    5.3513   333.6   17.073      35.375
2015   11        2     7  54    5.3676   333.9   17.121      35.506
2015   11        2     8   1    5.3839   334.2   17.172      35.641
2015   11        2     8   9    5.4006   334.5   17.225      35.784
2015   11        2     8  16    5.4174   334.8   17.280      35.935
2015   11        2     8  23    5.4346   335.2   17.338      36.095
2015   11        2     8  30    5.4517   335.6   17.397      36.263
2015   11        2     8  37    5.4692   335.9   17.458      36.438
2015   11        2     8  44    5.4865   336.3   17.521      36.620
2015   11        2     8  52    5.5039   336.7   17.585      36.808
2015   11        2     8  59    5.5212   337.1   17.651      37.001
2015   11        2     9   6    5.5386   337.5   17.717      37.200
2015   11        2     9  13    5.5559   337.9   17.783      37.405
2015   11        2     9  20    5.5732   338.3   17.849      37.617
2015   11        2     9  27    5.5903   338.7   17.915      37.833
2015   11        2     9  35    5.6074   339.2   17.980      38.054
2015   11        2     9  42    5.6241   339.6   18.044      38.275
2015   11        2     9  49    5.6408   340.0   18.108      38.497
2015   11        2     9  56    5.6571   340.4   18.171      38.716
2015   11        2    10   3    5.6732   340.8   18.234      38.935
2015   11        2    10  10    5.6890   341.3   18.295      39.152
2015   11        2    10  18    5.7046   341.7   18.356      39.369
2015   11        2    10  25    5.7199   342.1   18.416      39.584
2015   11        2    10  32    5.7350   342.5   18.476      39.797
2015   11        2    10  39    5.7497   342.9   18.535      40.007
2015   11        2    10  46    5.7642   343.3   18.594      40.215
2015   11        2    10  54    5.7782   343.7   18.654      40.417
2015   11        2    11   1    5.7921   344.1   18.714      40.618
2015   11        2    11   8    5.8055   344.5   18.774      40.815
2015   11        2    11  15    5.8188   344.9   18.836      41.013
2015   11        2    11  22    5.8316   345.2   18.897      41.208
2015   11        2    11  29    5.8442   345.6   18.960      41.403
2015   11        2    11  37    5.8565   346.0   19.022      41.596
2015   11        2    11  44    5.8685   346.4   19.085      41.792
2015   11        2    11  51    5.8803   346.8   19.148      41.988
2015   11        2    11  58    5.8919   347.1   19.210      42.185
2015   11        2    12   5    5.9032   347.5   19.271      42.382
2015   11        2    12  13    5.9145   347.9   19.332      42.580
2015   11        2    12  20    5.9254   348.3   19.391      42.777
2015   11        2    12  27    5.9364   348.7   19.449      42.974
2015   11        2    12  34    5.9471   349.1   19.505      43.170
2015   11        2    12  41    5.9578   349.5   19.559      43.366
2015   11        2    12  48    5.9683   349.9   19.611      43.560
2015   11        2    12  56    5.9789   350.3   19.662      43.752
2015   11        2    13   3    5.9893   350.8   19.710      43.942
2015   11        2    13  10    5.9998   351.2   19.756      44.131
2015   11        2    13  17    6.0103   351.6   19.800      44.316
2015   11        2    13  24    6.0209   352.0   19.843      44.500
2015   11        2    13  31    6.0315   352.4   19.884      44.680
2015   11        2    13  39    6.0422   352.8   19.924      44.858
2015   11        2    13  46    6.0529   353.3   19.964      45.032
2015   11        2    13  53    6.0639   353.7   20.003      45.205
2015   11        2    14   0    6.0748   354.1   20.042      45.374
2015   11        2    14   7    6.0860   354.5   20.081      45.543
2015   11        2    14  14    6.0973   354.9   20.121      45.709
2015   11        2    14  21    6.1089   355.4   20.162      45.876
2015   11        2    14  29    6.1207   355.8   20.204      46.040
2015   11        2    14  36    6.1329   356.2   20.249      46.206
2015   11        2    14  43    6.1454   356.6   20.296      46.371
2015   11        2    14  50    6.1585   357.1   20.346      46.539
2015   11        2    14  57    6.1721   357.5   20.400      46.707
2015   11        2    15   4    6.1865   358.0   20.460      46.879
2015   11        2    15  12    6.2017   358.4   20.524      47.053
2015   11        2    15  19    6.2179   358.9   20.596      47.232
2015   11        2    15  26    6.2353   359.4   20.675      47.416
2015   11        2    15  33    6.2542   359.9   20.764      47.606
2015   11        2    15  40    6.2747   360.3   20.864      47.800
2015   11        2    15  47    6.2971   360.9   20.977      48.005
2015   11        2    15  55    6.3214   361.4   21.100      48.220
2015   11        2    16   2    6.3485   362.0   21.238      48.448
2015   11        2    16   9    6.3780   362.6   21.387      48.700
2015   11        2    16  16    6.4106   363.3   21.549      48.979
2015   11        2    16  23    6.4457   364.0   21.719      49.286
2015   11        2    16  30    6.4841   364.8   21.897      49.633
2015   11        2    16  38    6.5247   365.6   22.078      50.019
2015   11        2    16  45    6.5681   366.5   22.260      50.450
2015   11        2    16  52    6.6131   367.4   22.441      50.918
2015   11        2    16  59    6.6606   368.4   22.617      51.423
2015   11        2    17   6    6.7091   369.4   22.783      51.959
2015   11        2    17  13    6.7595   370.4   22.939      52.527
2015   11        2    17  21    6.8103   371.4   23.083      53.115
2015   11        2    17  28    6.8620   372.5   23.213      53.728
2015   11        2    17  35    6.9133   373.5   23.326      54.353
2015   11        2    17  42    6.9648   374.5   23.425      54.992
2015   11        2    17  49    7.0153   375.6   23.507      55.640
2015   11        2    17  56    7.0654   376.6   23.574      56.300
2015   11        2    18   4    7.1141   377.6   23.626      56.956
2015   11        2    18  11    7.1622   378.5   23.667      57.618
2015   11        2    18  18    7.2087   379.5   23.695      58.276
2015   11        2    18  25    7.2545   380.4   23.713      58.938
2015   11        2    18  32    7.2986   381.3   23.722      59.597
2015   11        2    18  40    7.3415   382.2   23.723      60.263
2015   11        2    18  47    7.3829   383.1   23.716      60.925
2015   11        2    18  54    7.4233   384.0   23.704      61.594
2015   11        2    19   1    7.4621   384.8   23.687      62.259
2015   11        2    19   8    7.4998   385.6   23.665      62.931
2015   11        2    19  15    7.5361   386.5   23.640      63.599
2015   11        2    19  23    7.5714   387.3   23.611      64.271
2015   11        2    19  30    7.6053   388.1   23.579      64.938
2015   11        2    19  37    7.6383   389.0   23.544      65.607
2015   11        2    19  44    7.6700   389.8   23.506      66.269
2015   11        2    19  51    7.7008   390.6   23.466      66.930
2015   11        2    19  58    7.7304   391.5   23.423      67.580
2015   11        2    20   6    7.7591   392.3   23.377      68.226
2015   11        2    20  13    7.7866   393.2   23.329      68.862
2015   11        2    20  20    7.8132   394.1   23.277      69.492
2015   11        2    20  27    7.8388   395.0   23.223      70.107
2015   11        2    20  34    7.8636   395.9   23.166      70.714
2015   11        2    20  41    7.8873   396.8   23.107      71.304
2015   11        2    20  49    7.9102   397.7   23.045      71.883
2015   11        2    20  56    7.9323   398.7   22.982      72.441
2015   11        2    21   3    7.9536   399.6   22.917      72.983
2015   11        2    21  10    7.9742   400.6   22.851      73.503
2015   11        2    21  17    7.9940   401.5   22.783      74.008
2015   11        2    21  24    8.0130   402.5   22.715      74.492
2015   11        2    21  32    8.0314   403.5   22.645      74.962
2015   11        2    21  39    8.0494   404.5   22.573      75.412
2015   11        2    21  46    8.0667   405.6   22.500      75.856
2015   11        2    21  53    8.0832   406.6   22.425      76.290
2015   11        2    22   0    8.0985   407.7   22.348      76.719
2015   11        2    22   7    8.1129   408.7   22.269      77.138
2015   11        2    22  15    8.1257   409.8   22.188      77.555
2015   11        2    22  22    8.1370   411.0   22.102      77.973
2015   11        2    22  29    8.1461   412.1   22.011      78.397
2015   11        2    22  36    8.1533   413.3   21.915      78.818
2015   11        2    22  43    8.1577   414.6   21.811      79.237
2015   11        2    22  50    8.1594   415.8   21.698      79.646
2015   11        2    22  58    8.1575   417.1   21.574      80.051
2015   11        2    23   5    8.1524   418.3   21.441      80.436
2015   11        2    23  12    8.1435   419.5   21.299      80.785
2015   11        2    23  19    8.1318   420.7   21.149      81.091
2015   11        2    23  26    8.1165   421.9   20.989      81.361
2015   11        2    23  33    8.0990   423.0   20.823      81.595
2015   11        2    23  41    8.0786   424.1   20.650      81.791
2015   11        2    23  48    8.0569   425.1   20.475      81.938
2015   11        2    23  55    8.0330   426.1   20.295      82.050
2015   11        3     0   2    8.0085   427.1   20.115      82.133
2015   11        3     0   9    7.9785   428.0   19.934      82.192
2015   11        3     0  16    7.9564   429.0   19.755      82.234
2015   11        3     0  24    7.9294   429.9   19.579      82.264
2015   11        3     0  31    7.9033   430.8   19.407      82.297
2015   11        3     0  38    7.8724   431.8   19.238      82.343
2015   11        3     0  45    7.8506   432.8   19.072      82.409
2015   11        3     0  52    7.8242   433.8   18.909      82.495
2015   11        3     0  59    7.7985   434.8   18.750      82.597
2015   11        3     1   7    7.7721   435.9   18.591      82.719
2015   11        3     1  14    7.7461   436.9   18.436      82.859
2015   11        3     1  21    7.7194   438.0   18.279      83.015
2015   11        3     1  28    7.6929   439.1   18.125      83.187
2015   11        3     1  35    7.6655   440.2   17.970      83.368
2015   11        3     1  42    7.6383   441.3   17.816      83.555
2015   11        3     1  50    7.6097   442.4   17.659      83.748
2015   11        3     1  57    7.5812   443.6   17.503      83.942
2015   11        3     2   4    7.5513   444.7   17.343      84.138
2015   11        3     2  11    7.5212   445.9   17.183      84.328
2015   11        3     2  18    7.4894   447.2   17.020      84.519
2015   11        3     2  26    7.4571   448.4   16.856      84.710
2015   11        3     2  33    7.4230   449.7   16.688      84.910
2015   11        3     2  40    7.3881   451.0   16.518      85.112
2015   11        3     2  47    7.3511   452.4   16.341      85.312
2015   11        3     2  54    7.3132   453.8   16.162      85.501
2015   11        3     3   1    7.2730   455.3   15.974      85.686
2015   11        3     3   9    7.2311   456.8   15.779      85.878
2015   11        3     3  16    7.1864   458.4   15.575      86.059
2015   11        3     3  23    7.1402   460.0   15.364      86.198
2015   11        3     3  30    7.0918   461.5   15.148      86.302
2015   11        3     3  37    7.0423   463.1   14.928      86.380
2015   11        3     3  44    6.9913   464.7   14.705      86.433
2015   11        3     3  52    6.9399   466.2   14.481      86.456
2015   11        3     3  59    6.8876   467.8   14.256      86.447
2015   11        3     4   6    6.8353   469.4   14.031      86.415
2015   11        3     4  13    6.7823   471.1   13.805      86.375
2015   11        3     4  20    6.7295   472.7   13.579      86.329
2015   11        3     4  27    6.6768   474.4   13.353      86.253
2015   11        3     4  35    6.6255   475.9   13.134      86.129
2015   11        3     4  42    6.5752   477.5   12.920      85.968
2015   11        3     4  49    6.5268   479.0   12.713      85.811
2015   11        3     4  56    6.4797   480.5   12.512      85.649
2015   11        3     5   3    6.4344   482.0   12.319      85.484
2015   11        3     5  10    6.3904   483.5   12.132      85.315
2015   11        3     5  17    6.3485   484.9   11.954      85.149
2015   11        3     5  25    6.3080   486.3   11.782      84.987
2015   11        3     5  32    6.2695   487.7   11.619      84.834
2015   11        3     5  39    6.2326   489.1   11.463      84.687
2015   11        3     5  46    6.1977   490.3   11.316      84.539
2015   11        3     5  53    6.1640   491.6   11.177      84.402
2015   11        3     6   0    6.1322   492.8   11.045      84.293
2015   11        3     6   8    6.1012   494.1   10.920      84.210
2015   11        3     6  15    6.0717   495.3   10.801      84.150
2015   11        3     6  22    6.0428   496.6   10.686      84.109
2015   11        3     6  29    6.0152   497.8   10.577      84.085
2015   11        3     6  36    5.9879   499.0   10.471      84.074
2015   11        3     6  43    5.9615   500.2   10.369      84.079
2015   11        3     6  51    5.9353   501.4   10.270      84.096
2015   11        3     6  58    5.9099   502.6   10.174      84.122
2015   11        3     7   5    5.8844   503.8   10.080      84.158
2015   11        3     7  12    5.8595   505.0    9.988      84.200
2015   11        3     7  19    5.8344   506.2    9.896      84.247
2015   11        3     7  26    5.8097   507.4    9.806      84.296
2015   11        3     7  34    5.7846   508.6    9.716      84.344
2015   11        3     7  41    5.7597   509.8    9.626      84.390
2015   11        3     7  48    5.7343   511.0    9.536      84.431
2015   11        3     7  55    5.7091   512.2    9.446      84.467
2015   11        3     8   2    5.6831   513.5    9.354      84.495
2015   11        3     8   9    5.6572   514.7    9.261      84.508
2015   11        3     8  17    5.6304   515.9    9.166      84.503
2015   11        3     8  24    5.6034   517.2    9.069      84.482
2015   11        3     8  31    5.5756   518.5    8.968      84.446
2015   11        3     8  38    5.5475   519.8    8.865      84.372
2015   11        3     8  45    5.5183   521.1    8.760      84.255
2015   11        3     8  52    5.4888   522.3    8.654      84.100
2015   11        3     9   0    5.4585   523.6    8.546      83.911
2015   11        3     9   7    5.4280   524.8    8.438      83.687
2015   11        3     9  14    5.3968   526.1    8.329      83.431
2015   11        3     9  21    5.3656   527.3    8.220      83.150
2015   11        3     9  28    5.3337   528.5    8.111      82.844
2015   11        3     9  36    5.3019   529.8    8.002      82.522
2015   11        3     9  43    5.2694   531.1    7.893      82.180
2015   11        3     9  50    5.2370   532.3    7.785      81.807
2015   11        3     9  57    5.2042   533.5    7.678      81.413
2015   11        3    10   4    5.1714   534.7    7.573      81.014
2015   11        3    10  11    5.1383   535.9    7.468      80.606
2015   11        3    10  19    5.1053   537.1    7.366      80.190
2015   11        3    10  26    5.0721   538.3    7.264      79.764
2015   11        3    10  33    5.0392   539.5    7.165      79.337
2015   11        3    10  40    5.0061   540.7    7.066      78.905
2015   11        3    10  47    4.9732   541.9    6.970      78.474
2015   11        3    10  54    4.9404   543.0    6.876      78.039
2015   11        3    11   2    4.9079   544.1    6.784      77.604
2015   11        3    11   9    4.8756   545.2    6.694      77.171
2015   11        3    11  16    4.8438   546.3    6.606      76.749
2015   11        3    11  23    4.8121   547.3    6.521      76.331
2015   11        3    11  30    4.7809   548.3    6.438      75.923
2015   11        3    11  37    4.7501   549.3    6.356      75.517
2015   11        3    11  45    4.7199   550.2    6.277      75.122
2015   11        3    11  52    4.6900   551.1    6.200      74.728
2015   11        3    11  59    4.6606   552.0    6.126      74.344
2015   11        3    12   6    4.6318   552.8    6.053      73.960
2015   11        3    12  13    4.6035   553.6    5.983      73.585
2015   11        3    12  20    4.5759   554.3    5.915      73.212
2015   11        3    12  28    4.5485   555.0    5.849      72.845
2015   11        3    12  35    4.5217   555.7    5.786      72.479
2015   11        3    12  42    4.4955   556.3    5.724      72.121
2015   11        3    12  49    4.4698   556.9    5.665      71.763
2015   11        3    12  56    4.4446   557.4    5.607      71.411
2015   11        3    13   3    4.4199   557.9    5.552      71.058
2015   11        3    13  11    4.3956   558.3    5.499      70.709
2015   11        3    13  18    4.3716   558.8    5.447      70.359
2015   11        3    13  25    4.3481   559.2    5.397      70.013
2015   11        3    13  32    4.3248   559.5    5.348      69.663
2015   11        3    13  39    4.3020   559.9    5.301      69.316
2015   11        3    13  46    4.2793   560.2    5.256      68.965
2015   11        3    13  54    4.2569   560.5    5.212      68.615
2015   11        3    14   1    4.2346   560.8    5.169      68.259
2015   11        3    14   8    4.2126   561.0    5.127      67.903
2015   11        3    14  15    4.1905   561.3    5.086      67.541
2015   11        3    14  22    4.1688   561.5    5.047      67.177
2015   11        3    14  29    4.1470   561.7    5.008      66.807
2015   11        3    14  36    4.1254   561.8    4.971      66.435
2015   11        3    14  44    4.1037   562.0    4.934      66.056
2015   11        3    14  51    4.0822   562.1    4.899      65.674
2015   11        3    14  58    4.0605   562.3    4.864      65.286
2015   11        3    15   5    4.0390   562.4    4.830      64.896
2015   11        3    15  12    4.0173   562.4    4.797      64.498
2015   11        3    15  20    3.9958   562.5    4.765      64.099
2015   11        3    15  27    3.9741   562.6    4.733      63.693
2015   11        3    15  34    3.9526   562.6    4.703      63.286
2015   11        3    15  41    3.9310   562.6    4.673      62.874
2015   11        3    15  48    3.9096   562.6    4.644      62.462
2015   11        3    15  55    3.8881   562.6    4.616      62.045
2015   11        3    16   3    3.8669   562.6    4.588      61.630
2015   11        3    16  10    3.8455   562.5    4.561      61.211
2015   11        3    16  17    3.8245   562.4    4.536      60.794
2015   11        3    16  24    3.8035   562.4    4.510      60.377
2015   11        3    16  31    3.7827   562.3    4.486      59.963
2015   11        3    16  38    3.7621   562.2    4.463      59.550
2015   11        3    16  46    3.7418   562.1    4.440      59.143
2015   11        3    16  53    3.7217   561.9    4.418      58.738
2015   11        3    17   0    3.7018   561.8    4.396      58.339
2015   11        3    17   7    3.6823   561.6    4.376      57.947
2015   11        3    17  14    3.6630   561.5    4.356      57.562
2015   11        3    17  22    3.6441   561.3    4.336      57.188
2015   11        3    17  29    3.6255   561.1    4.317      56.819
2015   11        3    17  36    3.6073   561.0    4.299      56.460
2015   11        3    17  43    3.5893   560.8    4.281      56.110
2015   11        3    17  50    3.5718   560.7    4.264      55.770
2015   11        3    17  57    3.5563   560.5    4.247      55.439
2015   11        3    18   5    3.5377   560.3    4.231      55.118
2015   11        3    18  12    3.5211   560.2    4.215      54.806
2015   11        3    18  19    3.5050   560.0    4.200      54.504
2015   11        3    18  26    3.4890   559.8    4.185      54.209
2015   11        3    18  33    3.4735   559.6    4.170      53.922
2015   11        3    18  40    3.4581   559.5    4.156      53.641
2015   11        3    18  48    3.4433   559.3    4.142      53.366
2015   11        3    18  55    3.4285   559.1    4.129      53.096
2015   11        3    19   2    3.4142   558.9    4.116      52.830
2015   11        3    19   9    3.4000   558.7    4.103      52.572
2015   11        3    19  16    3.3863   558.5    4.091      52.317
2015   11        3    19  23    3.3726   558.3    4.080      52.069
2015   11        3    19  31    3.3594   558.1    4.068      51.823
2015   11        3    19  38    3.3462   557.9    4.057      51.584
2015   11        3    19  45    3.3335   557.7    4.047      51.346
2015   11        3    19  52    3.3207   557.5    4.036      51.112
2015   11        3    19  59    3.3084   557.3    4.026      50.881
2015   11        3    20   6    3.2961   557.1    4.016      50.656
2015   11        3    20  13    3.2841   556.9    4.006      50.433
2015   11        3    20  21    3.2722   556.7    3.996      50.215
2015   11        3    20  28    3.2605   556.5    3.986      50.000
2015   11        3    20  35    3.2489   556.3    3.976      49.789
2015   11        3    20  42    3.2376   556.1    3.966      49.578
2015   11        3    20  49    3.2263   555.9    3.956      49.370
2015   11        3    20  56    3.2152   555.6    3.946      49.163
2015   11        3    21   4    3.2043   555.4    3.936      48.958
2015   11        3    21  11    3.1935   555.2    3.927      48.755
2015   11        3    21  18    3.1828   555.0    3.917      48.555
2015   11        3    21  25    3.1723   554.7    3.907      48.356
2015   11        3    21  32    3.1619   554.5    3.897      48.160
2015   11        3    21  39    3.1517   554.3    3.888      47.963
2015   11        3    21  47    3.1415   554.0    3.878      47.769
2015   11        3    21  54    3.1316   553.8    3.869      47.576
2015   11        3    22   1    3.1217   553.5    3.859      47.386
2015   11        3    22   8    3.1120   553.3    3.850      47.196
2015   11        3    22  15    3.1024   553.0    3.841      47.010
2015   11        3    22  22    3.0930   552.8    3.833      46.824
2015   11        3    22  30    3.0836   552.5    3.824      46.642
2015   11        3    22  37    3.0744   552.3    3.815      46.460
2015   11        3    22  44    3.0654   552.0    3.807      46.282
2015   11        3    22  51    3.0564   551.7    3.799      46.105
2015   11        3    22  58    3.0476   551.5    3.791      45.932
2015   11        3    23   5    3.0389   551.2    3.783      45.760
2015   11        3    23  13    3.0303   550.9    3.776      45.591
2015   11        3    23  20    3.0219   550.7    3.768      45.424
2015   11        3    23  27    3.0135   550.4    3.761      45.260
2015   11        3    23  34    3.0054   550.1    3.754      45.098
2015   11        3    23  41    2.9973   549.9    3.747      44.940
2015   11        3    23  49    2.9893   549.6    3.740      44.784
2015   11        3    23  56    2.9815   549.3    3.733      44.631
2015   11        4     0   3    2.9738   549.1    3.727      44.480
2015   11        4     0  10    2.9661   548.8    3.720      44.333
2015   11        4     0  17    2.9587   548.5    3.714      44.187
2015   11        4     0  24    2.9512   548.3    3.708      44.045
2015   11        4     0  32    2.9439   548.0    3.701      43.904
2015   11        4     0  39    2.9367   547.7    3.695      43.767
2015   11        4     0  46    2.9296   547.5    3.689      43.631
2015   11        4     0  53    2.9225   547.2    3.683      43.499
2015   11        4     1   0    2.9156   547.0    3.677      43.368
2015   11        4     1   7    2.9087   546.7    3.671      43.240
2015   11        4     1  15    2.9019   546.5    3.665      43.114
2015   11        4     1  22    2.8951   546.2    3.659      42.991
2015   11        4     1  29    2.8885   546.0    3.653      42.870
2015   11        4     1  36    2.8819   545.7    3.647      42.751
2015   11        4     1  43    2.8765   545.5    3.641      42.633
2015   11        4     1  50    2.8690   545.2    3.635      42.518
2015   11        4     1  58    2.8627   544.9    3.630      42.403
2015   11        4     2   5    2.8564   544.7    3.624      42.288
2015   11        4     2  12    2.8503   544.4    3.619      42.175
2015   11        4     2  19    2.8442   544.1    3.614      42.062
2015   11        4     2  26    2.8382   543.8    3.609      41.951
2015   11        4     2  33    2.8324   543.5    3.605      41.840
2015   11        4     2  41    2.8266   543.2    3.602      41.730
2015   11        4     2  48    2.8209   542.8    3.598      41.623
2015   11        4     2  55    2.8153   542.5    3.595      41.517
2015   11        4     3   2    2.8097   542.2    3.593      41.414
2015   11        4     3   9    2.8043   541.9    3.590      41.312
2015   11        4     3  16    2.7989   541.6    3.588      41.213
2015   11        4     3  24    2.7936   541.2    3.586      41.114
2015   11        4     3  31    2.7884   540.9    3.585      41.018
2015   11        4     3  38    2.7832   540.6    3.584      40.922
2015   11        4     3  45    2.7781   540.3    3.583      40.831
2015   11        4     3  52    2.7731   540.0    3.582      40.742
2015   11        4     3  59    2.7681   539.7    3.582      40.656
2015   11        4     4   7    2.7631   539.4    3.581      40.572
2015   11        4     4  14    2.7582   539.1    3.580      40.490
2015   11        4     4  21    2.7534   538.8    3.579      40.409
2015   11        4     4  28    2.7486   538.5    3.579      40.329
2015   11        4     4  35    2.7439   538.2    3.578      40.250
2015   11        4     4  42    2.7392   537.9    3.577      40.172
2015   11        4     4  50    2.7346   537.6    3.577      40.095
2015   11        4     4  57    2.7300   537.3    3.576      40.020
2015   11        4     5   4    2.7256   537.0    3.576      39.945
2015   11        4     5  11    2.7212   536.7    3.575      39.871
2015   11        4     5  18    2.7168   536.4    3.575      39.797
2015   11        4     5  25    2.7126   536.1    3.574      39.724
2015   11        4     5  33    2.7084   535.9    3.574      39.650
2015   11        4     5  40    2.7043   535.6    3.573      39.578
2015   11        4     5  47    2.7003   535.3    3.573      39.505
2015   11        4     5  54    2.6964   535.0    3.573      39.434
2015   11        4     6   1    2.6926   534.7    3.573      39.364
2015   11        4     6   8    2.6888   534.4    3.574      39.294
2015   11        4     6  16    2.6851   534.1    3.574      39.225
2015   11        4     6  23    2.6815   533.8    3.574      39.157
2015   11        4     6  30    2.6780   533.5    3.575      39.090
2015   11        4     6  37    2.6746   533.2    3.576      39.023
2015   11        4     6  44    2.6712   532.9    3.576      38.958
2015   11        4     6  51    2.6679   532.6    3.577      38.894
2015   11        4     6  59    2.6647   532.3    3.578      38.830
2015   11        4     7   6    2.6616   532.0    3.579      38.768
2015   11        4     7  13    2.6585   531.7    3.580      38.706
2015   11        4     7  20    2.6555   531.5    3.581      38.646
2015   11        4     7  27    2.6526   531.2    3.582      38.586
2015   11        4     7  34    2.6498   530.9    3.583      38.527
2015   11        4     7  42    2.6469   530.6    3.584      38.469
2015   11        4     7  49    2.6442   530.3    3.585      38.412
2015   11        4     7  56    2.6415   530.0    3.586      38.355
2015   11        4     8   3    2.6388   529.7    3.587      38.300
2015   11        4     8  10    2.6362   529.4    3.588      38.244
2015   11        4     8  18    2.6336   529.1    3.589      38.189
2015   11        4     8  25    2.6310   528.9    3.590      38.135
2015   11        4     8  32    2.6284   528.6    3.590      38.081
2015   11        4     8  39    2.6259   528.3    3.591      38.027
2015   11        4     8  46    2.6234   528.0    3.591      37.974
2015   11        4     8  53    2.6210   527.7    3.592      37.920
2015   11        4     9   1    2.6185   527.5    3.592      37.867
2015   11        4     9   8    2.6161   527.2    3.593      37.813
2015   11        4     9  15    2.6137   526.9    3.593      37.760
2015   11        4     9  22    2.6113   526.6    3.593      37.706
2015   11        4     9  29    2.6089   526.4    3.593      37.652
2015   11        4     9  36    2.6066   526.1    3.593      37.598
2015   11        4     9  44    2.6042   525.8    3.593      37.544
2015   11        4     9  51    2.6019   525.5    3.593      37.490
2015   11        4     9  58    2.5995   525.3    3.593      37.435
2015   11        4    10   5    2.5972   525.0    3.593      37.381
2015   11        4    10  12    2.5949   524.7    3.593      37.326
2015   11        4    10  19    2.5927   524.5    3.593      37.271
2015   11        4    10  26    2.5904   524.2    3.592      37.216
2015   11        4    10  34    2.5882   523.9    3.592      37.161
2015   11        4    10  41    2.5860   523.7    3.592      37.106
2015   11        4    10  48    2.5838   523.4    3.591      37.051
2015   11        4    10  55    2.5816   523.1    3.591      36.996
2015   11        4    11   2    2.5794   522.9    3.591      36.941
2015   11        4    11   9    2.5773   522.6    3.590      36.886
2015   11        4    11  17    2.5751   522.3    3.590      36.831
2015   11        4    11  24    2.5730   522.1    3.590      36.777
2015   11        4    11  31    2.5710   521.8    3.589      36.723
2015   11        4    11  38    2.5689   521.5    3.589      36.670
2015   11        4    11  45    2.5669   521.3    3.589      36.617
2015   11        4    11  52    2.5649   521.0    3.589      36.565
2015   11        4    12   0    2.5630   520.7    3.589      36.514
2015   11        4    12   7    2.5610   520.4    3.590      36.463
2015   11        4    12  14    2.5592   520.2    3.590      36.414
2015   11        4    12  21    2.5574   519.9    3.591      36.366
2015   11        4    12  28    2.5556   519.6    3.592      36.319
2015   11        4    12  35    2.5538   519.3    3.593      36.274
2015   11        4    12  43    2.5522   519.0    3.595      36.231
2015   11        4    12  50    2.5505   518.8    3.596      36.189
2015   11        4    12  57    2.5490   518.5    3.599      36.149
2015   11        4    13   4    2.5475   518.2    3.601      36.111
2015   11        4    13  11    2.5460   517.9    3.603      36.074
2015   11        4    13  18    2.5447   517.6    3.606      36.039
2015   11        4    13  26    2.5434   517.4    3.610      36.006
2015   11        4    13  33    2.5421   517.1    3.613      35.975
2015   11        4    13  40    2.5409   516.8    3.617      35.945
2015   11        4    13  47    2.5398   516.5    3.621      35.917
2015   11        4    13  54    2.5387   516.3    3.625      35.891
2015   11        4    14   1    2.5377   516.0    3.630      35.866
2015   11        4    14   9    2.5368   515.7    3.635      35.842
2015   11        4    14  16    2.5361   515.5    3.639      35.820
2015   11        4    14  23    2.5350   515.2    3.645      35.798
2015   11        4    14  30    2.5343   514.9    3.650      35.778
2015   11        4    14  37    2.5335   514.6    3.655      35.758
2015   11        4    14  45    2.5328   514.4    3.660      35.739
2015   11        4    14  52    2.5322   514.1    3.666      35.721
2015   11        4    14  59    2.5315   513.8    3.671      35.703
2015   11        4    15   6    2.5310   513.6    3.677      35.685
2015   11        4    15  13    2.5304   513.3    3.682      35.667
2015   11        4    15  20    2.5299   513.0    3.687      35.649
2015   11        4    15  28    2.5294   512.8    3.693      35.632
2015   11        4    15  35    2.5289   512.5    3.698      35.614
2015   11        4    15  42    2.5285   512.2    3.703      35.596
2015   11        4    15  49    2.5281   511.9    3.708      35.578
2015   11        4    15  56    2.5277   511.7    3.713      35.560
2015   11        4    16   3    2.5273   511.4    3.718      35.542
2015   11        4    16  11    2.5270   511.1    3.723      35.523
2015   11        4    16  18    2.5267   510.9    3.728      35.505
2015   11        4    16  25    2.5264   510.6    3.733      35.486
2015   11        4    16  32    2.5261   510.4    3.738      35.467
2015   11        4    16  39    2.5259   510.1    3.743      35.448
2015   11        4    16  46    2.5257   509.8    3.748      35.428
2015   11        4    16  54    2.5255   509.6    3.752      35.409
2015   11        4    17   1    2.5255   509.3    3.757      35.389
2015   11        4    17   8    2.5252   509.1    3.762      35.370
2015   11        4    17  15    2.5250   508.8    3.767      35.350
2015   11        4    17  22    2.5249   508.5    3.771      35.331
2015   11        4    17  29    2.5248   508.3    3.776      35.311
2015   11        4    17  37    2.5247   508.0    3.781      35.292
2015   11        4    17  44    2.5247   507.8    3.786      35.273
2015   11        4    17  51    2.5247   507.5    3.791      35.254
2015   11        4    17  58    2.5247   507.3    3.796      35.235
2015   11        4    18   5    2.5247   507.1    3.801      35.217
2015   11        4    18  12    2.5248   506.8    3.806      35.199
2015   11        4    18  20    2.5250   506.6    3.811      35.182
2015   11        4    18  27    2.5249   506.3    3.817      35.165
2015   11        4    18  34    2.5250   506.1    3.822      35.148
2015   11        4    18  41    2.5251   505.9    3.827      35.132
2015   11        4    18  48    2.5252   505.6    3.833      35.117
2015   11        4    18  55    2.5254   505.4    3.839      35.103
2015   11        4    19   3    2.5255   505.2    3.844      35.089
2015   11        4    19  10    2.5257   504.9    3.850      35.077
2015   11        4    19  17    2.5261   504.7    3.856      35.066
2015   11        4    19  24    2.5263   504.5    3.862      35.056
2015   11        4    19  31    2.5263   504.3    3.868      35.047
2015   11        4    19  38    2.5265   504.0    3.874      35.038
2015   11        4    19  45    2.5270   503.8    3.880      35.031
2015   11        4    19  53    2.5273   503.6    3.886      35.025
2015   11        4    20   0    2.5274   503.4    3.892      35.020
2015   11        4    20   7    2.5277   503.2    3.898      35.016
2015   11        4    20  14    2.5280   502.9    3.904      35.013
2015   11        4    20  21    2.5284   502.7    3.910      35.011
2015   11        4    20  28    2.5287   502.5    3.917      35.010
2015   11        4    20  36    2.5292   502.3    3.923      35.010
2015   11        4    20  43    2.5296   502.1    3.929      35.011
2015   11        4    20  50    2.5301   501.9    3.936      35.012
2015   11        4    20  57    2.5306   501.7    3.942      35.014
2015   11        4    21   4    2.5311   501.5    3.949      35.017
2015   11        4    21  12    2.5316   501.3    3.955      35.020
2015   11        4    21  19    2.5322   501.1    3.962      35.024
2015   11        4    21  26    2.5329   500.9    3.969      35.027
2015   11        4    21  33    2.5335   500.7    3.975      35.031
2015   11        4    21  40    2.5344   500.5    3.982      35.035
2015   11        4    21  47    2.5349   500.3    3.989      35.040
2015   11        4    21  55    2.5357   500.1    3.996      35.044
2015   11        4    22   2    2.5364   500.0    4.003      35.048
2015   11        4    22   9    2.5372   499.8    4.010      35.053
2015   11        4    22  16    2.5381   499.6    4.017      35.057
2015   11        4    22  23    2.5391   499.4    4.024      35.062
2015   11        4    22  31    2.5398   499.2    4.031      35.066
2015   11        4    22  38    2.5407   499.0    4.038      35.070
2015   11        4    22  45    2.5417   498.8    4.045      35.074
2015   11        4    22  52    2.5426   498.7    4.052      35.078
2015   11        4    22  59    2.5436   498.5    4.059      35.082
2015   11        4    23   6    2.5446   498.3    4.066      35.086
2015   11        4    23  14    2.5458   498.1    4.073      35.090
2015   11        4    23  21    2.5467   497.9    4.080      35.094
2015   11        4    23  28    2.5479   497.8    4.087      35.099
2015   11        4    23  35    2.5490   497.6    4.094      35.103
2015   11        4    23  42    2.5501   497.4    4.101      35.108
2015   11        4    23  49    2.5513   497.3    4.108      35.113
2015   11        4    23  57    2.5526   497.1    4.115      35.118
2015   11        5     0   4    2.5537   496.9    4.121      35.123
2015   11        5     0  11    2.5549   496.7    4.128      35.128
2015   11        5     0  18    2.5562   496.6    4.135      35.134
2015   11        5     0  25    2.5575   496.4    4.142      35.139
2015   11        5     0  32    2.5589   496.2    4.149      35.144
2015   11        5     0  40    2.5601   496.1    4.155      35.149
2015   11        5     0  47    2.5615   495.9    4.162      35.154
2015   11        5     0  54    2.5628   495.8    4.169      35.160
2015   11        5     1   1    2.5641   495.6    4.176      35.166
2015   11        5     1   8    2.5657   495.5    4.183      35.172
2015   11        5     1  15    2.5669   495.3    4.190      35.179
2015   11        5     1  22    2.5684   495.2    4.198      35.187
2015   11        5     1  30    2.5698   495.0    4.205      35.195
2015   11        5     1  37    2.5713   494.9    4.212      35.204
2015   11        5     1  44    2.5727   494.7    4.219      35.212
2015   11        5     1  51    2.5742   494.6    4.226      35.222
2015   11        5     1  58    2.5756   494.4    4.234      35.231
2015   11        5     2   5    2.5771   494.3    4.241      35.242
2015   11        5     2  13    2.5785   494.2    4.248      35.252
2015   11        5     2  20    2.5799   494.0    4.255      35.263
2015   11        5     2  27    2.5813   493.9    4.262      35.275
2015   11        5     2  34    2.5827   493.8    4.269      35.286
2015   11        5     2  41    2.5840   493.7    4.276      35.298
2015   11        5     2  48    2.5854   493.5    4.283      35.310
2015   11        5     2  56    2.5867   493.4    4.290      35.322
2015   11        5     3   3    2.5882   493.3    4.297      35.334
2015   11        5     3  10    2.5893   493.2    4.303      35.346
2015   11        5     3  17    2.5907   493.0    4.310      35.358
2015   11        5     3  24    2.5920   492.9    4.316      35.371
2015   11        5     3  31    2.5933   492.8    4.322      35.383
2015   11        5     3  39    2.5946   492.7    4.328      35.395
2015   11        5     3  46    2.5958   492.6    4.334      35.406
2015   11        5     3  53    2.5971   492.5    4.340      35.417
2015   11        5     4   0    2.5983   492.4    4.346      35.428
2015   11        5     4   7    2.5995   492.3    4.351      35.438
2015   11        5     4  14    2.6008   492.1    4.357      35.448
2015   11        5     4  22    2.6020   492.0    4.362      35.457
2015   11        5     4  29    2.6032   491.9    4.367      35.465
2015   11        5     4  36    2.6044   491.8    4.372      35.472
2015   11        5     4  43    2.6056   491.7    4.377      35.479
2015   11        5     4  50    2.6068   491.6    4.382      35.485
2015   11        5     4  57    2.6080   491.5    4.387      35.490
2015   11        5     5   5    2.6092   491.4    4.392      35.496
2015   11        5     5  12    2.6105   491.3    4.397      35.500
2015   11        5     5  19    2.6117   491.2    4.401      35.504
2015   11        5     5  26    2.6129   491.1    4.406      35.508
2015   11        5     5  33    2.6141   491.0    4.411      35.512
2015   11        5     5  41    2.6153   490.9    4.416      35.515
2015   11        5     5  48    2.6165   490.8    4.420      35.518
2015   11        5     5  55    2.6177   490.7    4.425      35.521
2015   11        5     6   2    2.6189   490.6    4.430      35.524
2015   11        5     6   9    2.6201   490.5    4.434      35.526
2015   11        5     6  16    2.6214   490.4    4.439      35.529
2015   11        5     6  24    2.6226   490.3    4.444      35.532
2015   11        5     6  31    2.6238   490.2    4.449      35.535
2015   11        5     6  38    2.6250   490.1    4.453      35.539
2015   11        5     6  45    2.6263   490.0    4.458      35.543
2015   11        5     6  52    2.6275   489.9    4.463      35.547
2015   11        5     6  59    2.6287   489.8    4.468      35.552
2015   11        5     7   7    2.6299   489.7    4.472      35.557
2015   11        5     7  14    2.6311   489.6    4.477      35.563
2015   11        5     7  21    2.6324   489.5    4.482      35.568
2015   11        5     7  28    2.6335   489.5    4.486      35.574
2015   11        5     7  35    2.6347   489.4    4.491      35.579
2015   11        5     7  42    2.6359   489.3    4.496      35.585
2015   11        5     7  50    2.6371   489.2    4.500      35.591
2015   11        5     7  57    2.6383   489.1    4.505      35.597
2015   11        5     8   4    2.6394   489.0    4.509      35.602
2015   11        5     8  11    2.6406   488.9    4.514      35.609
2015   11        5     8  18    2.6417   488.9    4.519      35.616
2015   11        5     8  25    2.6429   488.8    4.523      35.623
2015   11        5     8  33    2.6440   488.7    4.528      35.630
2015   11        5     8  40    2.6452   488.6    4.532      35.638
2015   11        5     8  47    2.6463   488.5    4.537      35.646
2015   11        5     8  54    2.6474   488.5    4.541      35.653
2015   11        5     9   1    2.6484   488.4    4.545      35.661
2015   11        5     9   8    2.6495   488.3    4.549      35.669
2015   11        5     9  16    2.6505   488.2    4.554      35.676
2015   11        5     9  23    2.6515   488.1    4.558      35.684
2015   11        5     9  30    2.6525   488.1    4.562      35.690
2015   11        5     9  37    2.6534   488.0    4.565      35.697
2015   11        5     9  44    2.6543   487.9    4.569      35.703
2015   11        5     9  51    2.6552   487.8    4.573      35.708
2015   11        5     9  58    2.6561   487.8    4.576      35.714
2015   11        5    10   6    2.6569   487.7    4.580      35.719
2015   11        5    10  13    2.6577   487.6    4.583      35.723
2015   11        5    10  20    2.6584   487.5    4.586      35.727
2015   11        5    10  27    2.6592   487.4    4.589      35.731
2015   11        5    10  34    2.6599   487.4    4.592      35.735
2015   11        5    10  41    2.6606   487.3    4.595      35.738
2015   11        5    10  49    2.6613   487.2    4.598      35.740
2015   11        5    10  56    2.6620   487.1    4.601      35.742
2015   11        5    11   3    2.6627   487.0    4.604      35.744
2015   11        5    11  10    2.6633   486.9    4.606      35.745
2015   11        5    11  17    2.6640   486.9    4.609      35.745
2015   11        5    11  25    2.6646   486.8    4.611      35.745
2015   11        5    11  32    2.6653   486.7    4.614      35.745
2015   11        5    11  39    2.6659   486.6    4.617      35.744
2015   11        5    11  46    2.6665   486.5    4.619      35.742
2015   11        5    11  53    2.6671   486.4    4.621      35.741
2015   11        5    12   0    2.6677   486.4    4.624      35.738
2015   11        5    12   8    2.6684   486.3    4.626      35.736
2015   11        5    12  15    2.6689   486.2    4.629      35.733
2015   11        5    12  22    2.6695   486.1    4.631      35.729
2015   11        5    12  29    2.6700   486.0    4.633      35.725
2015   11        5    12  36    2.6706   485.9    4.636      35.721
2015   11        5    12  43    2.6711   485.9    4.638      35.717
2015   11        5    12  51    2.6717   485.8    4.640      35.712
2015   11        5    12  58    2.6722   485.7    4.642      35.707
2015   11        5    13   5    2.6727   485.6    4.644      35.702
2015   11        5    13  12    2.6732   485.5    4.647      35.697
2015   11        5    13  19    2.6737   485.4    4.649      35.691
2015   11        5    13  27    2.6742   485.4    4.651      35.686
2015   11        5    13  34    2.6747   485.3    4.653      35.680
2015   11        5    13  41    2.6752   485.2    4.655      35.674
2015   11        5    13  48    2.6757   485.1    4.657      35.668
2015   11        5    13  55    2.6761   485.0    4.659      35.661
2015   11        5    14   2    2.6766   484.9    4.661      35.655
2015   11        5    14  10    2.6770   484.9    4.663      35.649
2015   11        5    14  17    2.6774   484.8    4.665      35.643
2015   11        5    14  24    2.6779   484.7    4.667      35.636
2015   11        5    14  31    2.6783   484.6    4.669      35.630
2015   11        5    14  38    2.6787   484.5    4.671      35.624
2015   11        5    14  45    2.6791   484.4    4.673      35.617
2015   11        5    14  52    2.6795   484.4    4.675      35.611
2015   11        5    15   0    2.6799   484.3    4.677      35.605
2015   11        5    15   7    2.6803   484.2    4.679      35.599
2015   11        5    15  14    2.6807   484.1    4.681      35.593
2015   11        5    15  21    2.6811   484.0    4.683      35.588
2015   11        5    15  28    2.6815   484.0    4.685      35.582
2015   11        5    15  35    2.6819   483.9    4.687      35.577
2015   11        5    15  43    2.6823   483.8    4.689      35.572
2015   11        5    15  50    2.6827   483.7    4.691      35.567
2015   11        5    15  57    2.6831   483.6    4.693      35.563
2015   11        5    16   4    2.6835   483.6    4.695      35.558
2015   11        5    16  11    2.6839   483.5    4.697      35.554
2015   11        5    16  18    2.6843   483.4    4.699      35.550
2015   11        5    16  26    2.6846   483.3    4.701      35.546
2015   11        5    16  33    2.6850   483.2    4.703      35.542
2015   11        5    16  40    2.6854   483.2    4.706      35.538
2015   11        5    16  47    2.6857   483.1    4.708      35.534
2015   11        5    16  54    2.6860   483.0    4.710      35.531
2015   11        5    17   1    2.6864   482.9    4.712      35.528
2015   11        5    17   9    2.6867   482.8    4.714      35.524
2015   11        5    17  16    2.6870   482.8    4.716      35.521
2015   11        5    17  23    2.6872   482.7    4.718      35.518
2015   11        5    17  30    2.6875   482.6    4.720      35.515
2015   11        5    17  37    2.6878   482.5    4.722      35.512
2015   11        5    17  44    2.6880   482.4    4.724      35.509
2015   11        5    17  52    2.6883   482.4    4.726      35.506
2015   11        5    17  59    2.6885   482.3    4.728      35.503
2015   11        5    18   6    2.6888   482.2    4.730      35.499
2015   11        5    18  13    2.6891   482.1    4.732      35.496
2015   11        5    18  20    2.6893   482.0    4.734      35.492
2015   11        5    18  27    2.6896   481.9    4.736      35.488
2015   11        5    18  35    2.6898   481.8    4.739      35.484
2015   11        5    18  42    2.6900   481.8    4.741      35.480
2015   11        5    18  49    2.6903   481.7    4.743      35.476
2015   11        5    18  56    2.6905   481.6    4.745      35.472
2015   11        5    19   3    2.6907   481.5    4.747      35.467
2015   11        5    19  10    2.6910   481.4    4.750      35.462
2015   11        5    19  18    2.6912   481.3    4.752      35.457
2015   11        5    19  25    2.6915   481.2    4.754      35.452
2015   11        5    19  32    2.6917   481.2    4.757      35.447
2015   11        5    19  39    2.6919   481.1    4.759      35.441
2015   11        5    19  46    2.6921   481.0    4.762      35.435
2015   11        5    19  53    2.6924   480.9    4.764      35.429
2015   11        5    20   1    2.6926   480.8    4.767      35.423
2015   11        5    20   8    2.6928   480.7    4.769      35.416
2015   11        5    20  15    2.6930   480.6    4.772      35.409
2015   11        5    20  22    2.6932   480.5    4.774      35.402
2015   11        5    20  29    2.6934   480.4    4.776      35.394
2015   11        5    20  37    2.6936   480.4    4.779      35.386
2015   11        5    20  44    2.6937   480.3    4.781      35.378
2015   11        5    20  51    2.6939   480.2    4.783      35.370
2015   11        5    20  58    2.6940   480.1    4.786      35.361
2015   11        5    21   5    2.6942   480.0    4.788      35.352
2015   11        5    21  12    2.6943   479.9    4.790      35.343
2015   11        5    21  20    2.6944   479.8    4.792      35.334
2015   11        5    21  27    2.6946   479.7    4.794      35.324
2015   11        5    21  34    2.6947   479.6    4.796      35.314
2015   11        5    21  41    2.6948   479.5    4.798      35.304
2015   11        5    21  48    2.6949   479.4    4.800      35.295
2015   11        5    21  55    2.6950   479.3    4.802      35.285
2015   11        5    22   3    2.6951   479.2    4.803      35.275
2015   11        5    22  10    2.6952   479.1    4.805      35.265
2015   11        5    22  17    2.6953   479.0    4.807      35.255
2015   11        5    22  24    2.6955   478.9    4.808      35.245
2015   11        5    22  31    2.6956   478.8    4.810      35.235
2015   11        5    22  38    2.6957   478.7    4.811      35.225
2015   11        5    22  46    2.6958   478.6    4.813      35.215
2015   11        5    22  53    2.6959   478.5    4.814      35.205
2015   11        5    23   0    2.6960   478.5    4.815      35.196
2015   11        5    23   7    2.6962   478.4    4.817      35.186
2015   11        5    23  14    2.6963   478.3    4.818      35.176
2015   11        5    23  21    2.6964   478.2    4.819      35.166
2015   11        5    23  28    2.6965   478.1    4.820      35.156
2015   11        5    23  36    2.6966   478.0    4.821      35.145
2015   11        5    23  43    2.6967   477.9    4.822      35.135
2015   11        5    23  50    2.6968   477.8    4.823      35.124
2015   11        5    23  57    2.6969   477.7    4.824      35.114
2015   11        6     0   4    2.6970   477.6    4.825      35.103
2015   11        6     0  11    2.6970   477.5    4.826      35.092
2015   11        6     0  19    2.6971   477.4    4.827      35.081
2015   11        6     0  26    2.6971   477.3    4.828      35.070
2015   11        6     0  33    2.6972   477.2    4.828      35.059
2015   11        6     0  40    2.6972   477.1    4.829      35.047
2015   11        6     0  47    2.6973   477.0    4.830      35.035
2015   11        6     0  54    2.6973   476.9    4.831      35.024
2015   11        6     1   2    2.6973   476.9    4.831      35.012
2015   11        6     1   9    2.6974   476.8    4.832      35.000
2015   11        6     1  16    2.6974   476.7    4.833      34.987
2015   11        6     1  23    2.6974   476.6    4.833      34.975
2015   11        6     1  30    2.6974   476.5    4.834      34.963
2015   11        6     1  37    2.6974   476.4    4.835      34.950
2015   11        6     1  45    2.6974   476.3    4.835      34.938
2015   11        6     1  52    2.6974   476.2    4.836      34.925
2015   11        6     1  59    2.6974   476.1    4.837      34.912
2015   11        6     2   6    2.6974   476.0    4.838      34.899
2015   11        6     2  13    2.6974   475.9    4.839      34.886
2015   11        6     2  20    2.6974   475.8    4.840      34.873
2015   11        6     2  28    2.6974   475.7    4.841      34.860
2015   11        6     2  35    2.6973   475.6    4.842      34.847
2015   11        6     2  42    2.6973   475.5    4.843      34.834
2015   11        6     2  49    2.6973   475.4    4.844      34.821
2015   11        6     2  56    2.6973   475.3    4.845      34.807
2015   11        6     3   4    2.6973   475.2    4.846      34.794
2015   11        6     3  11    2.6973   475.1    4.848      34.781
2015   11        6     3  18    2.6973   475.0    4.849      34.767
2015   11        6     3  25    2.6973   474.9    4.851      34.754
2015   11        6     3  32    2.6973   474.8    4.852      34.741
2015   11        6     3  39    2.6973   474.7    4.854      34.727
2015   11        6     3  47    2.6974   474.6    4.855      34.714
2015   11        6     3  54    2.6973   474.5    4.857      34.701
2015   11        6     4   1    2.6974   474.4    4.859      34.687
2015   11        6     4   8    2.6974   474.3    4.861      34.674
2015   11        6     4  15    2.6974   474.1    4.862      34.661
2015   11        6     4  23    2.6974   474.0    4.864      34.647
2015   11        6     4  30    2.6974   473.9    4.866      34.634
2015   11        6     4  37    2.6974   473.8    4.868      34.620
2015   11        6     4  44    2.6975   473.7    4.870      34.606
2015   11        6     4  51    2.6975   473.6    4.872      34.593
2015   11        6     4  58    2.6975   473.5    4.874      34.579
2015   11        6     5   5    2.6975   473.4    4.876      34.566
2015   11        6     5  13    2.6976   473.3    4.878      34.552
2015   11        6     5  20    2.6976   473.2    4.880      34.538
2015   11        6     5  27    2.6977   473.0    4.882      34.525
2015   11        6     5  34    2.6977   472.9    4.884      34.511
2015   11        6     5  41    2.6978   472.8    4.886      34.497
2015   11        6     5  48    2.6978   472.7    4.888      34.484
2015   11        6     5  56    2.6979   472.6    4.889      34.470
2015   11        6     6   3    2.6979   472.5    4.891      34.456
2015   11        6     6  10    2.6980   472.4    4.893      34.443
2015   11        6     6  17    2.6981   472.2    4.895      34.429
2015   11        6     6  24    2.6981   472.1    4.897      34.415
2015   11        6     6  31    2.6982   472.0    4.899      34.401
2015   11        6     6  39    2.6983   471.9    4.900      34.387
2015   11        6     6  46    2.6984   471.8    4.902      34.373
2015   11        6     6  53    2.6984   471.7    4.904      34.358
2015   11        6     7   0    2.6985   471.6    4.906      34.344
2015   11        6     7   7    2.6986   471.4    4.907      34.330
2015   11        6     7  14    2.6987   471.3    4.909      34.315
2015   11        6     7  22    2.6988   471.2    4.910      34.300
2015   11        6     7  29    2.6989   471.1    4.912      34.286
2015   11        6     7  36    2.6989   471.0    4.914      34.271
2015   11        6     7  43    2.6990   470.8    4.915      34.256
2015   11        6     7  50    2.6991   470.7    4.917      34.241
2015   11        6     7  57    2.6992   470.6    4.918      34.227
2015   11        6     8   4    2.6993   470.5    4.920      34.212
2015   11        6     8  12    2.6995   470.4    4.921      34.197
2015   11        6     8  19    2.6996   470.3    4.923      34.182
2015   11        6     8  26    2.6997   470.1    4.924      34.167
2015   11        6     8  33    2.6998   470.0    4.926      34.153
2015   11        6     8  40    2.6999   469.9    4.927      34.138
2015   11        6     8  47    2.7001   469.8    4.928      34.123
2015   11        6     8  55    2.7002   469.7    4.930      34.108
2015   11        6     9   2    2.7003   469.5    4.931      34.093
2015   11        6     9   9    2.7005   469.4    4.933      34.078
2015   11        6     9  16    2.7006   469.3    4.934      34.064
2015   11        6     9  23    2.7007   469.2    4.935      34.048
2015   11        6     9  31    2.7008   469.1    4.936      34.034
2015   11        6     9  38    2.7010   468.9    4.938      34.018
2015   11        6     9  45    2.7011   468.8    4.939      34.003
2015   11        6     9  52    2.7012   468.7    4.940      33.988
2015   11        6     9  59    2.7014   468.6    4.941      33.972
2015   11        6    10   6    2.7015   468.5    4.943      33.957
2015   11        6    10  14    2.7016   468.3    4.944      33.941
2015   11        6    10  21    2.7017   468.2    4.945      33.925
2015   11        6    10  28    2.7018   468.1    4.946      33.909
2015   11        6    10  35    2.7019   468.0    4.947      33.893
2015   11        6    10  42    2.7021   467.8    4.948      33.877
2015   11        6    10  50    2.7022   467.7    4.949      33.861
2015   11        6    10  57    2.7023   467.6    4.950      33.844
2015   11        6    11   4    2.7024   467.5    4.951      33.828
2015   11        6    11  11    2.7026   467.4    4.952      33.812
2015   11        6    11  18    2.7027   467.2    4.953      33.795
2015   11        6    11  25    2.7029   467.1    4.954      33.778
2015   11        6    11  33    2.7030   467.0    4.955      33.762
2015   11        6    11  40    2.7031   466.8    4.957      33.745
2015   11        6    11  47    2.7033   466.7    4.958      33.728
2015   11        6    11  54    2.7035   466.6    4.959      33.712
2015   11        6    12   1    2.7037   466.5    4.960      33.695
2015   11        6    12   8    2.7038   466.3    4.962      33.678
2015   11        6    12  16    2.7040   466.2    4.963      33.662
2015   11        6    12  23    2.7042   466.1    4.964      33.645
2015   11        6    12  30    2.7044   466.0    4.966      33.629
2015   11        6    12  37    2.7047   465.8    4.968      33.612
2015   11        6    12  44    2.7049   465.7    4.969      33.596
2015   11        6    12  51    2.7052   465.6    4.971      33.580
2015   11        6    12  58    2.7054   465.5    4.973      33.563
2015   11        6    13   6    2.7057   465.3    4.975      33.547
2015   11        6    13  13    2.7060   465.2    4.977      33.531
2015   11        6    13  20    2.7063   465.1    4.979      33.515
2015   11        6    13  27    2.7066   464.9    4.981      33.499
2015   11        6    13  34    2.7069   464.8    4.983      33.483
2015   11        6    13  41    2.7072   464.7    4.985      33.468
2015   11        6    13  49    2.7076   464.5    4.987      33.452
2015   11        6    13  56    2.7079   464.4    4.990      33.436
2015   11        6    14   3    2.7083   464.3    4.992      33.421
2015   11        6    14  10    2.7087   464.1    4.995      33.406
2015   11        6    14  17    2.7091   464.0    4.997      33.390
2015   11        6    14  24    2.7095   463.9    5.000      33.375
2015   11        6    14  32    2.7099   463.7    5.003      33.360
2015   11        6    14  39    2.7103   463.6    5.005      33.345
2015   11        6    14  46    2.7108   463.5    5.008      33.330
2015   11        6    14  53    2.7112   463.3    5.011      33.315
2015   11        6    15   0    2.7117   463.2    5.014      33.300
2015   11        6    15   7    2.7122   463.1    5.017      33.286
2015   11        6    15  15    2.7127   462.9    5.020      33.271
2015   11        6    15  22    2.7132   462.8    5.023      33.257
2015   11        6    15  29    2.7136   462.6    5.026      33.242
2015   11        6    15  36    2.7142   462.5    5.029      33.228
2015   11        6    15  43    2.7147   462.4    5.032      33.214
2015   11        6    15  50    2.7153   462.2    5.035      33.200
2015   11        6    15  58    2.7158   462.1    5.038      33.186
2015   11        6    16   5    2.7164   461.9    5.041      33.172
2015   11        6    16  12    2.7169   461.8    5.044      33.158
2015   11        6    16  19    2.7175   461.6    5.047      33.144
2015   11        6    16  26    2.7181   461.5    5.051      33.130
2015   11        6    16  33    2.7187   461.4    5.054      33.117
2015   11        6    16  41    2.7193   461.2    5.057      33.103
2015   11        6    16  48    2.7199   461.1    5.060      33.090
2015   11        6    16  55    2.7206   460.9    5.063      33.077
2015   11        6    17   2    2.7212   460.8    5.067      33.063
2015   11        6    17   9    2.7219   460.6    5.070      33.050
2015   11        6    17  16    2.7225   460.5    5.073      33.037
2015   11        6    17  24    2.7232   460.3    5.076      33.024
2015   11        6    17  31    2.7239   460.2    5.080      33.011
2015   11        6    17  38    2.7246   460.1    5.083      32.998
2015   11        6    17  45    2.7253   459.9    5.086      32.986
2015   11        6    17  52    2.7260   459.8    5.089      32.973
2015   11        6    18   0    2.7267   459.6    5.093      32.960
2015   11        6    18   7    2.7274   459.5    5.096      32.947
2015   11        6    18  14    2.7282   459.3    5.099      32.934
2015   11        6    18  21    2.7289   459.2    5.102      32.922
2015   11        6    18  28    2.7297   459.0    5.105      32.909
2015   11        6    18  35    2.7305   458.9    5.108      32.897
2015   11        6    18  43    2.7313   458.7    5.112      32.884
2015   11        6    18  50    2.7321   458.6    5.115      32.871
2015   11        6    18  57    2.7329   458.4    5.118      32.859
2015   11        6    19   4    2.7337   458.3    5.121      32.846
2015   11        6    19  11    2.7346   458.1    5.124      32.834
2015   11        6    19  18    2.7355   458.0    5.127      32.821
2015   11        6    19  26    2.7364   457.8    5.130      32.809
2015   11        6    19  33    2.7373   457.7    5.134      32.796
2015   11        6    19  40    2.7382   457.5    5.137      32.784
2015   11        6    19  47    2.7391   457.4    5.140      32.771
2015   11        6    19  54    2.7401   457.2    5.143      32.759
2015   11        6    20   1    2.7411   457.1    5.146      32.746
2015   11        6    20   9    2.7421   457.0    5.150      32.734
2015   11        6    20  16    2.7431   456.8    5.153      32.722
2015   11        6    20  23    2.7442   456.7    5.157      32.710
2015   11        6    20  30    2.7452   456.5    5.160      32.698
2015   11        6    20  37    2.7464   456.4    5.164      32.686
2015   11        6    20  44    2.7476   456.2    5.167      32.675
2015   11        6    20  52    2.7487   456.1    5.171      32.663
2015   11        6    20  59    2.7499   455.9    5.175      32.652
2015   11        6    21   6    2.7512   455.8    5.179      32.641
2015   11        6    21  13    2.7524   455.6    5.183      32.630
2015   11        6    21  20    2.7537   455.5    5.187      32.620
2015   11        6    21  27    2.7550   455.3    5.191      32.610
2015   11        6    21  34    2.7564   455.2    5.195      32.600
2015   11        6    21  42    2.7578   455.0    5.200      32.590
2015   11        6    21  49    2.7592   454.9    5.205      32.581
2015   11        6    21  56    2.7607   454.7    5.209      32.573
2015   11        6    22   3    2.7622   454.6    5.214      32.564
2015   11        6    22  10    2.7637   454.4    5.220      32.556
2015   11        6    22  17    2.7652   454.3    5.225      32.548
2015   11        6    22  25    2.7668   454.1    5.230      32.541
2015   11        6    22  32    2.7685   454.0    5.236      32.534
2015   11        6    22  39    2.7701   453.8    5.241      32.528
2015   11        6    22  46    2.7718   453.7    5.247      32.521
2015   11        6    22  53    2.7734   453.5    5.253      32.515
2015   11        6    23   0    2.7752   453.4    5.259      32.510
2015   11        6    23   8    2.7769   453.2    5.265      32.504
2015   11        6    23  15    2.7786   453.1    5.271      32.499
2015   11        6    23  22    2.7803   452.9    5.277      32.495
2015   11        6    23  29    2.7821   452.8    5.283      32.490
2015   11        6    23  36    2.7838   452.7    5.289      32.487
2015   11        6    23  43    2.7856   452.5    5.295      32.483
2015   11        6    23  51    2.7874   452.4    5.301      32.480
2015   11        6    23  58    2.7892   452.2    5.308      32.477
2015   11        7     0   5    2.7910   452.1    5.314      32.475
