year    month   day   hour  minute  B_enl V_enl   n_enl       T_enl
[year] [month] [day] [hour][minute] [nT]  [km/s]  [cm-3]      [kK]
2015   10        8     0   3    4.1849   564.0    5.771      63.106
2015   10        8     0  11    4.1723   564.6    5.727      62.911
2015   10        8     0  18    4.1601   565.2    5.685      62.731
2015   10        8     0  26    4.1481   565.9    5.645      62.565
2015   10        8     0  33    4.1363   566.5    5.606      62.406
2015   10        8     0  41    4.1246   567.1    5.568      62.257
2015   10        8     0  48    4.1130   567.8    5.530      62.113
2015   10        8     0  56    4.1015   568.4    5.494      61.973
2015   10        8     1   3    4.0902   569.0    5.459      61.833
2015   10        8     1  11    4.0789   569.5    5.424      61.696
2015   10        8     1  18    4.0678   570.1    5.390      61.561
2015   10        8     1  26    4.0568   570.6    5.358      61.428
2015   10        8     1  33    4.0460   571.1    5.327      61.300
2015   10        8     1  41    4.0355   571.6    5.297      61.178
2015   10        8     1  48    4.0252   572.0    5.268      61.060
2015   10        8     1  56    4.0151   572.5    5.240      60.947
2015   10        8     2   4    4.0052   572.9    5.214      60.840
2015   10        8     2  11    3.9956   573.3    5.189      60.737
2015   10        8     2  19    3.9862   573.7    5.164      60.639
2015   10        8     2  26    3.9770   574.1    5.141      60.547
2015   10        8     2  34    3.9680   574.5    5.119      60.458
2015   10        8     2  41    3.9591   574.9    5.098      60.375
2015   10        8     2  49    3.9505   575.2    5.077      60.295
2015   10        8     2  56    3.9420   575.5    5.057      60.219
2015   10        8     3   4    3.9336   575.9    5.038      60.147
2015   10        8     3  11    3.9254   576.2    5.020      60.078
2015   10        8     3  19    3.9173   576.5    5.002      60.012
2015   10        8     3  26    3.9093   576.8    4.985      59.949
2015   10        8     3  34    3.9014   577.1    4.968      59.888
2015   10        8     3  41    3.8935   577.4    4.952      59.830
2015   10        8     3  49    3.8857   577.7    4.936      59.773
2015   10        8     3  56    3.8779   578.1    4.920      59.717
2015   10        8     4   4    3.8701   578.4    4.905      59.661
2015   10        8     4  11    3.8624   578.7    4.889      59.606
2015   10        8     4  19    3.8545   579.0    4.873      59.550
2015   10        8     4  26    3.8467   579.3    4.858      59.491
2015   10        8     4  34    3.8388   579.6    4.842      59.431
2015   10        8     4  42    3.8309   579.9    4.827      59.369
2015   10        8     4  49    3.8229   580.2    4.811      59.302
2015   10        8     4  57    3.8148   580.5    4.796      59.231
2015   10        8     5   4    3.8067   580.7    4.780      59.156
2015   10        8     5  12    3.7986   580.9    4.766      59.078
2015   10        8     5  19    3.7904   581.2    4.751      59.002
2015   10        8     5  27    3.7822   581.4    4.738      58.928
2015   10        8     5  34    3.7741   581.6    4.724      58.858
2015   10        8     5  42    3.7660   581.7    4.712      58.790
2015   10        8     5  49    3.7580   581.9    4.700      58.724
2015   10        8     5  57    3.7500   582.1    4.688      58.662
2015   10        8     6   4    3.7421   582.3    4.676      58.601
2015   10        8     6  12    3.7343   582.4    4.665      58.542
2015   10        8     6  19    3.7266   582.6    4.654      58.484
2015   10        8     6  27    3.7189   582.7    4.643      58.427
2015   10        8     6  34    3.7113   582.9    4.633      58.371
2015   10        8     6  42    3.7038   583.0    4.623      58.315
2015   10        8     6  49    3.6964   583.1    4.613      58.258
2015   10        8     6  57    3.6891   583.3    4.603      58.203
2015   10        8     7   4    3.6819   583.4    4.593      58.150
2015   10        8     7  12    3.6747   583.6    4.584      58.097
2015   10        8     7  20    3.6677   583.8    4.575      58.045
2015   10        8     7  27    3.6607   584.0    4.566      57.994
2015   10        8     7  35    3.6539   584.2    4.557      57.946
2015   10        8     7  42    3.6470   584.4    4.548      57.900
2015   10        8     7  50    3.6404   584.6    4.539      57.856
2015   10        8     7  57    3.6336   584.8    4.530      57.814
2015   10        8     8   5    3.6271   585.0    4.521      57.772
2015   10        8     8  12    3.6205   585.2    4.511      57.730
2015   10        8     8  20    3.6141   585.4    4.501      57.687
2015   10        8     8  27    3.6076   585.6    4.491      57.642
2015   10        8     8  35    3.6013   585.8    4.481      57.598
2015   10        8     8  42    3.5950   586.0    4.471      57.553
2015   10        8     8  50    3.5888   586.2    4.461      57.507
2015   10        8     8  57    3.5827   586.4    4.451      57.461
2015   10        8     9   5    3.5768   586.6    4.441      57.415
2015   10        8     9  12    3.5709   586.8    4.431      57.369
2015   10        8     9  20    3.5651   587.0    4.421      57.324
2015   10        8     9  27    3.5594   587.2    4.411      57.279
2015   10        8     9  35    3.5537   587.4    4.401      57.234
2015   10        8     9  43    3.5482   587.6    4.391      57.191
2015   10        8     9  50    3.5427   587.8    4.381      57.147
2015   10        8     9  58    3.5372   588.0    4.371      57.105
2015   10        8    10   5    3.5318   588.2    4.362      57.063
2015   10        8    10  13    3.5265   588.4    4.352      57.022
2015   10        8    10  20    3.5213   588.6    4.343      56.982
2015   10        8    10  28    3.5160   588.8    4.334      56.943
2015   10        8    10  35    3.5109   589.0    4.324      56.904
2015   10        8    10  43    3.5058   589.2    4.315      56.868
2015   10        8    10  50    3.5007   589.4    4.306      56.832
2015   10        8    10  58    3.4957   589.6    4.298      56.798
2015   10        8    11   5    3.4907   589.8    4.289      56.764
2015   10        8    11  13    3.4857   589.9    4.281      56.732
2015   10        8    11  20    3.4808   590.1    4.273      56.701
2015   10        8    11  28    3.4759   590.3    4.265      56.671
2015   10        8    11  35    3.4710   590.5    4.257      56.641
2015   10        8    11  43    3.4662   590.7    4.249      56.613
2015   10        8    11  50    3.4615   590.9    4.242      56.585
2015   10        8    11  58    3.4567   591.0    4.235      56.559
2015   10        8    12   5    3.4520   591.2    4.228      56.535
2015   10        8    12  13    3.4474   591.4    4.221      56.511
2015   10        8    12  21    3.4429   591.6    4.215      56.489
2015   10        8    12  28    3.4383   591.7    4.208      56.469
2015   10        8    12  36    3.4339   591.9    4.202      56.450
2015   10        8    12  43    3.4295   592.0    4.196      56.433
2015   10        8    12  51    3.4252   592.2    4.190      56.418
2015   10        8    12  58    3.4209   592.4    4.185      56.403
2015   10        8    13   6    3.4166   592.5    4.179      56.390
2015   10        8    13  13    3.4124   592.7    4.174      56.378
2015   10        8    13  21    3.4082   592.8    4.168      56.367
2015   10        8    13  28    3.4041   593.0    4.163      56.356
2015   10        8    13  36    3.4000   593.2    4.158      56.345
2015   10        8    13  43    3.3959   593.3    4.152      56.333
2015   10        8    13  51    3.3918   593.5    4.147      56.321
2015   10        8    13  58    3.3877   593.6    4.141      56.307
2015   10        8    14   6    3.3837   593.8    4.136      56.294
2015   10        8    14  13    3.3797   594.0    4.130      56.280
2015   10        8    14  21    3.3757   594.1    4.125      56.265
2015   10        8    14  28    3.3717   594.3    4.120      56.250
2015   10        8    14  36    3.3678   594.4    4.114      56.236
2015   10        8    14  43    3.3638   594.6    4.109      56.221
2015   10        8    14  51    3.3599   594.7    4.103      56.206
2015   10        8    14  59    3.3559   594.9    4.098      56.192
2015   10        8    15   6    3.3520   595.1    4.092      56.177
2015   10        8    15  14    3.3480   595.2    4.087      56.164
2015   10        8    15  21    3.3441   595.4    4.081      56.150
2015   10        8    15  29    3.3401   595.6    4.075      56.136
2015   10        8    15  36    3.3361   595.7    4.069      56.121
2015   10        8    15  44    3.3322   595.9    4.063      56.106
2015   10        8    15  51    3.3282   596.0    4.057      56.090
2015   10        8    15  59    3.3243   596.2    4.051      56.073
2015   10        8    16   6    3.3204   596.3    4.045      56.056
2015   10        8    16  14    3.3165   596.5    4.039      56.038
2015   10        8    16  21    3.3126   596.7    4.033      56.021
2015   10        8    16  29    3.3087   596.8    4.026      56.003
2015   10        8    16  36    3.3048   597.0    4.020      55.986
2015   10        8    16  44    3.3010   597.1    4.014      55.968
2015   10        8    16  51    3.2972   597.3    4.008      55.950
2015   10        8    16  59    3.2934   597.4    4.002      55.932
2015   10        8    17   6    3.2896   597.6    3.996      55.914
2015   10        8    17  14    3.2859   597.7    3.989      55.897
2015   10        8    17  22    3.2822   597.9    3.983      55.879
2015   10        8    17  29    3.2784   598.0    3.977      55.861
2015   10        8    17  37    3.2748   598.2    3.971      55.844
2015   10        8    17  44    3.2711   598.3    3.965      55.827
2015   10        8    17  52    3.2674   598.5    3.959      55.809
2015   10        8    17  59    3.2638   598.6    3.953      55.792
2015   10        8    18   7    3.2602   598.8    3.947      55.775
2015   10        8    18  14    3.2566   598.9    3.941      55.759
2015   10        8    18  22    3.2530   599.1    3.935      55.742
2015   10        8    18  29    3.2494   599.2    3.930      55.727
2015   10        8    18  37    3.2459   599.4    3.924      55.711
2015   10        8    18  44    3.2424   599.5    3.918      55.695
2015   10        8    18  52    3.2389   599.7    3.913      55.680
2015   10        8    18  59    3.2354   599.8    3.907      55.666
2015   10        8    19   7    3.2319   600.0    3.902      55.651
2015   10        8    19  14    3.2285   600.1    3.896      55.638
2015   10        8    19  22    3.2251   600.3    3.891      55.625
2015   10        8    19  29    3.2217   600.4    3.886      55.612
2015   10        8    19  37    3.2184   600.6    3.881      55.601
2015   10        8    19  44    3.2151   600.7    3.876      55.590
2015   10        8    19  52    3.2119   600.8    3.871      55.579
2015   10        8    19  59    3.2086   601.0    3.866      55.570
2015   10        8    20   7    3.2054   601.1    3.862      55.561
2015   10        8    20  15    3.2023   601.3    3.857      55.552
2015   10        8    20  22    3.1991   601.4    3.853      55.545
2015   10        8    20  30    3.1960   601.6    3.848      55.537
2015   10        8    20  37    3.1929   601.7    3.844      55.531
2015   10        8    20  45    3.1898   601.8    3.840      55.524
2015   10        8    20  52    3.1867   602.0    3.836      55.518
2015   10        8    21   0    3.1837   602.1    3.832      55.512
2015   10        8    21   7    3.1806   602.3    3.828      55.507
2015   10        8    21  15    3.1774   602.4    3.824      55.501
2015   10        8    21  22    3.1743   602.6    3.820      55.495
2015   10        8    21  30    3.1712   602.7    3.816      55.489
2015   10        8    21  37    3.1681   602.8    3.812      55.483
2015   10        8    21  45    3.1649   603.0    3.809      55.477
2015   10        8    21  52    3.1618   603.1    3.805      55.471
2015   10        8    22   0    3.1586   603.3    3.801      55.464
2015   10        8    22   7    3.1554   603.4    3.797      55.457
2015   10        8    22  15    3.1522   603.6    3.793      55.450
2015   10        8    22  22    3.1490   603.7    3.789      55.442
2015   10        8    22  30    3.1458   603.9    3.785      55.435
2015   10        8    22  38    3.1425   604.0    3.780      55.429
2015   10        8    22  45    3.1393   604.2    3.776      55.421
2015   10        8    22  53    3.1360   604.3    3.772      55.412
2015   10        8    23   0    3.1327   604.5    3.767      55.403
2015   10        8    23   8    3.1294   604.6    3.762      55.391
2015   10        8    23  15    3.1260   604.8    3.757      55.379
2015   10        8    23  23    3.1227   604.9    3.752      55.366
2015   10        8    23  30    3.1193   605.1    3.747      55.352
2015   10        8    23  38    3.1160   605.2    3.742      55.338
2015   10        8    23  45    3.1126   605.4    3.737      55.322
2015   10        8    23  53    3.1093   605.5    3.731      55.306
2015   10        9     0   0    3.1059   605.6    3.726      55.290
2015   10        9     0   8    3.1026   605.8    3.721      55.272
2015   10        9     0  15    3.0992   605.9    3.715      55.254
2015   10        9     0  23    3.0958   606.0    3.710      55.235
2015   10        9     0  30    3.0925   606.2    3.704      55.216
2015   10        9     0  38    3.0891   606.3    3.698      55.196
2015   10        9     0  45    3.0857   606.4    3.693      55.175
2015   10        9     0  53    3.0824   606.6    3.687      55.154
2015   10        9     1   0    3.0790   606.7    3.681      55.132
2015   10        9     1   8    3.0756   606.8    3.675      55.110
2015   10        9     1  16    3.0723   607.0    3.669      55.087
2015   10        9     1  23    3.0689   607.1    3.664      55.064
2015   10        9     1  31    3.0655   607.2    3.658      55.040
2015   10        9     1  38    3.0622   607.3    3.652      55.015
2015   10        9     1  46    3.0589   607.4    3.646      54.990
2015   10        9     1  53    3.0555   607.6    3.640      54.965
2015   10        9     2   1    3.0522   607.7    3.634      54.940
2015   10        9     2   8    3.0489   607.8    3.628      54.914
2015   10        9     2  16    3.0456   607.9    3.622      54.888
2015   10        9     2  23    3.0423   608.0    3.616      54.862
2015   10        9     2  31    3.0391   608.1    3.610      54.837
2015   10        9     2  38    3.0359   608.2    3.605      54.812
2015   10        9     2  46    3.0327   608.3    3.599      54.788
2015   10        9     2  53    3.0295   608.4    3.594      54.765
2015   10        9     3   1    3.0265   608.5    3.588      54.742
2015   10        9     3   8    3.0234   608.6    3.583      54.721
2015   10        9     3  16    3.0203   608.7    3.579      54.702
2015   10        9     3  23    3.0173   608.8    3.574      54.683
2015   10        9     3  31    3.0144   608.9    3.569      54.666
2015   10        9     3  38    3.0114   609.0    3.565      54.650
2015   10        9     3  46    3.0085   609.1    3.561      54.635
2015   10        9     3  54    3.0055   609.2    3.557      54.620
2015   10        9     4   1    3.0025   609.3    3.553      54.606
2015   10        9     4   9    2.9995   609.4    3.549      54.592
2015   10        9     4  16    2.9965   609.5    3.545      54.577
2015   10        9     4  24    2.9934   609.6    3.541      54.561
2015   10        9     4  31    2.9904   609.7    3.537      54.545
2015   10        9     4  39    2.9873   609.8    3.533      54.528
2015   10        9     4  46    2.9841   609.9    3.529      54.511
2015   10        9     4  54    2.9810   610.0    3.525      54.492
2015   10        9     5   1    2.9778   610.2    3.521      54.473
2015   10        9     5   9    2.9746   610.3    3.516      54.452
2015   10        9     5  16    2.9714   610.4    3.512      54.430
2015   10        9     5  24    2.9682   610.5    3.507      54.407
2015   10        9     5  31    2.9649   610.6    3.503      54.384
2015   10        9     5  39    2.9617   610.7    3.498      54.359
2015   10        9     5  46    2.9584   610.8    3.493      54.334
2015   10        9     5  54    2.9551   610.9    3.489      54.308
2015   10        9     6   1    2.9518   611.0    3.484      54.281
2015   10        9     6   9    2.9485   611.1    3.479      54.254
2015   10        9     6  16    2.9452   611.2    3.474      54.226
2015   10        9     6  24    2.9419   611.3    3.469      54.197
2015   10        9     6  32    2.9386   611.4    3.464      54.168
2015   10        9     6  39    2.9352   611.5    3.460      54.138
2015   10        9     6  47    2.9319   611.6    3.455      54.108
2015   10        9     6  54    2.9285   611.7    3.450      54.077
2015   10        9     7   2    2.9252   611.7    3.445      54.046
2015   10        9     7   9    2.9218   611.8    3.440      54.014
2015   10        9     7  17    2.9185   611.9    3.435      53.983
2015   10        9     7  24    2.9151   612.0    3.430      53.951
2015   10        9     7  32    2.9118   612.1    3.425      53.919
2015   10        9     7  39    2.9084   612.2    3.420      53.888
2015   10        9     7  47    2.9051   612.2    3.415      53.856
2015   10        9     7  54    2.9017   612.3    3.410      53.824
2015   10        9     8   2    2.8984   612.4    3.405      53.792
2015   10        9     8   9    2.8950   612.4    3.400      53.759
2015   10        9     8  17    2.8917   612.5    3.395      53.727
2015   10        9     8  24    2.8883   612.6    3.389      53.694
2015   10        9     8  32    2.8850   612.6    3.384      53.660
2015   10        9     8  39    2.8816   612.7    3.379      53.627
2015   10        9     8  47    2.8783   612.8    3.374      53.593
2015   10        9     8  54    2.8749   612.8    3.369      53.558
2015   10        9     9   2    2.8716   612.9    3.364      53.524
2015   10        9     9   9    2.8683   612.9    3.359      53.489
2015   10        9     9  17    2.8650   613.0    3.353      53.454
2015   10        9     9  25    2.8617   613.0    3.348      53.418
2015   10        9     9  32    2.8584   613.1    3.343      53.383
2015   10        9     9  40    2.8551   613.1    3.338      53.348
2015   10        9     9  47    2.8519   613.1    3.334      53.313
2015   10        9     9  55    2.8487   613.2    3.329      53.279
2015   10        9    10   2    2.8455   613.2    3.324      53.246
2015   10        9    10  10    2.8423   613.2    3.320      53.214
2015   10        9    10  17    2.8392   613.3    3.315      53.182
2015   10        9    10  25    2.8361   613.3    3.311      53.152
2015   10        9    10  32    2.8331   613.4    3.307      53.123
2015   10        9    10  40    2.8300   613.4    3.304      53.095
2015   10        9    10  47    2.8270   613.4    3.300      53.068
2015   10        9    10  55    2.8239   613.5    3.296      53.041
2015   10        9    11   2    2.8208   613.5    3.293      53.015
2015   10        9    11  10    2.8177   613.6    3.289      52.989
2015   10        9    11  17    2.8145   613.6    3.286      52.962
2015   10        9    11  25    2.8113   613.7    3.282      52.934
2015   10        9    11  32    2.8081   613.7    3.279      52.905
2015   10        9    11  40    2.8049   613.8    3.275      52.874
2015   10        9    11  47    2.8016   613.8    3.271      52.843
2015   10        9    11  55    2.7982   613.9    3.267      52.809
2015   10        9    12   3    2.7949   613.9    3.264      52.775
2015   10        9    12  10    2.7916   613.9    3.260      52.740
2015   10        9    12  18    2.7882   614.0    3.256      52.704
2015   10        9    12  25    2.7849   614.0    3.252      52.666
2015   10        9    12  33    2.7815   614.0    3.247      52.629
2015   10        9    12  40    2.7781   614.1    3.243      52.590
2015   10        9    12  48    2.7747   614.1    3.239      52.551
2015   10        9    12  55    2.7713   614.1    3.235      52.511
2015   10        9    13   3    2.7679   614.1    3.231      52.471
2015   10        9    13  10    2.7645   614.2    3.226      52.430
2015   10        9    13  18    2.7612   614.2    3.222      52.388
2015   10        9    13  25    2.7578   614.2    3.218      52.346
2015   10        9    13  33    2.7544   614.2    3.214      52.304
2015   10        9    13  40    2.7510   614.3    3.209      52.262
2015   10        9    13  48    2.7477   614.3    3.205      52.219
2015   10        9    13  55    2.7443   614.3    3.201      52.176
2015   10        9    14   3    2.7409   614.3    3.197      52.133
2015   10        9    14  10    2.7376   614.3    3.192      52.090
2015   10        9    14  18    2.7342   614.3    3.188      52.047
2015   10        9    14  25    2.7309   614.3    3.184      52.004
2015   10        9    14  33    2.7276   614.3    3.180      51.961
2015   10        9    14  41    2.7243   614.3    3.175      51.918
2015   10        9    14  48    2.7210   614.3    3.171      51.876
2015   10        9    14  56    2.7177   614.3    3.167      51.833
2015   10        9    15   3    2.7144   614.3    3.163      51.791
2015   10        9    15  11    2.7111   614.3    3.159      51.748
2015   10        9    15  18    2.7079   614.3    3.155      51.706
2015   10        9    15  26    2.7046   614.3    3.151      51.663
2015   10        9    15  33    2.7013   614.3    3.147      51.620
2015   10        9    15  41    2.6981   614.3    3.143      51.576
2015   10        9    15  48    2.6948   614.3    3.139      51.532
2015   10        9    15  56    2.6916   614.2    3.135      51.488
2015   10        9    16   3    2.6883   614.2    3.131      51.443
2015   10        9    16  11    2.6850   614.2    3.127      51.396
2015   10        9    16  18    2.6818   614.2    3.123      51.349
2015   10        9    16  26    2.6785   614.1    3.119      51.302
2015   10        9    16  33    2.6753   614.1    3.115      51.254
2015   10        9    16  41    2.6721   614.1    3.111      51.206
2015   10        9    16  48    2.6688   614.0    3.107      51.157
2015   10        9    16  56    2.6656   614.0    3.103      51.108
2015   10        9    17   3    2.6624   614.0    3.099      51.059
2015   10        9    17  11    2.6592   613.9    3.095      51.010
2015   10        9    17  18    2.6559   613.9    3.091      50.962
2015   10        9    17  26    2.6527   613.9    3.087      50.913
2015   10        9    17  33    2.6496   613.8    3.083      50.864
2015   10        9    17  41    2.6463   613.8    3.079      50.815
2015   10        9    17  49    2.6432   613.8    3.075      50.767
2015   10        9    17  56    2.6399   613.7    3.072      50.718
2015   10        9    18   4    2.6368   613.7    3.068      50.670
2015   10        9    18  11    2.6335   613.7    3.065      50.622
2015   10        9    18  19    2.6303   613.6    3.061      50.575
2015   10        9    18  26    2.6270   613.6    3.058      50.527
2015   10        9    18  34    2.6237   613.5    3.055      50.479
2015   10        9    18  41    2.6204   613.5    3.051      50.432
2015   10        9    18  49    2.6171   613.5    3.048      50.385
2015   10        9    18  56    2.6138   613.4    3.045      50.339
2015   10        9    19   4    2.6105   613.4    3.042      50.292
2015   10        9    19  11    2.6071   613.3    3.039      50.247
2015   10        9    19  19    2.6038   613.3    3.036      50.201
2015   10        9    19  26    2.6004   613.2    3.034      50.156
2015   10        9    19  34    2.5971   613.2    3.031      50.112
2015   10        9    19  41    2.5938   613.1    3.029      50.069
2015   10        9    19  49    2.5905   613.1    3.026      50.026
2015   10        9    19  56    2.5872   613.0    3.024      49.983
2015   10        9    20   4    2.5839   613.0    3.021      49.942
2015   10        9    20  11    2.5806   612.9    3.019      49.901
2015   10        9    20  19    2.5774   612.8    3.017      49.860
2015   10        9    20  27    2.5741   612.8    3.014      49.820
2015   10        9    20  34    2.5709   612.7    3.012      49.780
2015   10        9    20  42    2.5676   612.7    3.010      49.740
2015   10        9    20  49    2.5644   612.6    3.007      49.701
2015   10        9    20  57    2.5612   612.5    3.005      49.661
2015   10        9    21   4    2.5580   612.5    3.002      49.621
2015   10        9    21  12    2.5548   612.4    3.000      49.579
2015   10        9    21  19    2.5516   612.3    2.997      49.538
2015   10        9    21  27    2.5484   612.3    2.995      49.495
2015   10        9    21  34    2.5452   612.2    2.992      49.452
2015   10        9    21  42    2.5420   612.1    2.989      49.408
2015   10        9    21  49    2.5388   612.1    2.987      49.364
2015   10        9    21  57    2.5356   612.0    2.984      49.319
2015   10        9    22   4    2.5324   611.9    2.981      49.274
2015   10        9    22  12    2.5292   611.8    2.978      49.228
2015   10        9    22  19    2.5260   611.8    2.975      49.181
2015   10        9    22  27    2.5228   611.7    2.973      49.134
2015   10        9    22  34    2.5196   611.6    2.970      49.086
2015   10        9    22  42    2.5164   611.5    2.967      49.037
2015   10        9    22  49    2.5131   611.4    2.964      48.987
2015   10        9    22  57    2.5099   611.3    2.961      48.936
2015   10        9    23   4    2.5067   611.2    2.958      48.885
2015   10        9    23  12    2.5034   611.2    2.955      48.831
2015   10        9    23  20    2.5001   611.1    2.952      48.777
2015   10        9    23  27    2.4969   611.0    2.949      48.722
2015   10        9    23  35    2.4936   610.9    2.945      48.666
2015   10        9    23  42    2.4903   610.8    2.942      48.608
2015   10        9    23  50    2.4870   610.7    2.939      48.550
2015   10        9    23  57    2.4837   610.6    2.935      48.490
2015   10       10     0   5    2.4804   610.5    2.932      48.430
2015   10       10     0  12    2.4771   610.3    2.928      48.369
2015   10       10     0  20    2.4738   610.2    2.925      48.308
2015   10       10     0  27    2.4705   610.1    2.921      48.245
2015   10       10     0  35    2.4671   610.0    2.918      48.181
2015   10       10     0  42    2.4638   609.9    2.914      48.117
2015   10       10     0  50    2.4605   609.8    2.911      48.053
2015   10       10     0  57    2.4571   609.7    2.907      47.987
2015   10       10     1   5    2.4538   609.6    2.903      47.921
2015   10       10     1  12    2.4504   609.4    2.899      47.854
2015   10       10     1  20    2.4471   609.3    2.896      47.787
2015   10       10     1  27    2.4437   609.2    2.892      47.719
2015   10       10     1  35    2.4403   609.1    2.888      47.650
2015   10       10     1  42    2.4370   608.9    2.885      47.582
2015   10       10     1  50    2.4336   608.8    2.881      47.513
2015   10       10     1  57    2.4303   608.7    2.877      47.444
2015   10       10     2   5    2.4269   608.5    2.874      47.376
2015   10       10     2  13    2.4236   608.4    2.870      47.308
2015   10       10     2  20    2.4203   608.2    2.867      47.241
2015   10       10     2  28    2.4170   608.1    2.864      47.175
2015   10       10     2  35    2.4137   607.9    2.861      47.110
2015   10       10     2  43    2.4105   607.7    2.858      47.046
2015   10       10     2  50    2.4073   607.6    2.856      46.985
2015   10       10     2  58    2.4041   607.4    2.853      46.925
2015   10       10     3   5    2.4009   607.3    2.851      46.867
2015   10       10     3  13    2.3978   607.1    2.849      46.811
2015   10       10     3  20    2.3948   606.9    2.847      46.757
2015   10       10     3  28    2.3917   606.8    2.846      46.706
2015   10       10     3  35    2.3887   606.6    2.844      46.656
2015   10       10     3  43    2.3857   606.5    2.843      46.607
2015   10       10     3  50    2.3827   606.3    2.842      46.561
2015   10       10     3  58    2.3798   606.1    2.841      46.515
2015   10       10     4   5    2.3769   606.0    2.839      46.471
2015   10       10     4  13    2.3739   605.8    2.838      46.426
2015   10       10     4  20    2.3710   605.6    2.837      46.382
2015   10       10     4  28    2.3681   605.5    2.836      46.337
2015   10       10     4  35    2.3653   605.3    2.834      46.292
2015   10       10     4  43    2.3624   605.1    2.833      46.246
2015   10       10     4  50    2.3595   605.0    2.831      46.199
2015   10       10     4  58    2.3566   604.8    2.830      46.150
2015   10       10     5   6    2.3537   604.6    2.828      46.101
2015   10       10     5  13    2.3508   604.4    2.827      46.050
2015   10       10     5  21    2.3479   604.3    2.825      45.999
2015   10       10     5  28    2.3450   604.1    2.823      45.947
2015   10       10     5  36    2.3421   603.9    2.821      45.895
2015   10       10     5  43    2.3392   603.7    2.819      45.841
2015   10       10     5  51    2.3362   603.6    2.817      45.787
2015   10       10     5  58    2.3333   603.4    2.815      45.732
2015   10       10     6   6    2.3303   603.2    2.813      45.676
2015   10       10     6  13    2.3274   603.0    2.811      45.619
2015   10       10     6  21    2.3244   602.9    2.809      45.562
2015   10       10     6  28    2.3214   602.7    2.807      45.503
2015   10       10     6  36    2.3184   602.5    2.804      45.444
2015   10       10     6  43    2.3155   602.3    2.802      45.383
2015   10       10     6  51    2.3125   602.1    2.800      45.322
2015   10       10     6  58    2.3095   601.9    2.797      45.260
2015   10       10     7   6    2.3065   601.7    2.795      45.197
2015   10       10     7  13    2.3035   601.5    2.793      45.133
2015   10       10     7  21    2.3005   601.3    2.790      45.068
2015   10       10     7  28    2.2976   601.1    2.787      45.001
2015   10       10     7  36    2.2946   600.9    2.785      44.934
2015   10       10     7  43    2.2916   600.7    2.782      44.866
2015   10       10     7  51    2.2886   600.5    2.779      44.797
2015   10       10     7  58    2.2857   600.3    2.777      44.727
2015   10       10     8   6    2.2827   600.1    2.774      44.657
2015   10       10     8  14    2.2798   599.9    2.771      44.585
2015   10       10     8  21    2.2769   599.7    2.768      44.513
2015   10       10     8  29    2.2740   599.5    2.765      44.439
2015   10       10     8  36    2.2711   599.3    2.762      44.365
2015   10       10     8  44    2.2682   599.1    2.759      44.291
2015   10       10     8  51    2.2653   598.9    2.756      44.215
2015   10       10     8  59    2.2624   598.6    2.753      44.139
2015   10       10     9   6    2.2596   598.4    2.750      44.063
2015   10       10     9  14    2.2568   598.2    2.747      43.986
2015   10       10     9  21    2.2540   598.0    2.744      43.909
2015   10       10     9  29    2.2512   597.7    2.741      43.832
2015   10       10     9  36    2.2484   597.5    2.739      43.755
2015   10       10     9  44    2.2456   597.3    2.736      43.678
2015   10       10     9  51    2.2429   597.0    2.733      43.602
2015   10       10     9  59    2.2402   596.8    2.731      43.526
2015   10       10    10   6    2.2375   596.5    2.728      43.451
2015   10       10    10  14    2.2349   596.3    2.726      43.377
2015   10       10    10  21    2.2323   596.0    2.724      43.303
2015   10       10    10  29    2.2296   595.8    2.722      43.231
2015   10       10    10  36    2.2271   595.6    2.720      43.160
2015   10       10    10  44    2.2245   595.3    2.718      43.090
2015   10       10    10  52    2.2219   595.1    2.717      43.022
2015   10       10    10  59    2.2194   594.8    2.715      42.955
2015   10       10    11   7    2.2169   594.6    2.714      42.888
2015   10       10    11  14    2.2144   594.3    2.713      42.823
2015   10       10    11  22    2.2119   594.1    2.712      42.759
2015   10       10    11  29    2.2094   593.8    2.711      42.696
2015   10       10    11  37    2.2069   593.6    2.710      42.633
2015   10       10    11  44    2.2044   593.3    2.709      42.571
2015   10       10    11  52    2.2019   593.0    2.708      42.509
2015   10       10    11  59    2.1994   592.8    2.708      42.447
2015   10       10    12   7    2.1969   592.5    2.707      42.386
2015   10       10    12  14    2.1944   592.3    2.706      42.324
2015   10       10    12  22    2.1918   592.0    2.705      42.263
2015   10       10    12  29    2.1893   591.7    2.705      42.201
2015   10       10    12  37    2.1867   591.5    2.704      42.140
2015   10       10    12  44    2.1842   591.2    2.703      42.078
2015   10       10    12  52    2.1816   591.0    2.703      42.016
2015   10       10    12  59    2.1790   590.7    2.702      41.953
2015   10       10    13   7    2.1764   590.4    2.701      41.891
2015   10       10    13  14    2.1738   590.2    2.701      41.827
2015   10       10    13  22    2.1712   589.9    2.700      41.764
2015   10       10    13  29    2.1686   589.6    2.699      41.700
2015   10       10    13  37    2.1660   589.4    2.698      41.636
2015   10       10    13  44    2.1634   589.1    2.698      41.571
2015   10       10    13  52    2.1608   588.8    2.697      41.506
2015   10       10    13  59    2.1581   588.5    2.696      41.441
2015   10       10    14   7    2.1555   588.2    2.695      41.375
2015   10       10    14  15    2.1529   588.0    2.695      41.309
2015   10       10    14  22    2.1503   587.7    2.694      41.243
2015   10       10    14  30    2.1477   587.4    2.693      41.176
2015   10       10    14  37    2.1451   587.1    2.692      41.110
2015   10       10    14  45    2.1425   586.8    2.692      41.043
2015   10       10    14  52    2.1399   586.5    2.691      40.976
2015   10       10    15   0    2.1374   586.2    2.690      40.908
2015   10       10    15   7    2.1348   585.9    2.690      40.841
2015   10       10    15  15    2.1323   585.6    2.689      40.774
2015   10       10    15  22    2.1297   585.3    2.688      40.707
2015   10       10    15  30    2.1272   585.0    2.688      40.639
2015   10       10    15  37    2.1247   584.7    2.687      40.571
2015   10       10    15  45    2.1222   584.4    2.687      40.503
2015   10       10    15  52    2.1197   584.1    2.686      40.435
2015   10       10    16   0    2.1172   583.8    2.685      40.367
2015   10       10    16   7    2.1147   583.5    2.685      40.298
2015   10       10    16  15    2.1122   583.2    2.684      40.228
2015   10       10    16  22    2.1096   582.9    2.683      40.159
2015   10       10    16  30    2.1071   582.6    2.683      40.089
2015   10       10    16  37    2.1047   582.2    2.682      40.019
2015   10       10    16  45    2.1022   581.9    2.681      39.948
2015   10       10    16  52    2.0997   581.6    2.681      39.877
2015   10       10    17   0    2.0973   581.3    2.680      39.805
2015   10       10    17   8    2.0948   580.9    2.679      39.734
2015   10       10    17  15    2.0924   580.6    2.678      39.663
2015   10       10    17  23    2.0900   580.3    2.678      39.593
2015   10       10    17  30    2.0876   579.9    2.677      39.522
2015   10       10    17  38    2.0853   579.6    2.676      39.452
2015   10       10    17  45    2.0829   579.3    2.676      39.383
2015   10       10    17  53    2.0806   578.9    2.675      39.314
2015   10       10    18   0    2.0783   578.6    2.675      39.246
2015   10       10    18   8    2.0760   578.3    2.674      39.179
2015   10       10    18  15    2.0738   577.9    2.674      39.112
2015   10       10    18  23    2.0715   577.6    2.673      39.046
2015   10       10    18  30    2.0693   577.3    2.673      38.981
2015   10       10    18  38    2.0671   576.9    2.673      38.916
2015   10       10    18  45    2.0649   576.6    2.673      38.852
2015   10       10    18  53    2.0627   576.3    2.672      38.788
2015   10       10    19   0    2.0605   575.9    2.672      38.724
2015   10       10    19   8    2.0583   575.6    2.672      38.660
2015   10       10    19  15    2.0561   575.3    2.672      38.596
2015   10       10    19  23    2.0539   574.9    2.672      38.532
2015   10       10    19  30    2.0517   574.6    2.671      38.468
2015   10       10    19  38    2.0495   574.2    2.671      38.404
2015   10       10    19  45    2.0473   573.9    2.671      38.339
2015   10       10    19  53    2.0451   573.5    2.671      38.274
2015   10       10    20   1    2.0429   573.2    2.670      38.209
2015   10       10    20   8    2.0407   572.9    2.670      38.145
2015   10       10    20  16    2.0385   572.5    2.670      38.079
2015   10       10    20  23    2.0364   572.2    2.669      38.014
2015   10       10    20  31    2.0342   571.8    2.669      37.948
2015   10       10    20  38    2.0320   571.5    2.668      37.882
2015   10       10    20  46    2.0298   571.1    2.668      37.816
2015   10       10    20  53    2.0276   570.8    2.667      37.750
2015   10       10    21   1    2.0255   570.4    2.667      37.683
2015   10       10    21   8    2.0233   570.1    2.667      37.616
2015   10       10    21  16    2.0211   569.7    2.666      37.548
2015   10       10    21  23    2.0189   569.4    2.666      37.481
2015   10       10    21  31    2.0168   569.0    2.665      37.413
2015   10       10    21  38    2.0146   568.7    2.665      37.346
2015   10       10    21  46    2.0125   568.3    2.664      37.278
2015   10       10    21  53    2.0103   568.0    2.664      37.210
2015   10       10    22   1    2.0082   567.6    2.663      37.142
2015   10       10    22   8    2.0061   567.3    2.663      37.075
2015   10       10    22  16    2.0040   566.9    2.662      37.007
2015   10       10    22  23    2.0019   566.5    2.662      36.940
2015   10       10    22  31    1.9998   566.2    2.662      36.873
2015   10       10    22  38    1.9977   565.8    2.662      36.807
2015   10       10    22  46    1.9957   565.5    2.661      36.741
2015   10       10    22  53    1.9936   565.1    2.661      36.676
2015   10       10    23   1    1.9916   564.7    2.661      36.611
2015   10       10    23   8    1.9896   564.4    2.661      36.546
2015   10       10    23  16    1.9876   564.0    2.661      36.481
2015   10       10    23  24    1.9856   563.6    2.661      36.418
2015   10       10    23  31    1.9837   563.3    2.661      36.354
2015   10       10    23  39    1.9817   562.9    2.661      36.291
2015   10       10    23  46    1.9798   562.5    2.661      36.227
2015   10       10    23  54    1.9778   562.2    2.661      36.164
2015   10       11     0   1    1.9759   561.8    2.661      36.101
2015   10       11     0   9    1.9740   561.4    2.662      36.038
2015   10       11     0  16    1.9720   561.1    2.662      35.974
2015   10       11     0  24    1.9701   560.7    2.662      35.911
2015   10       11     0  31    1.9682   560.3    2.662      35.847
2015   10       11     0  39    1.9663   559.9    2.662      35.783
2015   10       11     0  46    1.9644   559.5    2.662      35.720
2015   10       11     0  54    1.9625   559.2    2.663      35.657
2015   10       11     1   1    1.9606   558.8    2.663      35.593
2015   10       11     1   9    1.9587   558.4    2.663      35.531
2015   10       11     1  16    1.9568   558.0    2.664      35.468
2015   10       11     1  24    1.9549   557.6    2.664      35.406
2015   10       11     1  31    1.9531   557.2    2.665      35.344
2015   10       11     1  39    1.9512   556.8    2.665      35.282
2015   10       11     1  46    1.9494   556.5    2.665      35.220
2015   10       11     1  54    1.9475   556.1    2.666      35.158
2015   10       11     2   1    1.9457   555.7    2.666      35.096
2015   10       11     2   9    1.9439   555.3    2.667      35.034
2015   10       11     2  17    1.9421   554.9    2.667      34.972
2015   10       11     2  24    1.9402   554.5    2.668      34.910
2015   10       11     2  32    1.9384   554.1    2.668      34.847
2015   10       11     2  39    1.9366   553.7    2.668      34.785
2015   10       11     2  47    1.9348   553.3    2.669      34.721
2015   10       11     2  54    1.9330   552.9    2.669      34.658
2015   10       11     3   2    1.9312   552.5    2.669      34.595
2015   10       11     3   9    1.9294   552.1    2.669      34.531
2015   10       11     3  17    1.9276   551.7    2.670      34.467
2015   10       11     3  24    1.9259   551.3    2.670      34.403
2015   10       11     3  32    1.9241   550.9    2.670      34.338
2015   10       11     3  39    1.9223   550.5    2.670      34.274
2015   10       11     3  47    1.9206   550.1    2.670      34.209
2015   10       11     3  54    1.9188   549.7    2.670      34.144
2015   10       11     4   2    1.9171   549.3    2.670      34.078
2015   10       11     4   9    1.9154   548.9    2.670      34.013
2015   10       11     4  17    1.9137   548.5    2.670      33.948
2015   10       11     4  24    1.9120   548.1    2.670      33.882
2015   10       11     4  32    1.9103   547.7    2.670      33.817
2015   10       11     4  39    1.9086   547.3    2.670      33.751
2015   10       11     4  47    1.9069   546.9    2.670      33.685
2015   10       11     4  54    1.9053   546.5    2.670      33.620
2015   10       11     5   2    1.9036   546.1    2.670      33.554
2015   10       11     5   9    1.9020   545.7    2.670      33.488
2015   10       11     5  17    1.9004   545.3    2.670      33.422
2015   10       11     5  24    1.8987   544.9    2.670      33.356
2015   10       11     5  32    1.8971   544.5    2.670      33.290
2015   10       11     5  39    1.8955   544.1    2.670      33.224
2015   10       11     5  47    1.8939   543.6    2.671      33.158
2015   10       11     5  55    1.8923   543.2    2.671      33.092
2015   10       11     6   2    1.8907   542.8    2.671      33.025
2015   10       11     6  10    1.8892   542.4    2.671      32.958
2015   10       11     6  17    1.8876   542.0    2.671      32.892
2015   10       11     6  25    1.8860   541.6    2.671      32.825
2015   10       11     6  32    1.8845   541.1    2.671      32.758
2015   10       11     6  40    1.8829   540.7    2.672      32.691
2015   10       11     6  47    1.8814   540.3    2.672      32.625
2015   10       11     6  55    1.8799   539.9    2.672      32.559
2015   10       11     7   2    1.8784   539.4    2.673      32.493
2015   10       11     7  10    1.8769   539.0    2.673      32.427
2015   10       11     7  17    1.8754   538.6    2.674      32.362
2015   10       11     7  25    1.8740   538.1    2.674      32.298
2015   10       11     7  32    1.8726   537.7    2.675      32.234
2015   10       11     7  40    1.8712   537.3    2.676      32.171
2015   10       11     7  47    1.8698   536.8    2.677      32.108
2015   10       11     7  55    1.8684   536.4    2.678      32.047
2015   10       11     8   2    1.8671   535.9    2.679      31.986
2015   10       11     8  10    1.8658   535.5    2.680      31.926
2015   10       11     8  17    1.8645   535.0    2.681      31.867
2015   10       11     8  25    1.8632   534.6    2.683      31.809
2015   10       11     8  32    1.8620   534.1    2.684      31.751
2015   10       11     8  40    1.8607   533.7    2.686      31.695
2015   10       11     8  48    1.8595   533.2    2.687      31.638
2015   10       11     8  55    1.8583   532.8    2.689      31.583
2015   10       11     9   3    1.8571   532.3    2.691      31.527
2015   10       11     9  10    1.8559   531.9    2.693      31.473
2015   10       11     9  18    1.8548   531.4    2.695      31.418
2015   10       11     9  25    1.8536   531.0    2.697      31.364
2015   10       11     9  33    1.8524   530.5    2.699      31.311
2015   10       11     9  40    1.8513   530.1    2.701      31.257
2015   10       11     9  48    1.8501   529.6    2.703      31.204
2015   10       11     9  55    1.8490   529.2    2.705      31.151
2015   10       11    10   3    1.8479   528.7    2.707      31.098
2015   10       11    10  10    1.8467   528.2    2.710      31.045
2015   10       11    10  18    1.8456   527.8    2.712      30.992
2015   10       11    10  25    1.8445   527.3    2.714      30.940
2015   10       11    10  33    1.8434   526.8    2.716      30.888
2015   10       11    10  40    1.8423   526.4    2.719      30.836
2015   10       11    10  48    1.8413   525.9    2.721      30.784
2015   10       11    10  55    1.8402   525.4    2.723      30.733
2015   10       11    11   3    1.8391   525.0    2.726      30.681
2015   10       11    11  10    1.8380   524.5    2.728      30.630
2015   10       11    11  18    1.8370   524.0    2.731      30.578
2015   10       11    11  25    1.8360   523.5    2.733      30.527
2015   10       11    11  33    1.8350   523.1    2.736      30.476
2015   10       11    11  40    1.8340   522.6    2.738      30.425
2015   10       11    11  48    1.8330   522.1    2.741      30.374
2015   10       11    11  55    1.8320   521.6    2.744      30.324
2015   10       11    12   3    1.8311   521.2    2.746      30.274
2015   10       11    12  10    1.8302   520.7    2.749      30.224
2015   10       11    12  18    1.8293   520.2    2.752      30.175
2015   10       11    12  25    1.8284   519.7    2.755      30.126
2015   10       11    12  33    1.8276   519.2    2.758      30.077
2015   10       11    12  40    1.8268   518.7    2.761      30.029
2015   10       11    12  48    1.8260   518.2    2.764      29.981
2015   10       11    12  56    1.8253   517.7    2.768      29.934
2015   10       11    13   3    1.8246   517.3    2.771      29.887
2015   10       11    13  11    1.8240   516.8    2.774      29.840
2015   10       11    13  18    1.8234   516.3    2.778      29.794
2015   10       11    13  26    1.8228   515.8    2.782      29.748
2015   10       11    13  33    1.8223   515.3    2.785      29.702
2015   10       11    13  41    1.8218   514.8    2.789      29.657
2015   10       11    13  48    1.8214   514.3    2.793      29.612
2015   10       11    13  56    1.8210   513.8    2.797      29.568
2015   10       11    14   3    1.8207   513.3    2.801      29.523
2015   10       11    14  11    1.8203   512.8    2.806      29.479
2015   10       11    14  18    1.8201   512.3    2.810      29.435
2015   10       11    14  26    1.8198   511.8    2.814      29.392
2015   10       11    14  33    1.8196   511.3    2.818      29.348
2015   10       11    14  41    1.8194   510.8    2.823      29.305
2015   10       11    14  48    1.8193   510.4    2.827      29.262
2015   10       11    14  56    1.8191   509.9    2.832      29.218
2015   10       11    15   3    1.8191   509.4    2.837      29.175
2015   10       11    15  11    1.8190   508.9    2.841      29.132
2015   10       11    15  18    1.8189   508.4    2.846      29.089
2015   10       11    15  26    1.8189   507.9    2.851      29.047
2015   10       11    15  34    1.8189   507.4    2.855      29.004
2015   10       11    15  41    1.8189   506.9    2.860      28.961
2015   10       11    15  49    1.8190   506.4    2.865      28.919
2015   10       11    15  56    1.8190   505.9    2.870      28.877
2015   10       11    16   4    1.8191   505.4    2.875      28.835
2015   10       11    16  11    1.8192   505.0    2.880      28.793
2015   10       11    16  19    1.8193   504.5    2.885      28.752
2015   10       11    16  26    1.8194   504.0    2.891      28.710
2015   10       11    16  34    1.8196   503.5    2.896      28.669
2015   10       11    16  41    1.8197   503.0    2.901      28.629
2015   10       11    16  49    1.8199   502.5    2.907      28.589
2015   10       11    16  56    1.8201   502.1    2.912      28.549
2015   10       11    17   4    1.8204   501.6    2.918      28.509
2015   10       11    17  11    1.8206   501.1    2.923      28.470
2015   10       11    17  19    1.8209   500.6    2.929      28.431
2015   10       11    17  26    1.8212   500.2    2.935      28.393
2015   10       11    17  34    1.8215   499.7    2.941      28.355
2015   10       11    17  41    1.8218   499.2    2.946      28.317
2015   10       11    17  49    1.8221   498.7    2.952      28.279
2015   10       11    17  56    1.8225   498.2    2.958      28.242
2015   10       11    18   4    1.8229   497.8    2.964      28.205
2015   10       11    18  11    1.8233   497.3    2.971      28.168
2015   10       11    18  19    1.8237   496.8    2.977      28.131
2015   10       11    18  26    1.8242   496.3    2.983      28.095
2015   10       11    18  34    1.8247   495.8    2.989      28.059
2015   10       11    18  41    1.8252   495.4    2.996      28.024
2015   10       11    18  49    1.8258   494.9    3.002      27.988
2015   10       11    18  56    1.8263   494.4    3.008      27.954
2015   10       11    19   4    1.8270   493.9    3.015      27.919
2015   10       11    19  11    1.8276   493.5    3.022      27.885
2015   10       11    19  19    1.8283   493.0    3.028      27.852
2015   10       11    19  26    1.8291   492.5    3.035      27.819
2015   10       11    19  34    1.8299   492.0    3.042      27.787
2015   10       11    19  41    1.8307   491.5    3.049      27.755
2015   10       11    19  49    1.8316   491.1    3.056      27.724
2015   10       11    19  57    1.8325   490.6    3.064      27.693
2015   10       11    20   4    1.8336   490.1    3.071      27.663
2015   10       11    20  12    1.8346   489.7    3.078      27.634
2015   10       11    20  19    1.8357   489.2    3.086      27.606
2015   10       11    20  27    1.8368   488.7    3.094      27.578
2015   10       11    20  34    1.8381   488.3    3.102      27.552
2015   10       11    20  42    1.8393   487.8    3.110      27.526
2015   10       11    20  49    1.8406   487.3    3.118      27.500
2015   10       11    20  57    1.8420   486.9    3.126      27.476
2015   10       11    21   4    1.8434   486.4    3.134      27.452
2015   10       11    21  12    1.8449   486.0    3.143      27.428
2015   10       11    21  19    1.8464   485.5    3.151      27.406
2015   10       11    21  27    1.8479   485.1    3.160      27.384
2015   10       11    21  34    1.8495   484.6    3.169      27.362
2015   10       11    21  42    1.8511   484.2    3.177      27.341
2015   10       11    21  49    1.8528   483.8    3.186      27.320
2015   10       11    21  57    1.8545   483.3    3.195      27.300
2015   10       11    22   4    1.8562   482.9    3.204      27.280
2015   10       11    22  12    1.8580   482.5    3.213      27.261
2015   10       11    22  19    1.8598   482.0    3.222      27.242
2015   10       11    22  27    1.8616   481.6    3.232      27.223
2015   10       11    22  35    1.8634   481.2    3.241      27.204
2015   10       11    22  42    1.8653   480.8    3.250      27.186
2015   10       11    22  50    1.8672   480.4    3.259      27.167
2015   10       11    22  57    1.8690   479.9    3.269      27.149
2015   10       11    23   5    1.8709   479.5    3.278      27.131
2015   10       11    23  12    1.8728   479.1    3.287      27.113
2015   10       11    23  20    1.8748   478.7    3.297      27.095
2015   10       11    23  27    1.8767   478.3    3.306      27.077
2015   10       11    23  35    1.8787   477.9    3.316      27.060
2015   10       11    23  42    1.8807   477.5    3.325      27.043
2015   10       11    23  50    1.8827   477.1    3.335      27.025
2015   10       11    23  57    1.8847   476.7    3.344      27.008
2015   10       12     0   5    1.8867   476.3    3.354      26.991
2015   10       12     0  12    1.8888   475.8    3.363      26.975
2015   10       12     0  20    1.8909   475.4    3.373      26.958
2015   10       12     0  27    1.8929   475.0    3.383      26.942
2015   10       12     0  35    1.8951   474.6    3.392      26.926
2015   10       12     0  42    1.8972   474.2    3.402      26.911
2015   10       12     0  50    1.8994   473.8    3.412      26.895
2015   10       12     0  57    1.9016   473.5    3.422      26.881
2015   10       12     1   5    1.9038   473.1    3.432      26.866
2015   10       12     1  12    1.9061   472.7    3.442      26.852
2015   10       12     1  20    1.9084   472.3    3.453      26.839
2015   10       12     1  27    1.9107   471.9    3.463      26.826
2015   10       12     1  35    1.9131   471.5    3.474      26.813
2015   10       12     1  42    1.9155   471.1    3.484      26.801
2015   10       12     1  50    1.9179   470.7    3.495      26.790
2015   10       12     1  57    1.9204   470.3    3.506      26.779
2015   10       12     2   5    1.9229   470.0    3.517      26.769
2015   10       12     2  12    1.9255   469.6    3.529      26.759
2015   10       12     2  20    1.9281   469.2    3.540      26.750
2015   10       12     2  27    1.9307   468.8    3.551      26.741
2015   10       12     2  35    1.9334   468.5    3.563      26.733
2015   10       12     2  42    1.9361   468.1    3.575      26.726
2015   10       12     2  50    1.9389   467.7    3.587      26.719
2015   10       12     2  57    1.9417   467.4    3.599      26.713
2015   10       12     3   5    1.9446   467.0    3.611      26.707
2015   10       12     3  13    1.9474   466.7    3.623      26.702
2015   10       12     3  20    1.9504   466.3    3.635      26.697
2015   10       12     3  28    1.9533   466.0    3.647      26.693
2015   10       12     3  35    1.9563   465.6    3.660      26.689
2015   10       12     3  43    1.9593   465.3    3.672      26.685
2015   10       12     3  50    1.9623   465.0    3.685      26.682
2015   10       12     3  58    1.9653   464.6    3.697      26.679
2015   10       12     4   5    1.9684   464.3    3.709      26.676
2015   10       12     4  13    1.9715   464.0    3.722      26.673
2015   10       12     4  20    1.9746   463.6    3.734      26.670
2015   10       12     4  28    1.9776   463.3    3.747      26.668
2015   10       12     4  35    1.9808   463.0    3.759      26.666
2015   10       12     4  43    1.9839   462.7    3.771      26.664
2015   10       12     4  50    1.9870   462.4    3.783      26.662
2015   10       12     4  58    1.9902   462.0    3.796      26.660
2015   10       12     5   5    1.9933   461.7    3.808      26.659
2015   10       12     5  13    1.9965   461.4    3.820      26.658
2015   10       12     5  20    1.9996   461.1    3.832      26.657
2015   10       12     5  28    2.0028   460.8    3.844      26.657
2015   10       12     5  35    2.0060   460.5    3.856      26.656
2015   10       12     5  43    2.0092   460.2    3.868      26.657
2015   10       12     5  51    2.0125   459.9    3.880      26.657
2015   10       12     5  58    2.0157   459.6    3.893      26.659
2015   10       12     6   6    2.0189   459.3    3.905      26.660
2015   10       12     6  13    2.0222   459.0    3.917      26.662
2015   10       12     6  21    2.0255   458.7    3.929      26.665
2015   10       12     6  28    2.0288   458.4    3.941      26.669
2015   10       12     6  36    2.0321   458.2    3.953      26.673
2015   10       12     6  43    2.0354   457.9    3.966      26.678
2015   10       12     6  51    2.0388   457.6    3.978      26.684
2015   10       12     6  58    2.0422   457.3    3.991      26.690
2015   10       12     7   6    2.0456   457.0    4.003      26.698
2015   10       12     7  13    2.0490   456.8    4.016      26.706
2015   10       12     7  21    2.0525   456.5    4.029      26.715
2015   10       12     7  28    2.0560   456.2    4.042      26.724
2015   10       12     7  36    2.0595   456.0    4.055      26.735
2015   10       12     7  43    2.0630   455.7    4.068      26.747
2015   10       12     7  51    2.0666   455.4    4.081      26.759
2015   10       12     7  58    2.0702   455.2    4.095      26.772
2015   10       12     8   6    2.0738   454.9    4.108      26.785
2015   10       12     8  13    2.0774   454.7    4.122      26.800
2015   10       12     8  21    2.0811   454.4    4.136      26.815
2015   10       12     8  28    2.0848   454.2    4.150      26.831
2015   10       12     8  36    2.0885   453.9    4.164      26.848
2015   10       12     8  43    2.0922   453.7    4.178      26.865
2015   10       12     8  51    2.0960   453.4    4.193      26.883
2015   10       12     8  58    2.0998   453.2    4.207      26.901
2015   10       12     9   6    2.1036   452.9    4.222      26.920
2015   10       12     9  13    2.1074   452.7    4.236      26.939
2015   10       12     9  21    2.1112   452.5    4.251      26.959
2015   10       12     9  28    2.1150   452.2    4.266      26.980
2015   10       12     9  36    2.1188   452.0    4.281      27.000
2015   10       12     9  43    2.1227   451.8    4.295      27.021
2015   10       12     9  51    2.1265   451.6    4.310      27.043
2015   10       12     9  58    2.1303   451.3    4.325      27.064
2015   10       12    10   6    2.1342   451.1    4.340      27.086
2015   10       12    10  13    2.1381   450.9    4.355      27.108
2015   10       12    10  21    2.1420   450.7    4.370      27.131
2015   10       12    10  28    2.1458   450.5    4.384      27.153
2015   10       12    10  36    2.1497   450.3    4.399      27.176
2015   10       12    10  44    2.1536   450.1    4.414      27.199
2015   10       12    10  51    2.1575   449.9    4.429      27.221
2015   10       12    10  59    2.1614   449.6    4.443      27.244
2015   10       12    11   6    2.1653   449.4    4.458      27.267
2015   10       12    11  14    2.1692   449.2    4.472      27.290
2015   10       12    11  21    2.1731   449.0    4.487      27.313
2015   10       12    11  29    2.1769   448.9    4.501      27.336
2015   10       12    11  36    2.1808   448.7    4.515      27.358
2015   10       12    11  44    2.1847   448.5    4.529      27.381
2015   10       12    11  51    2.1886   448.3    4.543      27.404
2015   10       12    11  59    2.1925   448.1    4.557      27.426
2015   10       12    12   6    2.1963   447.9    4.571      27.449
2015   10       12    12  14    2.2002   447.7    4.585      27.471
2015   10       12    12  21    2.2041   447.5    4.598      27.494
2015   10       12    12  29    2.2080   447.4    4.612      27.517
2015   10       12    12  36    2.2119   447.2    4.626      27.539
2015   10       12    12  44    2.2158   447.0    4.639      27.562
2015   10       12    12  51    2.2197   446.8    4.652      27.585
2015   10       12    12  59    2.2237   446.6    4.666      27.608
2015   10       12    13   6    2.2276   446.5    4.679      27.632
2015   10       12    13  14    2.2315   446.3    4.693      27.655
2015   10       12    13  21    2.2355   446.1    4.706      27.679
2015   10       12    13  29    2.2395   446.0    4.719      27.703
2015   10       12    13  37    2.2435   445.8    4.733      27.728
2015   10       12    13  44    2.2475   445.6    4.746      27.753
2015   10       12    13  52    2.2515   445.5    4.760      27.779
2015   10       12    13  59    2.2555   445.3    4.773      27.805
2015   10       12    14   7    2.2596   445.2    4.787      27.832
2015   10       12    14  14    2.2637   445.0    4.800      27.859
2015   10       12    14  22    2.2678   444.9    4.814      27.887
2015   10       12    14  29    2.2719   444.7    4.828      27.915
2015   10       12    14  37    2.2761   444.6    4.842      27.945
2015   10       12    14  44    2.2802   444.4    4.856      27.974
2015   10       12    14  52    2.2844   444.3    4.870      28.005
2015   10       12    14  59    2.2886   444.1    4.884      28.037
2015   10       12    15   7    2.2928   444.0    4.899      28.069
2015   10       12    15  14    2.2971   443.9    4.913      28.102
2015   10       12    15  22    2.3013   443.8    4.927      28.137
2015   10       12    15  29    2.3055   443.6    4.942      28.172
2015   10       12    15  37    2.3098   443.5    4.956      28.209
2015   10       12    15  44    2.3140   443.4    4.970      28.245
2015   10       12    15  52    2.3182   443.3    4.984      28.283
2015   10       12    15  59    2.3224   443.2    4.998      28.321
2015   10       12    16   7    2.3266   443.1    5.012      28.359
2015   10       12    16  14    2.3307   443.0    5.025      28.398
2015   10       12    16  22    2.3349   442.9    5.039      28.436
2015   10       12    16  29    2.3390   442.8    5.053      28.475
2015   10       12    16  37    2.3431   442.7    5.066      28.513
2015   10       12    16  44    2.3471   442.5    5.080      28.551
2015   10       12    16  52    2.3512   442.4    5.093      28.589
2015   10       12    16  59    2.3552   442.3    5.106      28.627
2015   10       12    17   7    2.3593   442.2    5.119      28.664
2015   10       12    17  14    2.3633   442.1    5.132      28.701
2015   10       12    17  22    2.3673   442.0    5.145      28.738
2015   10       12    17  29    2.3713   441.9    5.158      28.774
2015   10       12    17  37    2.3752   441.8    5.171      28.810
2015   10       12    17  44    2.3792   441.7    5.183      28.845
2015   10       12    17  52    2.3832   441.6    5.196      28.881
2015   10       12    17  59    2.3871   441.6    5.208      28.916
2015   10       12    18   7    2.3911   441.5    5.220      28.951
2015   10       12    18  15    2.3950   441.4    5.232      28.985
2015   10       12    18  22    2.3989   441.3    5.244      29.020
2015   10       12    18  30    2.4028   441.2    5.256      29.054
2015   10       12    18  37    2.4068   441.1    5.268      29.089
2015   10       12    18  45    2.4107   441.0    5.279      29.123
2015   10       12    18  52    2.4146   440.9    5.291      29.157
2015   10       12    19   0    2.4184   440.8    5.302      29.191
2015   10       12    19   7    2.4223   440.7    5.314      29.225
2015   10       12    19  15    2.4262   440.7    5.325      29.259
2015   10       12    19  22    2.4300   440.6    5.336      29.292
2015   10       12    19  30    2.4339   440.5    5.347      29.326
2015   10       12    19  37    2.4377   440.4    5.359      29.360
2015   10       12    19  45    2.4415   440.3    5.370      29.393
2015   10       12    19  52    2.4453   440.3    5.381      29.427
2015   10       12    20   0    2.4491   440.2    5.391      29.460
2015   10       12    20   7    2.4529   440.1    5.402      29.494
2015   10       12    20  15    2.4567   440.0    5.413      29.527
2015   10       12    20  22    2.4604   440.0    5.424      29.561
2015   10       12    20  30    2.4642   439.9    5.434      29.594
2015   10       12    20  37    2.4680   439.8    5.445      29.627
2015   10       12    20  45    2.4717   439.8    5.455      29.660
2015   10       12    20  52    2.4754   439.7    5.466      29.693
2015   10       12    21   0    2.4791   439.6    5.477      29.726
2015   10       12    21   7    2.4828   439.6    5.487      29.759
2015   10       12    21  15    2.4865   439.5    5.497      29.791
2015   10       12    21  23    2.4902   439.4    5.508      29.824
2015   10       12    21  30    2.4939   439.4    5.518      29.857
2015   10       12    21  38    2.4976   439.3    5.529      29.890
2015   10       12    21  45    2.5012   439.3    5.539      29.923
2015   10       12    21  53    2.5049   439.2    5.549      29.956
2015   10       12    22   0    2.5085   439.2    5.559      29.988
2015   10       12    22   8    2.5122   439.1    5.570      30.021
2015   10       12    22  15    2.5158   439.1    5.580      30.054
2015   10       12    22  23    2.5194   439.0    5.590      30.087
2015   10       12    22  30    2.5230   439.0    5.600      30.120
2015   10       12    22  38    2.5266   438.9    5.610      30.153
2015   10       12    22  45    2.5301   438.9    5.620      30.187
2015   10       12    22  53    2.5337   438.9    5.629      30.221
2015   10       12    23   0    2.5371   438.8    5.639      30.255
2015   10       12    23   8    2.5406   438.8    5.648      30.289
2015   10       12    23  15    2.5440   438.7    5.657      30.324
2015   10       12    23  23    2.5474   438.7    5.666      30.358
2015   10       12    23  30    2.5508   438.7    5.675      30.393
2015   10       12    23  38    2.5541   438.6    5.684      30.427
2015   10       12    23  45    2.5574   438.6    5.693      30.461
2015   10       12    23  53    2.5608   438.6    5.701      30.495
2015   10       13     0   0    2.5640   438.5    5.710      30.529
2015   10       13     0   8    2.5673   438.5    5.718      30.562
2015   10       13     0  15    2.5706   438.5    5.726      30.595
2015   10       13     0  23    2.5738   438.4    5.735      30.628
2015   10       13     0  30    2.5771   438.4    5.743      30.661
2015   10       13     0  38    2.5803   438.4    5.751      30.693
2015   10       13     0  45    2.5836   438.3    5.760      30.726
2015   10       13     0  53    2.5868   438.3    5.768      30.758
2015   10       13     1   0    2.5901   438.3    5.777      30.790
2015   10       13     1   8    2.5933   438.2    5.785      30.823
2015   10       13     1  15    2.5966   438.2    5.794      30.855
2015   10       13     1  23    2.5999   438.2    5.802      30.889
2015   10       13     1  30    2.6031   438.2    5.811      30.922
2015   10       13     1  38    2.6064   438.1    5.820      30.956
2015   10       13     1  45    2.6097   438.1    5.829      30.991
2015   10       13     1  53    2.6129   438.1    5.837      31.026
2015   10       13     2   0    2.6162   438.1    5.846      31.062
2015   10       13     2   8    2.6193   438.1    5.854      31.098
2015   10       13     2  15    2.6224   438.1    5.863      31.136
2015   10       13     2  23    2.6255   438.1    5.871      31.173
2015   10       13     2  31    2.6285   438.1    5.879      31.209
2015   10       13     2  38    2.6315   438.1    5.886      31.245
2015   10       13     2  46    2.6345   438.1    5.893      31.280
2015   10       13     2  53    2.6373   438.1    5.900      31.314
2015   10       13     3   1    2.6402   438.1    5.907      31.346
2015   10       13     3   8    2.6430   438.1    5.914      31.378
2015   10       13     3  16    2.6457   438.1    5.920      31.410
2015   10       13     3  23    2.6484   438.1    5.926      31.440
2015   10       13     3  31    2.6511   438.1    5.932      31.469
2015   10       13     3  38    2.6537   438.1    5.937      31.498
2015   10       13     3  46    2.6563   438.1    5.943      31.526
2015   10       13     3  53    2.6588   438.1    5.948      31.553
2015   10       13     4   1    2.6614   438.1    5.953      31.580
2015   10       13     4   8    2.6639   438.1    5.958      31.605
2015   10       13     4  16    2.6663   438.1    5.963      31.631
2015   10       13     4  23    2.6688   438.1    5.968      31.655
2015   10       13     4  31    2.6712   438.1    5.972      31.679
2015   10       13     4  38    2.6735   438.1    5.977      31.702
2015   10       13     4  46    2.6759   438.1    5.981      31.724
2015   10       13     4  53    2.6782   438.1    5.985      31.747
2015   10       13     5   1    2.6806   438.1    5.989      31.768
2015   10       13     5   8    2.6828   438.1    5.993      31.789
2015   10       13     5  16    2.6851   438.0    5.997      31.809
2015   10       13     5  23    2.6874   438.0    6.001      31.829
2015   10       13     5  31    2.6896   438.0    6.005      31.849
2015   10       13     5  38    2.6918   438.0    6.009      31.868
2015   10       13     5  46    2.6940   438.0    6.012      31.887
2015   10       13     5  53    2.6962   438.0    6.016      31.905
2015   10       13     6   1    2.6983   438.0    6.019      31.923
2015   10       13     6   8    2.7005   438.0    6.023      31.940
2015   10       13     6  16    2.7026   438.0    6.026      31.957
2015   10       13     6  23    2.7047   438.0    6.029      31.974
2015   10       13     6  31    2.7068   438.0    6.032      31.991
2015   10       13     6  38    2.7088   438.0    6.035      32.007
2015   10       13     6  46    2.7109   438.0    6.038      32.023
2015   10       13     6  53    2.7129   438.0    6.042      32.038
2015   10       13     7   1    2.7150   438.0    6.045      32.053
2015   10       13     7   8    2.7170   438.0    6.048      32.068
2015   10       13     7  16    2.7190   438.0    6.051      32.083
2015   10       13     7  23    2.7210   438.0    6.054      32.098
2015   10       13     7  31    2.7230   438.0    6.057      32.112
2015   10       13     7  39    2.7250   437.9    6.060      32.127
2015   10       13     7  46    2.7269   437.9    6.063      32.141
2015   10       13     7  54    2.7289   437.9    6.066      32.156
2015   10       13     8   1    2.7309   437.9    6.069      32.170
2015   10       13     8   9    2.7329   437.9    6.073      32.186
2015   10       13     8  16    2.7350   437.9    6.077      32.201
2015   10       13     8  24    2.7370   437.9    6.081      32.217
2015   10       13     8  31    2.7391   437.9    6.085      32.234
2015   10       13     8  39    2.7411   437.9    6.089      32.252
2015   10       13     8  46    2.7432   437.9    6.094      32.271
2015   10       13     8  54    2.7453   437.9    6.099      32.290
2015   10       13     9   1    2.7475   437.9    6.104      32.311
2015   10       13     9   9    2.7496   437.9    6.109      32.333
2015   10       13     9  16    2.7517   437.9    6.115      32.356
2015   10       13     9  24    2.7537   437.9    6.120      32.381
2015   10       13     9  31    2.7557   437.9    6.126      32.407
2015   10       13     9  39    2.7577   437.9    6.131      32.434
2015   10       13     9  46    2.7596   437.9    6.136      32.461
2015   10       13     9  54    2.7615   437.9    6.141      32.488
2015   10       13    10   1    2.7633   437.9    6.146      32.514
2015   10       13    10   9    2.7651   438.0    6.151      32.539
2015   10       13    10  16    2.7668   438.0    6.156      32.565
2015   10       13    10  24    2.7684   438.0    6.160      32.590
2015   10       13    10  31    2.7700   438.0    6.164      32.615
2015   10       13    10  39    2.7715   438.0    6.168      32.640
2015   10       13    10  47    2.7730   438.1    6.171      32.664
2015   10       13    10  54    2.7744   438.1    6.174      32.687
2015   10       13    11   2    2.7758   438.1    6.177      32.710
2015   10       13    11   9    2.7771   438.1    6.180      32.731
2015   10       13    11  17    2.7784   438.1    6.182      32.751
2015   10       13    11  24    2.7797   438.1    6.185      32.769
2015   10       13    11  32    2.7810   438.2    6.187      32.787
2015   10       13    11  39    2.7822   438.2    6.189      32.804
2015   10       13    11  47    2.7834   438.2    6.191      32.821
2015   10       13    11  54    2.7846   438.2    6.192      32.836
2015   10       13    12   2    2.7858   438.2    6.194      32.851
2015   10       13    12   9    2.7870   438.2    6.195      32.865
2015   10       13    12  17    2.7881   438.2    6.197      32.879
2015   10       13    12  24    2.7892   438.2    6.198      32.891
2015   10       13    12  32    2.7903   438.2    6.199      32.904
2015   10       13    12  39    2.7915   438.2    6.201      32.915
2015   10       13    12  47    2.7925   438.3    6.202      32.926
2015   10       13    12  54    2.7936   438.3    6.203      32.937
2015   10       13    13   2    2.7947   438.3    6.204      32.947
2015   10       13    13   9    2.7958   438.3    6.205      32.957
2015   10       13    13  17    2.7968   438.3    6.206      32.966
2015   10       13    13  24    2.7979   438.3    6.207      32.975
2015   10       13    13  32    2.7989   438.3    6.207      32.984
2015   10       13    13  39    2.7999   438.3    6.208      32.992
2015   10       13    13  47    2.8009   438.3    6.209      33.000
2015   10       13    13  54    2.8019   438.3    6.210      33.007
2015   10       13    14   2    2.8029   438.3    6.210      33.014
2015   10       13    14   9    2.8039   438.3    6.211      33.021
2015   10       13    14  17    2.8048   438.3    6.211      33.027
2015   10       13    14  24    2.8057   438.3    6.212      33.033
2015   10       13    14  32    2.8066   438.3    6.212      33.038
2015   10       13    14  39    2.8074   438.3    6.212      33.043
2015   10       13    14  47    2.8083   438.3    6.212      33.047
2015   10       13    14  54    2.8091   438.3    6.212      33.051
2015   10       13    15   2    2.8099   438.3    6.212      33.055
2015   10       13    15   9    2.8107   438.3    6.212      33.058
2015   10       13    15  17    2.8115   438.3    6.212      33.061
2015   10       13    15  24    2.8123   438.3    6.212      33.064
2015   10       13    15  32    2.8131   438.3    6.213      33.066
2015   10       13    15  39    2.8138   438.3    6.213      33.069
2015   10       13    15  47    2.8146   438.3    6.213      33.072
2015   10       13    15  54    2.8154   438.3    6.213      33.075
2015   10       13    16   2    2.8162   438.3    6.214      33.078
2015   10       13    16   9    2.8169   438.3    6.214      33.082
2015   10       13    16  17    2.8177   438.3    6.215      33.086
2015   10       13    16  25    2.8185   438.3    6.216      33.090
2015   10       13    16  32    2.8193   438.3    6.217      33.094
2015   10       13    16  40    2.8201   438.3    6.218      33.099
2015   10       13    16  47    2.8208   438.3    6.219      33.105
2015   10       13    16  55    2.8216   438.3    6.220      33.111
2015   10       13    17   2    2.8224   438.3    6.222      33.117
2015   10       13    17  10    2.8231   438.3    6.223      33.124
2015   10       13    17  17    2.8238   438.3    6.225      33.131
2015   10       13    17  25    2.8244   438.3    6.226      33.138
2015   10       13    17  32    2.8251   438.3    6.228      33.146
2015   10       13    17  40    2.8257   438.3    6.229      33.154
2015   10       13    17  47    2.8262   438.3    6.231      33.162
2015   10       13    17  55    2.8267   438.3    6.232      33.171
2015   10       13    18   2    2.8272   438.3    6.233      33.180
2015   10       13    18  10    2.8277   438.3    6.234      33.189
2015   10       13    18  17    2.8282   438.3    6.234      33.197
2015   10       13    18  25    2.8286   438.4    6.235      33.204
2015   10       13    18  32    2.8290   438.4    6.235      33.211
2015   10       13    18  40    2.8294   438.4    6.236      33.217
2015   10       13    18  47    2.8297   438.4    6.236      33.222
2015   10       13    18  55    2.8301   438.4    6.236      33.227
2015   10       13    19   2    2.8304   438.4    6.236      33.231
2015   10       13    19  10    2.8307   438.4    6.236      33.236
2015   10       13    19  17    2.8310   438.4    6.236      33.239
2015   10       13    19  25    2.8313   438.4    6.236      33.242
2015   10       13    19  32    2.8316   438.4    6.236      33.245
2015   10       13    19  40    2.8319   438.4    6.235      33.247
2015   10       13    19  47    2.8322   438.3    6.235      33.249
2015   10       13    19  55    2.8324   438.3    6.235      33.250
2015   10       13    20   2    2.8327   438.3    6.234      33.252
2015   10       13    20  10    2.8329   438.3    6.234      33.252
2015   10       13    20  17    2.8332   438.3    6.234      33.253
2015   10       13    20  25    2.8334   438.3    6.233      33.253
2015   10       13    20  32    2.8336   438.3    6.233      33.253
2015   10       13    20  40    2.8338   438.3    6.232      33.253
2015   10       13    20  47    2.8341   438.3    6.232      33.253
2015   10       13    20  55    2.8343   438.3    6.231      33.252
2015   10       13    21   2    2.8345   438.3    6.231      33.252
2015   10       13    21  10    2.8346   438.3    6.230      33.251
2015   10       13    21  17    2.8348   438.3    6.230      33.251
2015   10       13    21  25    2.8349   438.3    6.229      33.250
2015   10       13    21  32    2.8351   438.3    6.228      33.249
2015   10       13    21  40    2.8352   438.3    6.228      33.247
2015   10       13    21  47    2.8353   438.3    6.227      33.245
2015   10       13    21  55    2.8354   438.3    6.226      33.243
2015   10       13    22   2    2.8354   438.3    6.225      33.241
2015   10       13    22  10    2.8355   438.3    6.224      33.238
2015   10       13    22  18    2.8355   438.3    6.223      33.235
2015   10       13    22  25    2.8355   438.3    6.222      33.232
2015   10       13    22  33    2.8355   438.3    6.221      33.228
2015   10       13    22  40    2.8355   438.3    6.220      33.224
2015   10       13    22  48    2.8355   438.3    6.219      33.221
2015   10       13    22  55    2.8355   438.3    6.218      33.216
2015   10       13    23   3    2.8354   438.3    6.216      33.212
2015   10       13    23  10    2.8354   438.3    6.215      33.207
2015   10       13    23  18    2.8353   438.3    6.214      33.202
2015   10       13    23  25    2.8352   438.3    6.212      33.197
2015   10       13    23  33    2.8350   438.3    6.211      33.191
2015   10       13    23  40    2.8349   438.3    6.210      33.186
2015   10       13    23  48    2.8348   438.3    6.208      33.180
2015   10       13    23  55    2.8346   438.2    6.206      33.173
2015   10       14     0   3    2.8344   438.2    6.205      33.167
2015   10       14     0  10    2.8342   438.2    6.203      33.160
2015   10       14     0  18    2.8340   438.2    6.201      33.153
2015   10       14     0  25    2.8338   438.2    6.199      33.145
2015   10       14     0  33    2.8336   438.2    6.197      33.137
2015   10       14     0  40    2.8333   438.2    6.195      33.129
2015   10       14     0  48    2.8331   438.2    6.193      33.121
2015   10       14     0  55    2.8328   438.1    6.191      33.112
2015   10       14     1   3    2.8325   438.1    6.189      33.103
2015   10       14     1  10    2.8323   438.1    6.187      33.094
2015   10       14     1  18    2.8320   438.1    6.185      33.085
2015   10       14     1  26    2.8316   438.1    6.182      33.075
2015   10       14     1  33    2.8313   438.1    6.180      33.065
2015   10       14     1  41    2.8310   438.0    6.178      33.054
2015   10       14     1  48    2.8307   438.0    6.175      33.044
2015   10       14     1  56    2.8303   438.0    6.173      33.032
2015   10       14     2   3    2.8300   438.0    6.170      33.021
2015   10       14     2  11    2.8296   438.0    6.167      33.010
2015   10       14     2  18    2.8293   438.0    6.165      32.998
2015   10       14     2  26    2.8289   437.9    6.162      32.985
2015   10       14     2  33    2.8285   437.9    6.159      32.973
2015   10       14     2  41    2.8281   437.9    6.157      32.960
2015   10       14     2  48    2.8277   437.9    6.154      32.947
2015   10       14     2  56    2.8273   437.8    6.151      32.933
2015   10       14     3   3    2.8269   437.8    6.148      32.920
2015   10       14     3  11    2.8264   437.8    6.145      32.906
2015   10       14     3  18    2.8260   437.8    6.142      32.891
2015   10       14     3  26    2.8256   437.7    6.139      32.877
2015   10       14     3  33    2.8251   437.7    6.136      32.862
2015   10       14     3  41    2.8247   437.7    6.134      32.847
2015   10       14     3  48    2.8243   437.6    6.131      32.832
2015   10       14     3  56    2.8238   437.6    6.128      32.817
2015   10       14     4   3    2.8234   437.6    6.125      32.801
2015   10       14     4  11    2.8229   437.6    6.122      32.786
2015   10       14     4  18    2.8225   437.5    6.119      32.770
2015   10       14     4  26    2.8220   437.5    6.117      32.755
2015   10       14     4  33    2.8216   437.5    6.114      32.739
2015   10       14     4  41    2.8212   437.4    6.111      32.723
2015   10       14     4  48    2.8207   437.4    6.109      32.707
2015   10       14     4  56    2.8203   437.4    6.106      32.692
2015   10       14     5   3    2.8199   437.3    6.104      32.676
2015   10       14     5  11    2.8195   437.3    6.102      32.660
2015   10       14     5  18    2.8191   437.3    6.099      32.645
2015   10       14     5  26    2.8186   437.2    6.097      32.629
2015   10       14     5  33    2.8182   437.2    6.095      32.614
2015   10       14     5  41    2.8178   437.1    6.093      32.598
2015   10       14     5  48    2.8175   437.1    6.091      32.583
2015   10       14     5  56    2.8171   437.1    6.089      32.568
2015   10       14     6   3    2.8167   437.0    6.087      32.553
2015   10       14     6  11    2.8162   437.0    6.086      32.537
2015   10       14     6  18    2.8158   437.0    6.084      32.522
2015   10       14     6  26    2.8154   436.9    6.082      32.507
2015   10       14     6  33    2.8150   436.9    6.081      32.492
2015   10       14     6  41    2.8145   436.9    6.079      32.477
2015   10       14     6  48    2.8141   436.8    6.077      32.462
2015   10       14     6  56    2.8136   436.8    6.076      32.447
2015   10       14     7   3    2.8132   436.7    6.074      32.431
2015   10       14     7  11    2.8127   436.7    6.073      32.416
2015   10       14     7  18    2.8122   436.6    6.071      32.401
2015   10       14     7  26    2.8118   436.6    6.069      32.385
2015   10       14     7  33    2.8113   436.6    6.068      32.370
2015   10       14     7  41    2.8108   436.5    6.066      32.354
2015   10       14     7  49    2.8103   436.5    6.065      32.339
2015   10       14     7  56    2.8098   436.4    6.063      32.323
2015   10       14     8   4    2.8093   436.4    6.062      32.308
2015   10       14     8  11    2.8088   436.3    6.060      32.292
2015   10       14     8  19    2.8083   436.3    6.058      32.276
2015   10       14     8  26    2.8079   436.2    6.057      32.260
2015   10       14     8  34    2.8074   436.2    6.055      32.244
2015   10       14     8  41    2.8068   436.1    6.054      32.228
2015   10       14     8  49    2.8064   436.1    6.052      32.212
2015   10       14     8  56    2.8058   436.0    6.050      32.196
2015   10       14     9   4    2.8053   436.0    6.049      32.179
2015   10       14     9  11    2.8049   435.9    6.047      32.163
2015   10       14     9  19    2.8043   435.9    6.046      32.146
2015   10       14     9  26    2.8038   435.8    6.044      32.130
2015   10       14     9  34    2.8033   435.8    6.043      32.113
2015   10       14     9  41    2.8028   435.7    6.041      32.096
2015   10       14     9  49    2.8024   435.6    6.039      32.079
2015   10       14     9  56    2.8018   435.6    6.038      32.062
2015   10       14    10   4    2.8014   435.5    6.036      32.046
2015   10       14    10  11    2.8009   435.5    6.035      32.029
2015   10       14    10  19    2.8004   435.4    6.034      32.012
2015   10       14    10  26    2.7999   435.4    6.032      31.995
2015   10       14    10  34    2.7994   435.3    6.031      31.978
2015   10       14    10  41    2.7990   435.2    6.029      31.961
2015   10       14    10  49    2.7985   435.2    6.028      31.944
2015   10       14    10  56    2.7980   435.1    6.027      31.927
2015   10       14    11   4    2.7976   435.1    6.026      31.910
2015   10       14    11  11    2.7972   435.0    6.025      31.893
2015   10       14    11  19    2.7968   434.9    6.023      31.877
2015   10       14    11  26    2.7963   434.9    6.022      31.860
2015   10       14    11  34    2.7959   434.8    6.021      31.844
2015   10       14    11  41    2.7955   434.7    6.021      31.828
2015   10       14    11  49    2.7952   434.7    6.020      31.812
2015   10       14    11  56    2.7948   434.6    6.019      31.796
2015   10       14    12   4    2.7944   434.6    6.018      31.780
2015   10       14    12  11    2.7940   434.5    6.017      31.764
2015   10       14    12  19    2.7937   434.4    6.017      31.748
2015   10       14    12  26    2.7933   434.4    6.016      31.733
2015   10       14    12  34    2.7929   434.3    6.015      31.717
2015   10       14    12  41    2.7926   434.2    6.014      31.702
2015   10       14    12  49    2.7922   434.2    6.013      31.686
2015   10       14    12  56    2.7919   434.1    6.013      31.670
2015   10       14    13   4    2.7915   434.1    6.012      31.654
2015   10       14    13  11    2.7911   434.0    6.011      31.638
2015   10       14    13  19    2.7908   433.9    6.010      31.622
2015   10       14    13  26    2.7904   433.9    6.010      31.606
2015   10       14    13  34    2.7901   433.8    6.009      31.590
2015   10       14    13  41    2.7897   433.8    6.008      31.573
2015   10       14    13  49    2.7894   433.7    6.008      31.557
2015   10       14    13  56    2.7890   433.6    6.007      31.541
2015   10       14    14   4    2.7887   433.6    6.006      31.524
2015   10       14    14  12    2.7883   433.5    6.006      31.508
2015   10       14    14  19    2.7879   433.4    6.005      31.491
2015   10       14    14  27    2.7876   433.4    6.004      31.475
2015   10       14    14  34    2.7872   433.3    6.004      31.459
2015   10       14    14  42    2.7869   433.3    6.003      31.442
2015   10       14    14  49    2.7866   433.2    6.003      31.426
2015   10       14    14  57    2.7862   433.1    6.002      31.410
2015   10       14    15   4    2.7859   433.1    6.002      31.393
2015   10       14    15  12    2.7855   433.0    6.001      31.377
2015   10       14    15  19    2.7852   432.9    6.001      31.361
2015   10       14    15  27    2.7849   432.9    6.000      31.345
2015   10       14    15  34    2.7845   432.8    6.000      31.328
2015   10       14    15  42    2.7842   432.8    5.999      31.312
2015   10       14    15  49    2.7839   432.7    5.999      31.296
2015   10       14    15  57    2.7835   432.6    5.998      31.280
2015   10       14    16   4    2.7832   432.6    5.998      31.265
2015   10       14    16  12    2.7829   432.5    5.997      31.249
2015   10       14    16  19    2.7826   432.4    5.997      31.234
2015   10       14    16  27    2.7822   432.4    5.997      31.218
2015   10       14    16  34    2.7819   432.3    5.996      31.203
2015   10       14    16  42    2.7816   432.2    5.996      31.188
2015   10       14    16  49    2.7813   432.2    5.996      31.173
2015   10       14    16  57    2.7810   432.1    5.996      31.158
2015   10       14    17   4    2.7807   432.0    5.996      31.144
2015   10       14    17  12    2.7804   432.0    5.996      31.129
2015   10       14    17  19    2.7802   431.9    5.996      31.115
2015   10       14    17  27    2.7799   431.9    5.996      31.101
2015   10       14    17  34    2.7796   431.8    5.996      31.087
2015   10       14    17  42    2.7794   431.7    5.996      31.074
2015   10       14    17  49    2.7791   431.7    5.996      31.061
2015   10       14    17  57    2.7789   431.6    5.996      31.048
2015   10       14    18   4    2.7787   431.5    5.996      31.035
2015   10       14    18  12    2.7784   431.5    5.997      31.023
2015   10       14    18  19    2.7782   431.4    5.997      31.010
2015   10       14    18  27    2.7780   431.3    5.998      30.998
2015   10       14    18  34    2.7778   431.3    5.998      30.986
2015   10       14    18  42    2.7776   431.2    5.999      30.975
2015   10       14    18  49    2.7774   431.1    5.999      30.963
2015   10       14    18  57    2.7772   431.1    6.000      30.952
2015   10       14    19   4    2.7771   431.0    6.000      30.941
2015   10       14    19  12    2.7769   430.9    6.001      30.930
2015   10       14    19  19    2.7767   430.9    6.001      30.919
2015   10       14    19  27    2.7765   430.8    6.002      30.909
2015   10       14    19  34    2.7764   430.7    6.002      30.898
2015   10       14    19  42    2.7762   430.7    6.003      30.887
2015   10       14    19  49    2.7760   430.6    6.003      30.877
2015   10       14    19  57    2.7758   430.5    6.004      30.866
2015   10       14    20   4    2.7756   430.5    6.004      30.855
2015   10       14    20  12    2.7755   430.4    6.004      30.844
2015   10       14    20  20    2.7753   430.3    6.004      30.833
2015   10       14    20  27    2.7751   430.3    6.005      30.822
2015   10       14    20  35    2.7749   430.2    6.005      30.810
2015   10       14    20  42    2.7747   430.1    6.005      30.799
2015   10       14    20  50    2.7746   430.1    6.005      30.788
2015   10       14    20  57    2.7744   430.0    6.005      30.776
2015   10       14    21   5    2.7742   430.0    6.005      30.765
2015   10       14    21  12    2.7741   429.9    6.006      30.753
2015   10       14    21  20    2.7739   429.8    6.006      30.742
2015   10       14    21  27    2.7738   429.8    6.006      30.730
2015   10       14    21  35    2.7737   429.7    6.006      30.719
2015   10       14    21  42    2.7735   429.6    6.006      30.707
2015   10       14    21  50    2.7734   429.6    6.006      30.696
2015   10       14    21  57    2.7733   429.5    6.006      30.685
2015   10       14    22   5    2.7731   429.4    6.006      30.674
2015   10       14    22  12    2.7730   429.4    6.007      30.663
2015   10       14    22  20    2.7729   429.3    6.007      30.652
2015   10       14    22  27    2.7728   429.3    6.007      30.641
2015   10       14    22  35    2.7727   429.2    6.007      30.630
2015   10       14    22  42    2.7726   429.1    6.007      30.619
2015   10       14    22  50    2.7725   429.1    6.007      30.609
2015   10       14    22  57    2.7724   429.0    6.008      30.598
2015   10       14    23   5    2.7723   428.9    6.008      30.588
2015   10       14    23  12    2.7722   428.9    6.008      30.578
2015   10       14    23  20    2.7721   428.8    6.008      30.567
2015   10       14    23  28    2.7721   428.8    6.009      30.557
2015   10       14    23  35    2.7720   428.7    6.009      30.548
2015   10       14    23  43    2.7719   428.6    6.010      30.538
2015   10       14    23  50    2.7718   428.6    6.010      30.529
2015   10       14    23  58    2.7717   428.5    6.010      30.519
2015   10       15     0   5    2.7717   428.5    6.011      30.510
2015   10       15     0  13    2.7716   428.4    6.011      30.501
2015   10       15     0  20    2.7715   428.3    6.012      30.492
2015   10       15     0  28    2.7715   428.3    6.013      30.483
2015   10       15     0  35    2.7714   428.2    6.013      30.475
2015   10       15     0  43    2.7713   428.2    6.014      30.466
2015   10       15     0  50    2.7713   428.1    6.015      30.458
2015   10       15     0  58    2.7712   428.1    6.015      30.450
2015   10       15     1   5    2.7712   428.0    6.016      30.441
2015   10       15     1  13    2.7712   427.9    6.017      30.433
2015   10       15     1  20    2.7711   427.9    6.018      30.425
2015   10       15     1  28    2.7711   427.8    6.018      30.418
2015   10       15     1  35    2.7711   427.8    6.019      30.410
2015   10       15     1  43    2.7711   427.7    6.020      30.402
2015   10       15     1  50    2.7710   427.7    6.021      30.395
2015   10       15     1  58    2.7710   427.6    6.022      30.387
2015   10       15     2   5    2.7710   427.5    6.023      30.380
2015   10       15     2  13    2.7711   427.5    6.024      30.373
2015   10       15     2  20    2.7711   427.4    6.025      30.366
2015   10       15     2  28    2.7711   427.4    6.026      30.358
2015   10       15     2  35    2.7711   427.3    6.027      30.351
2015   10       15     2  43    2.7711   427.3    6.028      30.344
2015   10       15     2  50    2.7711   427.2    6.029      30.337
2015   10       15     2  58    2.7711   427.1    6.029      30.330
2015   10       15     3   5    2.7711   427.1    6.030      30.323
2015   10       15     3  13    2.7712   427.0    6.031      30.316
2015   10       15     3  20    2.7712   427.0    6.032      30.309
2015   10       15     3  28    2.7712   426.9    6.033      30.302
2015   10       15     3  35    2.7712   426.9    6.034      30.295
2015   10       15     3  43    2.7713   426.8    6.034      30.288
2015   10       15     3  50    2.7713   426.7    6.035      30.281
2015   10       15     3  58    2.7713   426.7    6.036      30.274
2015   10       15     4   5    2.7714   426.6    6.037      30.268
2015   10       15     4  13    2.7714   426.6    6.038      30.261
2015   10       15     4  20    2.7715   426.5    6.038      30.255
2015   10       15     4  28    2.7716   426.4    6.039      30.248
2015   10       15     4  35    2.7716   426.4    6.040      30.242
2015   10       15     4  43    2.7717   426.3    6.041      30.236
2015   10       15     4  50    2.7718   426.3    6.041      30.230
2015   10       15     4  58    2.7719   426.2    6.042      30.224
2015   10       15     5   5    2.7720   426.1    6.043      30.218
2015   10       15     5  13    2.7721   426.1    6.044      30.213
2015   10       15     5  20    2.7722   426.0    6.045      30.207
2015   10       15     5  28    2.7723   426.0    6.046      30.202
2015   10       15     5  36    2.7724   425.9    6.047      30.197
2015   10       15     5  43    2.7725   425.9    6.048      30.192
2015   10       15     5  51    2.7727   425.8    6.049      30.188
2015   10       15     5  58    2.7728   425.7    6.050      30.183
2015   10       15     6   6    2.7729   425.7    6.051      30.179
2015   10       15     6  13    2.7731   425.6    6.053      30.175
2015   10       15     6  21    2.7732   425.6    6.054      30.171
2015   10       15     6  28    2.7734   425.5    6.055      30.167
2015   10       15     6  36    2.7736   425.4    6.057      30.164
2015   10       15     6  43    2.7738   425.4    6.058      30.160
2015   10       15     6  51    2.7740   425.3    6.060      30.157
2015   10       15     6  58    2.7742   425.3    6.062      30.154
2015   10       15     7   6    2.7744   425.2    6.063      30.151
2015   10       15     7  13    2.7746   425.1    6.065      30.149
2015   10       15     7  21    2.7749   425.1    6.067      30.146
2015   10       15     7  28    2.7752   425.0    6.070      30.144
2015   10       15     7  36    2.7755   425.0    6.072      30.142
2015   10       15     7  43    2.7758   424.9    6.074      30.141
2015   10       15     7  51    2.7761   424.9    6.077      30.139
2015   10       15     7  58    2.7765   424.8    6.079      30.138
2015   10       15     8   6    2.7769   424.8    6.082      30.137
2015   10       15     8  13    2.7773   424.7    6.085      30.136
2015   10       15     8  21    2.7778   424.6    6.089      30.136
2015   10       15     8  28    2.7782   424.6    6.092      30.136
2015   10       15     8  36    2.7787   424.5    6.095      30.137
2015   10       15     8  43    2.7793   424.5    6.099      30.138
2015   10       15     8  51    2.7799   424.4    6.103      30.140
2015   10       15     8  58    2.7805   424.4    6.107      30.142
2015   10       15     9   6    2.7811   424.3    6.111      30.145
2015   10       15     9  13    2.7817   424.3    6.115      30.149
2015   10       15     9  21    2.7823   424.3    6.119      30.154
2015   10       15     9  28    2.7829   424.2    6.123      30.160
2015   10       15     9  36    2.7835   424.2    6.126      30.166
2015   10       15     9  43    2.7841   424.2    6.130      30.172
2015   10       15     9  51    2.7846   424.1    6.133      30.178
2015   10       15     9  58    2.7851   424.1    6.136      30.184
2015   10       15    10   6    2.7856   424.1    6.139      30.189
2015   10       15    10  13    2.7861   424.0    6.141      30.193
2015   10       15    10  21    2.7866   424.0    6.144      30.198
2015   10       15    10  28    2.7870   424.0    6.146      30.202
2015   10       15    10  36    2.7874   424.0    6.148      30.205
2015   10       15    10  43    2.7878   423.9    6.150      30.208
2015   10       15    10  51    2.7883   423.9    6.152      30.211
2015   10       15    10  58    2.7887   423.9    6.154      30.213
2015   10       15    11   6    2.7890   423.8    6.155      30.215
2015   10       15    11  13    2.7894   423.8    6.157      30.217
2015   10       15    11  21    2.7898   423.8    6.158      30.219
2015   10       15    11  28    2.7902   423.8    6.159      30.220
2015   10       15    11  36    2.7905   423.7    6.160      30.221
2015   10       15    11  44    2.7909   423.7    6.161      30.221
2015   10       15    11  51    2.7912   423.7    6.162      30.221
2015   10       15    11  59    2.7916   423.6    6.163      30.221
2015   10       15    12   6    2.7919   423.6    6.164      30.221
2015   10       15    12  14    2.7923   423.6    6.164      30.220
2015   10       15    12  21    2.7926   423.6    6.165      30.219
2015   10       15    12  29    2.7929   423.5    6.165      30.218
2015   10       15    12  36    2.7933   423.5    6.166      30.217
2015   10       15    12  44    2.7936   423.5    6.166      30.215
2015   10       15    12  51    2.7939   423.4    6.166      30.214
2015   10       15    12  59    2.7942   423.4    6.167      30.212
2015   10       15    13   6    2.7946   423.4    6.167      30.210
2015   10       15    13  14    2.7949   423.4    6.167      30.207
2015   10       15    13  21    2.7952   423.3    6.168      30.205
2015   10       15    13  29    2.7955   423.3    6.168      30.203
2015   10       15    13  36    2.7959   423.3    6.168      30.200
2015   10       15    13  44    2.7962   423.2    6.168      30.197
2015   10       15    13  51    2.7965   423.2    6.169      30.194
2015   10       15    13  59    2.7969   423.2    6.169      30.192
2015   10       15    14   6    2.7972   423.2    6.169      30.189
2015   10       15    14  14    2.7976   423.1    6.170      30.186
2015   10       15    14  21    2.7979   423.1    6.170      30.183
2015   10       15    14  29    2.7983   423.1    6.171      30.180
2015   10       15    14  36    2.7987   423.0    6.171      30.177
2015   10       15    14  44    2.7990   423.0    6.172      30.174
2015   10       15    14  51    2.7995   423.0    6.173      30.171
2015   10       15    14  59    2.7999   423.0    6.174      30.168
2015   10       15    15   6    2.8003   422.9    6.175      30.165
2015   10       15    15  14    2.8007   422.9    6.176      30.162
2015   10       15    15  21    2.8012   422.9    6.177      30.159
2015   10       15    15  29    2.8017   422.8    6.178      30.157
2015   10       15    15  36    2.8022   422.8    6.180      30.154
2015   10       15    15  44    2.8027   422.8    6.181      30.152
2015   10       15    15  51    2.8033   422.8    6.183      30.151
2015   10       15    15  59    2.8039   422.7    6.185      30.149
2015   10       15    16   6    2.8045   422.7    6.187      30.148
2015   10       15    16  14    2.8051   422.7    6.190      30.148
2015   10       15    16  21    2.8057   422.7    6.192      30.148
2015   10       15    16  29    2.8063   422.7    6.194      30.149
2015   10       15    16  36    2.8069   422.6    6.197      30.151
2015   10       15    16  44    2.8075   422.6    6.199      30.154
2015   10       15    16  51    2.8080   422.6    6.201      30.157
2015   10       15    16  59    2.8086   422.6    6.203      30.160
2015   10       15    17   6    2.8091   422.6    6.205      30.164
2015   10       15    17  14    2.8096   422.6    6.207      30.166
2015   10       15    17  21    2.8101   422.6    6.209      30.169
2015   10       15    17  29    2.8105   422.6    6.210      30.172
2015   10       15    17  36    2.8110   422.5    6.212      30.174
2015   10       15    17  44    2.8114   422.5    6.214      30.176
2015   10       15    17  51    2.8119   422.5    6.215      30.178
2015   10       15    17  59    2.8124   422.5    6.217      30.181
2015   10       15    18   7    2.8128   422.5    6.219      30.183
2015   10       15    18  14    2.8133   422.5    6.221      30.185
2015   10       15    18  22    2.8138   422.5    6.223      30.188
2015   10       15    18  29    2.8143   422.4    6.225      30.191
2015   10       15    18  37    2.8148   422.4    6.227      30.194
2015   10       15    18  44    2.8154   422.4    6.229      30.198
2015   10       15    18  52    2.8159   422.4    6.232      30.202
2015   10       15    18  59    2.8165   422.4    6.234      30.206
2015   10       15    19   7    2.8171   422.4    6.236      30.211
2015   10       15    19  14    2.8177   422.4    6.239      30.216
2015   10       15    19  22    2.8182   422.4    6.241      30.222
2015   10       15    19  29    2.8188   422.4    6.243      30.228
2015   10       15    19  37    2.8194   422.4    6.245      30.234
2015   10       15    19  44    2.8199   422.4    6.247      30.240
2015   10       15    19  52    2.8205   422.4    6.248      30.246
2015   10       15    19  59    2.8209   422.4    6.249      30.251
2015   10       15    20   7    2.8214   422.4    6.250      30.255
2015   10       15    20  14    2.8218   422.4    6.251      30.258
2015   10       15    20  22    2.8222   422.4    6.252      30.261
2015   10       15    20  29    2.8226   422.4    6.252      30.262
2015   10       15    20  37    2.8230   422.4    6.252      30.263
2015   10       15    20  44    2.8233   422.4    6.252      30.264
2015   10       15    20  52    2.8236   422.4    6.252      30.263
2015   10       15    21   0    2.8239   422.4    6.252      30.262
2015   10       15    21   7    2.8242   422.4    6.251      30.261
2015   10       15    21  15    2.8245   422.3    6.251      30.259
2015   10       15    21  22    2.8247   422.3    6.250      30.256
2015   10       15    21  30    2.8249   422.3    6.249      30.253
2015   10       15    21  37    2.8252   422.3    6.248      30.250
2015   10       15    21  45    2.8254   422.3    6.247      30.246
2015   10       15    21  52    2.8256   422.3    6.246      30.242
2015   10       15    22   0    2.8258   422.3    6.245      30.238
2015   10       15    22   7    2.8259   422.3    6.244      30.233
2015   10       15    22  15    2.8261   422.3    6.243      30.228
2015   10       15    22  22    2.8263   422.3    6.241      30.223
2015   10       15    22  30    2.8264   422.3    6.240      30.217
2015   10       15    22  37    2.8266   422.3    6.238      30.211
2015   10       15    22  45    2.8267   422.3    6.237      30.205
2015   10       15    22  52    2.8268   422.3    6.235      30.198
2015   10       15    23   0    2.8269   422.3    6.234      30.192
2015   10       15    23   7    2.8270   422.3    6.232      30.185
2015   10       15    23  15    2.8271   422.3    6.231      30.177
2015   10       15    23  22    2.8272   422.3    6.229      30.170
2015   10       15    23  30    2.8273   422.3    6.228      30.162
2015   10       15    23  37    2.8274   422.3    6.226      30.155
2015   10       15    23  45    2.8275   422.3    6.225      30.147
2015   10       15    23  52    2.8276   422.3    6.223      30.139
2015   10       16     0   0    2.8276   422.2    6.222      30.131
2015   10       16     0   7    2.8277   422.2    6.221      30.122
2015   10       16     0  15    2.8278   422.2    6.219      30.114
2015   10       16     0  22    2.8279   422.2    6.218      30.106
2015   10       16     0  30    2.8279   422.2    6.217      30.098
2015   10       16     0  37    2.8280   422.2    6.217      30.091
2015   10       16     0  45    2.8281   422.2    6.216      30.083
2015   10       16     0  52    2.8283   422.1    6.216      30.076
2015   10       16     1   0    2.8284   422.1    6.215      30.069
2015   10       16     1   7    2.8285   422.1    6.215      30.063
2015   10       16     1  15    2.8287   422.1    6.216      30.057
2015   10       16     1  22    2.8289   422.1    6.216      30.052
2015   10       16     1  30    2.8292   422.0    6.217      30.048
2015   10       16     1  37    2.8295   422.0    6.219      30.045
2015   10       16     1  45    2.8298   422.0    6.220      30.043
2015   10       16     1  52    2.8302   422.0    6.222      30.042
2015   10       16     2   0    2.8306   421.9    6.224      30.043
2015   10       16     2   7    2.8310   421.9    6.227      30.044
2015   10       16     2  15    2.8316   421.9    6.230      30.046
2015   10       16     2  22    2.8321   421.9    6.233      30.050
2015   10       16     2  30    2.8327   421.8    6.237      30.055
2015   10       16     2  37    2.8333   421.8    6.241      30.062
2015   10       16     2  45    2.8340   421.8    6.244      30.070
2015   10       16     2  52    2.8346   421.8    6.248      30.078
2015   10       16     3   0    2.8352   421.8    6.252      30.088
2015   10       16     3   7    2.8359   421.8    6.255      30.097
2015   10       16     3  15    2.8365   421.8    6.259      30.107
2015   10       16     3  23    2.8372   421.7    6.263      30.116
2015   10       16     3  30    2.8378   421.7    6.266      30.125
2015   10       16     3  38    2.8384   421.7    6.269      30.134
2015   10       16     3  45    2.8390   421.7    6.272      30.143
2015   10       16     3  53    2.8395   421.7    6.275      30.151
2015   10       16     4   0    2.8399   421.7    6.277      30.158
2015   10       16     4   8    2.8404   421.7    6.279      30.164
2015   10       16     4  15    2.8408   421.7    6.281      30.169
2015   10       16     4  23    2.8412   421.7    6.282      30.173
2015   10       16     4  30    2.8415   421.7    6.284      30.176
2015   10       16     4  38    2.8419   421.7    6.285      30.179
2015   10       16     4  45    2.8422   421.6    6.286      30.180
2015   10       16     4  53    2.8425   421.6    6.286      30.182
2015   10       16     5   0    2.8427   421.6    6.287      30.182
2015   10       16     5   8    2.8430   421.6    6.288      30.182
2015   10       16     5  15    2.8432   421.6    6.288      30.181
2015   10       16     5  23    2.8434   421.6    6.288      30.180
2015   10       16     5  30    2.8436   421.6    6.288      30.178
2015   10       16     5  38    2.8438   421.6    6.288      30.176
2015   10       16     5  45    2.8440   421.6    6.288      30.174
2015   10       16     5  53    2.8441   421.6    6.288      30.171
2015   10       16     6   0    2.8443   421.6    6.287      30.168
2015   10       16     6   8    2.8445   421.6    6.287      30.164
2015   10       16     6  15    2.8446   421.5    6.286      30.160
2015   10       16     6  23    2.8447   421.5    6.286      30.156
2015   10       16     6  30    2.8449   421.5    6.285      30.151
2015   10       16     6  38    2.8450   421.5    6.285      30.147
2015   10       16     6  45    2.8451   421.5    6.284      30.142
2015   10       16     6  53    2.8452   421.5    6.283      30.137
2015   10       16     7   0    2.8453   421.5    6.282      30.131
2015   10       16     7   8    2.8454   421.5    6.282      30.125
2015   10       16     7  15    2.8455   421.4    6.281      30.119
2015   10       16     7  23    2.8457   421.4    6.280      30.113
2015   10       16     7  30    2.8457   421.4    6.279      30.107
2015   10       16     7  38    2.8458   421.4    6.278      30.101
2015   10       16     7  45    2.8460   421.4    6.277      30.094
2015   10       16     7  53    2.8460   421.4    6.276      30.088
2015   10       16     8   0    2.8462   421.3    6.276      30.081
2015   10       16     8   8    2.8463   421.3    6.275      30.075
2015   10       16     8  15    2.8464   421.3    6.274      30.068
2015   10       16     8  23    2.8465   421.3    6.274      30.062
2015   10       16     8  30    2.8466   421.3    6.273      30.056
2015   10       16     8  38    2.8468   421.2    6.273      30.050
2015   10       16     8  45    2.8469   421.2    6.273      30.044
2015   10       16     8  53    2.8471   421.2    6.273      30.039
2015   10       16     9   0    2.8473   421.2    6.273      30.035
2015   10       16     9   8    2.8475   421.1    6.274      30.031
2015   10       16     9  15    2.8478   421.1    6.275      30.027
2015   10       16     9  23    2.8480   421.1    6.275      30.025
2015   10       16     9  31    2.8483   421.0    6.277      30.023
2015   10       16     9  38    2.8487   421.0    6.278      30.022
2015   10       16     9  46    2.8491   421.0    6.280      30.021
2015   10       16     9  53    2.8495   421.0    6.282      30.022
2015   10       16    10   1    2.8499   420.9    6.284      30.024
2015   10       16    10   8    2.8504   420.9    6.287      30.027
2015   10       16    10  16    2.8509   420.9    6.290      30.030
2015   10       16    10  23    2.8514   420.8    6.293      30.034
2015   10       16    10  31    2.8520   420.8    6.296      30.040
2015   10       16    10  38    2.8526   420.8    6.300      30.046
2015   10       16    10  46    2.8532   420.7    6.303      30.053
2015   10       16    10  53    2.8538   420.7    6.307      30.060
2015   10       16    11   1    2.8544   420.7    6.310      30.068
2015   10       16    11   8    2.8549   420.7    6.314      30.076
2015   10       16    11  16    2.8555   420.6    6.317      30.084
2015   10       16    11  23    2.8561   420.6    6.321      30.091
2015   10       16    11  31    2.8566   420.6    6.324      30.098
2015   10       16    11  38    2.8571   420.6    6.327      30.105
2015   10       16    11  46    2.8577   420.5    6.331      30.111
2015   10       16    11  53    2.8582   420.5    6.334      30.118
2015   10       16    12   1    2.8587   420.5    6.337      30.124
2015   10       16    12   8    2.8592   420.4    6.340      30.130
2015   10       16    12  16    2.8598   420.4    6.343      30.135
2015   10       16    12  23    2.8602   420.4    6.345      30.140
2015   10       16    12  31    2.8607   420.4    6.348      30.145
2015   10       16    12  38    2.8612   420.3    6.351      30.149
2015   10       16    12  46    2.8616   420.3    6.353      30.152
2015   10       16    12  53    2.8621   420.3    6.355      30.155
2015   10       16    13   1    2.8625   420.3    6.357      30.158
2015   10       16    13   8    2.8629   420.2    6.359      30.160
2015   10       16    13  16    2.8633   420.2    6.361      30.161
2015   10       16    13  23    2.8637   420.2    6.363      30.162
2015   10       16    13  31    2.8641   420.2    6.365      30.163
2015   10       16    13  38    2.8644   420.1    6.366      30.163
2015   10       16    13  46    2.8648   420.1    6.368      30.163
2015   10       16    13  53    2.8651   420.1    6.369      30.162
2015   10       16    14   1    2.8655   420.1    6.371      30.161
2015   10       16    14   8    2.8658   420.0    6.372      30.160
2015   10       16    14  16    2.8661   420.0    6.373      30.159
2015   10       16    14  23    2.8664   420.0    6.374      30.157
2015   10       16    14  31    2.8668   420.0    6.375      30.155
2015   10       16    14  38    2.8671   419.9    6.376      30.153
2015   10       16    14  46    2.8674   419.9    6.377      30.150
2015   10       16    14  53    2.8677   419.9    6.378      30.147
2015   10       16    15   1    2.8680   419.9    6.379      30.144
2015   10       16    15   8    2.8683   419.8    6.380      30.141
2015   10       16    15  16    2.8686   419.8    6.381      30.137
2015   10       16    15  23    2.8689   419.8    6.382      30.134
2015   10       16    15  31    2.8691   419.8    6.383      30.130
2015   10       16    15  38    2.8694   419.7    6.383      30.126
2015   10       16    15  46    2.8697   419.7    6.384      30.122
2015   10       16    15  53    2.8700   419.7    6.385      30.118
2015   10       16    16   1    2.8702   419.7    6.386      30.114
2015   10       16    16   9    2.8705   419.6    6.386      30.109
2015   10       16    16  16    2.8708   419.6    6.387      30.105
2015   10       16    16  24    2.8710   419.6    6.388      30.101
2015   10       16    16  31    2.8713   419.5    6.389      30.097
2015   10       16    16  39    2.8715   419.5    6.390      30.093
2015   10       16    16  46    2.8718   419.5    6.391      30.089
2015   10       16    16  54    2.8721   419.4    6.392      30.085
2015   10       16    17   1    2.8723   419.4    6.393      30.081
2015   10       16    17   9    2.8726   419.4    6.394      30.078
2015   10       16    17  16    2.8729   419.3    6.395      30.075
2015   10       16    17  24    2.8732   419.3    6.397      30.073
2015   10       16    17  31    2.8735   419.3    6.398      30.070
2015   10       16    17  39    2.8738   419.2    6.400      30.068
2015   10       16    17  46    2.8741   419.2    6.402      30.067
2015   10       16    17  54    2.8744   419.1    6.403      30.066
2015   10       16    18   1    2.8748   419.1    6.406      30.065
2015   10       16    18   9    2.8751   419.0    6.408      30.064
2015   10       16    18  16    2.8755   419.0    6.410      30.065
2015   10       16    18  24    2.8758   418.9    6.413      30.065
2015   10       16    18  31    2.8763   418.9    6.415      30.066
2015   10       16    18  39    2.8767   418.9    6.418      30.068
2015   10       16    18  46    2.8771   418.8    6.421      30.070
2015   10       16    18  54    2.8775   418.8    6.424      30.072
2015   10       16    19   2    2.8780   418.7    6.427      30.074
2015   10       16    19   9    2.8785   418.7    6.431      30.077
2015   10       16    19  17    2.8790   418.6    6.434      30.081
2015   10       16    19  24    2.8794   418.6    6.437      30.084
2015   10       16    19  32    2.8799   418.5    6.441      30.087
2015   10       16    19  39    2.8805   418.5    6.444      30.091
2015   10       16    19  47    2.8809   418.4    6.448      30.094
2015   10       16    19  54    2.8815   418.4    6.451      30.098
2015   10       16    20   2    2.8819   418.3    6.454      30.100
2015   10       16    20   9    2.8824   418.3    6.457      30.103
2015   10       16    20  17    2.8830   418.2    6.460      30.105
2015   10       16    20  24    2.8835   418.2    6.463      30.107
2015   10       16    20  32    2.8840   418.1    6.466      30.109
2015   10       16    20  39    2.8845   418.1    6.469      30.110
2015   10       16    20  47    2.8850   418.0    6.472      30.111
2015   10       16    20  54    2.8855   417.9    6.475      30.112
2015   10       16    21   2    2.8860   417.9    6.478      30.113
2015   10       16    21   9    2.8865   417.8    6.481      30.113
2015   10       16    21  17    2.8870   417.8    6.484      30.113
2015   10       16    21  24    2.8875   417.7    6.486      30.113
2015   10       16    21  32    2.8880   417.7    6.489      30.112
2015   10       16    21  39    2.8885   417.6    6.491      30.111
2015   10       16    21  47    2.8890   417.6    6.494      30.110
2015   10       16    21  54    2.8895   417.5    6.496      30.109
2015   10       16    22   2    2.8900   417.5    6.499      30.107
2015   10       16    22   9    2.8905   417.4    6.501      30.105
2015   10       16    22  17    2.8910   417.4    6.503      30.103
2015   10       16    22  24    2.8915   417.3    6.506      30.100
2015   10       16    22  32    2.8920   417.3    6.508      30.097
2015   10       16    22  39    2.8925   417.2    6.510      30.094
2015   10       16    22  47    2.8930   417.1    6.512      30.091
2015   10       16    22  54    2.8934   417.1    6.515      30.087
2015   10       16    23   2    2.8939   417.0    6.517      30.084
2015   10       16    23   9    2.8944   417.0    6.519      30.080
2015   10       16    23  17    2.8949   416.9    6.521      30.076
2015   10       16    23  24    2.8953   416.9    6.523      30.071
2015   10       16    23  32    2.8958   416.8    6.526      30.067
2015   10       16    23  39    2.8963   416.7    6.528      30.062
2015   10       16    23  47    2.8967   416.7    6.530      30.058
2015   10       16    23  54    2.8972   416.6    6.532      30.053
2015   10       17     0   2    2.8977   416.5    6.534      30.048
2015   10       17     0   9    2.8981   416.5    6.537      30.043
2015   10       17     0  17    2.8986   416.4    6.539      30.038
2015   10       17     0  24    2.8991   416.3    6.542      30.033
2015   10       17     0  32    2.8996   416.3    6.544      30.028
2015   10       17     0  39    2.9001   416.2    6.547      30.024
2015   10       17     0  47    2.9006   416.1    6.549      30.019
2015   10       17     0  54    2.9011   416.1    6.552      30.014
2015   10       17     1   2    2.9016   416.0    6.555      30.010
2015   10       17     1  10    2.9021   415.9    6.558      30.006
2015   10       17     1  17    2.9026   415.8    6.561      30.002
2015   10       17     1  25    2.9032   415.8    6.564      29.997
2015   10       17     1  32    2.9038   415.7    6.567      29.994
2015   10       17     1  40    2.9043   415.6    6.570      29.990
2015   10       17     1  47    2.9049   415.5    6.573      29.987
2015   10       17     1  55    2.9055   415.5    6.577      29.983
2015   10       17     2   2    2.9062   415.4    6.580      29.980
2015   10       17     2  10    2.9068   415.3    6.584      29.977
2015   10       17     2  17    2.9075   415.2    6.588      29.975
2015   10       17     2  25    2.9082   415.1    6.592      29.972
2015   10       17     2  32    2.9089   415.0    6.595      29.969
2015   10       17     2  40    2.9096   415.0    6.599      29.967
2015   10       17     2  47    2.9104   414.9    6.603      29.965
2015   10       17     2  55    2.9112   414.8    6.607      29.963
2015   10       17     3   2    2.9120   414.7    6.612      29.960
2015   10       17     3  10    2.9129   414.6    6.616      29.958
2015   10       17     3  17    2.9138   414.5    6.620      29.956
2015   10       17     3  25    2.9147   414.4    6.624      29.954
2015   10       17     3  32    2.9156   414.4    6.629      29.952
2015   10       17     3  40    2.9166   414.3    6.633      29.950
2015   10       17     3  47    2.9176   414.2    6.637      29.948
2015   10       17     3  55    2.9186   414.1    6.642      29.946
2015   10       17     4   2    2.9197   414.0    6.646      29.944
2015   10       17     4  10    2.9208   413.9    6.651      29.942
2015   10       17     4  17    2.9219   413.8    6.655      29.940
2015   10       17     4  25    2.9230   413.7    6.660      29.938
2015   10       17     4  32    2.9242   413.6    6.664      29.935
2015   10       17     4  40    2.9255   413.5    6.669      29.933
2015   10       17     4  47    2.9267   413.4    6.674      29.930
2015   10       17     4  55    2.9280   413.3    6.679      29.928
2015   10       17     5   2    2.9293   413.3    6.683      29.925
2015   10       17     5  10    2.9306   413.2    6.688      29.923
2015   10       17     5  17    2.9319   413.1    6.693      29.920
2015   10       17     5  25    2.9333   413.0    6.698      29.917
2015   10       17     5  32    2.9347   412.9    6.703      29.915
2015   10       17     5  40    2.9361   412.8    6.708      29.912
2015   10       17     5  47    2.9376   412.7    6.713      29.909
2015   10       17     5  55    2.9390   412.6    6.719      29.907
2015   10       17     6   2    2.9405   412.5    6.724      29.904
2015   10       17     6  10    2.9420   412.4    6.729      29.901
2015   10       17     6  17    2.9435   412.3    6.735      29.899
2015   10       17     6  25    2.9450   412.2    6.741      29.897
2015   10       17     6  32    2.9466   412.1    6.746      29.894
2015   10       17     6  40    2.9481   411.9    6.752      29.892
2015   10       17     6  47    2.9497   411.8    6.758      29.890
2015   10       17     6  55    2.9513   411.7    6.764      29.888
2015   10       17     7   2    2.9529   411.6    6.770      29.886
2015   10       17     7  10    2.9546   411.5    6.777      29.884
2015   10       17     7  17    2.9563   411.4    6.783      29.883
2015   10       17     7  25    2.9579   411.3    6.790      29.882
2015   10       17     7  33    2.9597   411.2    6.796      29.881
2015   10       17     7  40    2.9614   411.1    6.803      29.880
2015   10       17     7  48    2.9632   411.0    6.810      29.879
2015   10       17     7  55    2.9650   410.8    6.818      29.879
2015   10       17     8   3    2.9669   410.7    6.825      29.879
2015   10       17     8  10    2.9688   410.6    6.832      29.879
2015   10       17     8  18    2.9707   410.5    6.840      29.879
2015   10       17     8  25    2.9727   410.4    6.848      29.880
2015   10       17     8  33    2.9747   410.3    6.856      29.881
2015   10       17     8  40    2.9768   410.2    6.864      29.883
2015   10       17     8  48    2.9789   410.0    6.872      29.884
2015   10       17     8  55    2.9811   409.9    6.880      29.886
2015   10       17     9   3    2.9834   409.8    6.889      29.888
2015   10       17     9  10    2.9857   409.7    6.898      29.890
2015   10       17     9  18    2.9881   409.6    6.906      29.893
2015   10       17     9  25    2.9905   409.5    6.915      29.896
2015   10       17     9  33    2.9931   409.4    6.925      29.899
2015   10       17     9  40    2.9956   409.2    6.934      29.903
2015   10       17     9  48    2.9984   409.1    6.944      29.906
2015   10       17     9  55    3.0011   409.0    6.953      29.910
2015   10       17    10   3    3.0040   408.9    6.963      29.915
2015   10       17    10  10    3.0070   408.8    6.973      29.920
2015   10       17    10  18    3.0101   408.7    6.984      29.925
2015   10       17    10  25    3.0133   408.5    6.994      29.930
2015   10       17    10  33    3.0166   408.4    7.005      29.936
2015   10       17    10  40    3.0200   408.3    7.016      29.943
2015   10       17    10  48    3.0236   408.2    7.027      29.950
2015   10       17    10  55    3.0272   408.1    7.038      29.957
2015   10       17    11   3    3.0310   408.0    7.050      29.965
2015   10       17    11  10    3.0348   407.8    7.061      29.973
2015   10       17    11  18    3.0388   407.7    7.073      29.982
2015   10       17    11  25    3.0428   407.6    7.086      29.992
2015   10       17    11  33    3.0469   407.5    7.098      30.002
2015   10       17    11  40    3.0510   407.4    7.111      30.013
2015   10       17    11  48    3.0553   407.3    7.124      30.024
2015   10       17    11  55    3.0594   407.2    7.137      30.036
2015   10       17    12   3    3.0637   407.1    7.150      30.049
2015   10       17    12  10    3.0679   407.0    7.164      30.063
2015   10       17    12  18    3.0722   406.8    7.178      30.076
2015   10       17    12  25    3.0765   406.7    7.192      30.091
2015   10       17    12  33    3.0809   406.6    7.206      30.107
2015   10       17    12  40    3.0852   406.5    7.220      30.122
2015   10       17    12  48    3.0896   406.4    7.235      30.139
2015   10       17    12  55    3.0941   406.3    7.250      30.156
2015   10       17    13   3    3.0985   406.2    7.264      30.174
2015   10       17    13  10    3.1030   406.1    7.279      30.192
2015   10       17    13  18    3.1075   406.0    7.294      30.211
2015   10       17    13  25    3.1120   405.9    7.310      30.230
2015   10       17    13  33    3.1166   405.8    7.325      30.250
2015   10       17    13  40    3.1212   405.7    7.340      30.270
2015   10       17    13  48    3.1258   405.6    7.355      30.291
2015   10       17    13  56    3.1305   405.5    7.371      30.312
2015   10       17    14   3    3.1352   405.4    7.386      30.334
2015   10       17    14  11    3.1399   405.3    7.402      30.355
2015   10       17    14  18    3.1446   405.2    7.417      30.377
2015   10       17    14  26    3.1494   405.1    7.433      30.399
2015   10       17    14  33    3.1543   405.0    7.448      30.422
2015   10       17    14  41    3.1592   404.9    7.464      30.444
2015   10       17    14  48    3.1642   404.8    7.480      30.467
2015   10       17    14  56    3.1692   404.6    7.496      30.490
2015   10       17    15   3    3.1743   404.5    7.512      30.512
2015   10       17    15  11    3.1794   404.4    7.528      30.535
2015   10       17    15  18    3.1847   404.3    7.544      30.559
2015   10       17    15  26    3.1900   404.2    7.561      30.582
2015   10       17    15  33    3.1955   404.1    7.577      30.605
2015   10       17    15  41    3.2010   404.0    7.595      30.628
2015   10       17    15  48    3.2067   403.9    7.612      30.652
2015   10       17    15  56    3.2125   403.8    7.630      30.676
2015   10       17    16   3    3.2185   403.6    7.649      30.701
2015   10       17    16  11    3.2247   403.5    7.668      30.726
2015   10       17    16  18    3.2311   403.4    7.688      30.752
2015   10       17    16  26    3.2377   403.3    7.709      30.779
2015   10       17    16  33    3.2446   403.2    7.730      30.807
2015   10       17    16  41    3.2517   403.1    7.753      30.837
2015   10       17    16  49    3.2592   403.0    7.778      30.870
2015   10       17    16  56    3.2670   402.8    7.803      30.904
2015   10       17    17   4    3.2752   402.7    7.831      30.940
2015   10       17    17  11    3.2837   402.6    7.860      30.979
2015   10       17    17  19    3.2927   402.5    7.891      31.023
2015   10       17    17  26    3.3020   402.4    7.923      31.073
2015   10       17    17  34    3.3118   402.4    7.957      31.127
2015   10       17    17  41    3.3219   402.3    7.992      31.185
2015   10       17    17  49    3.3325   402.2    8.029      31.246
2015   10       17    17  56    3.3432   402.2    8.068      31.313
2015   10       17    18   4    3.3542   402.2    8.106      31.388
2015   10       17    18  11    3.3653   402.2    8.145      31.467
2015   10       17    18  19    3.3764   402.2    8.184      31.552
2015   10       17    18  26    3.3873   402.2    8.221      31.643
2015   10       17    18  34    3.3983   402.3    8.257      31.738
2015   10       17    18  41    3.4090   402.3    8.292      31.832
2015   10       17    18  49    3.4198   402.4    8.326      31.923
2015   10       17    18  56    3.4302   402.4    8.358      32.011
2015   10       17    19   4    3.4406   402.5    8.389      32.095
2015   10       17    19  11    3.4506   402.5    8.418      32.176
2015   10       17    19  19    3.4607   402.6    8.446      32.255
2015   10       17    19  26    3.4704   402.6    8.473      32.330
2015   10       17    19  34    3.4802   402.6    8.500      32.403
2015   10       17    19  41    3.4898   402.7    8.525      32.474
2015   10       17    19  49    3.4995   402.7    8.550      32.544
2015   10       17    19  56    3.5090   402.8    8.575      32.611
2015   10       17    20   4    3.5186   402.8    8.599      32.678
2015   10       17    20  11    3.5281   402.8    8.623      32.744
2015   10       17    20  19    3.5377   402.8    8.646      32.809
2015   10       17    20  26    3.5472   402.9    8.670      32.874
2015   10       17    20  34    3.5568   402.9    8.693      32.938
2015   10       17    20  41    3.5664   402.9    8.715      33.002
2015   10       17    20  49    3.5760   402.9    8.738      33.066
2015   10       17    20  56    3.5856   403.0    8.760      33.130
2015   10       17    21   4    3.5953   403.0    8.782      33.194
2015   10       17    21  11    3.6049   403.0    8.804      33.257
2015   10       17    21  19    3.6147   403.0    8.826      33.319
2015   10       17    21  26    3.6245   403.0    8.847      33.382
2015   10       17    21  34    3.6343   403.1    8.869      33.444
2015   10       17    21  41    3.6442   403.1    8.890      33.506
2015   10       17    21  49    3.6543   403.1    8.912      33.568
2015   10       17    21  56    3.6643   403.2    8.933      33.630
2015   10       17    22   4    3.6745   403.2    8.955      33.692
2015   10       17    22  11    3.6847   403.2    8.976      33.755
2015   10       17    22  19    3.6951   403.2    8.998      33.819
2015   10       17    22  26    3.7056   403.3    9.021      33.884
2015   10       17    22  34    3.7162   403.3    9.043      33.950
2015   10       17    22  41    3.7269   403.4    9.066      34.017
2015   10       17    22  49    3.7379   403.4    9.090      34.086
2015   10       17    22  56    3.7489   403.4    9.115      34.156
2015   10       17    23   4    3.7603   403.5    9.140      34.228
2015   10       17    23  12    3.7717   403.5    9.166      34.303
2015   10       17    23  19    3.7834   403.6    9.194      34.380
2015   10       17    23  27    3.7953   403.7    9.222      34.459
2015   10       17    23  34    3.8075   403.7    9.252      34.542
2015   10       17    23  42    3.8199   403.8    9.284      34.628
2015   10       17    23  49    3.8326   403.9    9.317      34.717
2015   10       17    23  57    3.8456   403.9    9.353      34.810
2015   10       18     0   4    3.8590   404.0    9.390      34.907
