year    month   day   hour  minute  B_enl V_enl   n_enl       T_enl
[year] [month] [day] [hour][minute] [nT]  [km/s]  [cm-3]      [kK]
2015   10       11     0   3    2.5641   515.0    3.273      35.318
2015   10       11     0   9    2.5654   514.7    3.279      35.294
2015   10       11     0  16    2.5668   514.3    3.284      35.269
2015   10       11     0  22    2.5682   514.0    3.290      35.244
2015   10       11     0  28    2.5696   513.7    3.296      35.220
2015   10       11     0  34    2.5710   513.3    3.301      35.196
2015   10       11     0  41    2.5725   513.0    3.307      35.172
2015   10       11     0  47    2.5739   512.7    3.313      35.148
2015   10       11     0  53    2.5755   512.4    3.319      35.125
2015   10       11     1   0    2.5770   512.1    3.324      35.102
2015   10       11     1   6    2.5785   511.8    3.330      35.079
2015   10       11     1  12    2.5801   511.4    3.336      35.056
2015   10       11     1  19    2.5817   511.1    3.342      35.033
2015   10       11     1  25    2.5833   510.8    3.348      35.011
2015   10       11     1  31    2.5850   510.5    3.354      34.989
2015   10       11     1  38    2.5866   510.2    3.360      34.968
2015   10       11     1  44    2.5883   509.9    3.366      34.946
2015   10       11     1  50    2.5900   509.6    3.372      34.924
2015   10       11     1  56    2.5917   509.3    3.379      34.903
2015   10       11     2   3    2.5934   509.0    3.385      34.882
2015   10       11     2   9    2.5951   508.7    3.391      34.861
2015   10       11     2  15    2.5969   508.4    3.397      34.840
2015   10       11     2  22    2.5987   508.1    3.403      34.820
2015   10       11     2  28    2.6004   507.8    3.410      34.799
2015   10       11     2  34    2.6023   507.4    3.416      34.779
2015   10       11     2  41    2.6041   507.1    3.422      34.759
2015   10       11     2  47    2.6059   506.8    3.429      34.739
2015   10       11     2  53    2.6078   506.5    3.435      34.720
2015   10       11     3   0    2.6097   506.2    3.441      34.700
2015   10       11     3   6    2.6116   506.0    3.448      34.681
2015   10       11     3  12    2.6135   505.7    3.454      34.663
2015   10       11     3  19    2.6155   505.4    3.461      34.644
2015   10       11     3  25    2.6175   505.1    3.467      34.626
2015   10       11     3  31    2.6195   504.8    3.474      34.609
2015   10       11     3  38    2.6216   504.5    3.481      34.592
2015   10       11     3  44    2.6236   504.2    3.487      34.575
2015   10       11     3  50    2.6258   503.9    3.494      34.559
2015   10       11     3  56    2.6279   503.6    3.501      34.544
2015   10       11     4   3    2.6301   503.3    3.508      34.529
2015   10       11     4   9    2.6323   503.0    3.515      34.514
2015   10       11     4  15    2.6346   502.7    3.522      34.500
2015   10       11     4  22    2.6369   502.5    3.529      34.487
2015   10       11     4  28    2.6392   502.2    3.536      34.474
2015   10       11     4  34    2.6416   501.9    3.543      34.462
2015   10       11     4  41    2.6440   501.6    3.550      34.451
2015   10       11     4  47    2.6464   501.3    3.558      34.440
2015   10       11     4  53    2.6488   501.1    3.565      34.430
2015   10       11     5   0    2.6513   500.8    3.572      34.420
2015   10       11     5   6    2.6538   500.5    3.580      34.411
2015   10       11     5  12    2.6564   500.3    3.587      34.402
2015   10       11     5  19    2.6589   500.0    3.595      34.394
2015   10       11     5  25    2.6615   499.7    3.602      34.386
2015   10       11     5  31    2.6641   499.5    3.610      34.379
2015   10       11     5  37    2.6667   499.2    3.617      34.372
2015   10       11     5  44    2.6693   498.9    3.625      34.366
2015   10       11     5  50    2.6719   498.7    3.633      34.359
2015   10       11     5  56    2.6746   498.4    3.640      34.353
2015   10       11     6   3    2.6772   498.2    3.648      34.348
2015   10       11     6   9    2.6799   497.9    3.655      34.343
2015   10       11     6  15    2.6825   497.6    3.663      34.338
2015   10       11     6  22    2.6852   497.4    3.671      34.333
2015   10       11     6  28    2.6879   497.1    3.679      34.328
2015   10       11     6  34    2.6907   496.9    3.686      34.324
2015   10       11     6  40    2.6934   496.6    3.694      34.320
2015   10       11     6  47    2.6961   496.4    3.702      34.317
2015   10       11     6  53    2.6988   496.2    3.710      34.313
2015   10       11     6  59    2.7016   495.9    3.717      34.310
2015   10       11     7   6    2.7044   495.7    3.725      34.307
2015   10       11     7  12    2.7072   495.4    3.733      34.305
2015   10       11     7  18    2.7099   495.2    3.741      34.303
2015   10       11     7  25    2.7128   494.9    3.749      34.301
2015   10       11     7  31    2.7156   494.7    3.757      34.299
2015   10       11     7  37    2.7184   494.5    3.765      34.298
2015   10       11     7  44    2.7212   494.2    3.773      34.298
2015   10       11     7  50    2.7241   494.0    3.781      34.298
2015   10       11     7  56    2.7270   493.8    3.789      34.299
2015   10       11     8   3    2.7299   493.5    3.797      34.300
2015   10       11     8   9    2.7327   493.3    3.805      34.301
2015   10       11     8  15    2.7357   493.1    3.813      34.304
2015   10       11     8  21    2.7386   492.8    3.822      34.306
2015   10       11     8  28    2.7416   492.6    3.830      34.310
2015   10       11     8  34    2.7445   492.4    3.838      34.314
2015   10       11     8  40    2.7475   492.2    3.847      34.319
2015   10       11     8  47    2.7505   491.9    3.855      34.324
2015   10       11     8  53    2.7535   491.7    3.863      34.329
2015   10       11     8  59    2.7565   491.5    3.872      34.336
2015   10       11     9   6    2.7596   491.3    3.880      34.343
2015   10       11     9  12    2.7626   491.1    3.889      34.350
2015   10       11     9  18    2.7657   490.8    3.897      34.358
2015   10       11     9  25    2.7688   490.6    3.906      34.367
2015   10       11     9  31    2.7720   490.4    3.915      34.376
2015   10       11     9  37    2.7751   490.2    3.923      34.385
2015   10       11     9  44    2.7783   490.0    3.932      34.395
2015   10       11     9  50    2.7815   489.8    3.941      34.405
2015   10       11     9  56    2.7847   489.6    3.949      34.416
2015   10       11    10   2    2.7879   489.4    3.958      34.427
2015   10       11    10   9    2.7912   489.2    3.967      34.439
2015   10       11    10  15    2.7945   489.0    3.976      34.451
2015   10       11    10  21    2.7978   488.8    3.984      34.463
2015   10       11    10  28    2.8012   488.6    3.993      34.476
2015   10       11    10  34    2.8045   488.4    4.002      34.489
2015   10       11    10  40    2.8079   488.2    4.011      34.502
2015   10       11    10  47    2.8114   488.0    4.020      34.516
2015   10       11    10  53    2.8148   487.8    4.028      34.529
2015   10       11    10  59    2.8183   487.6    4.037      34.544
2015   10       11    11   6    2.8218   487.4    4.046      34.558
2015   10       11    11  12    2.8254   487.2    4.055      34.572
2015   10       11    11  18    2.8289   487.0    4.064      34.586
2015   10       11    11  25    2.8326   486.9    4.073      34.601
2015   10       11    11  31    2.8362   486.7    4.082      34.615
2015   10       11    11  37    2.8398   486.5    4.090      34.630
2015   10       11    11  43    2.8435   486.3    4.099      34.644
2015   10       11    11  50    2.8472   486.2    4.108      34.659
2015   10       11    11  56    2.8509   486.0    4.117      34.674
2015   10       11    12   2    2.8546   485.8    4.126      34.688
2015   10       11    12   9    2.8584   485.6    4.135      34.703
2015   10       11    12  15    2.8621   485.5    4.144      34.718
2015   10       11    12  21    2.8659   485.3    4.153      34.732
2015   10       11    12  28    2.8697   485.2    4.162      34.747
2015   10       11    12  34    2.8735   485.0    4.171      34.762
2015   10       11    12  40    2.8773   484.8    4.180      34.776
2015   10       11    12  47    2.8811   484.7    4.189      34.791
2015   10       11    12  53    2.8849   484.5    4.198      34.806
2015   10       11    12  59    2.8887   484.4    4.208      34.821
2015   10       11    13   5    2.8925   484.2    4.217      34.836
2015   10       11    13  12    2.8963   484.1    4.226      34.852
2015   10       11    13  18    2.9001   483.9    4.235      34.867
2015   10       11    13  24    2.9039   483.8    4.244      34.883
2015   10       11    13  31    2.9077   483.6    4.253      34.899
2015   10       11    13  37    2.9114   483.5    4.263      34.916
2015   10       11    13  43    2.9152   483.3    4.272      34.932
2015   10       11    13  50    2.9190   483.2    4.281      34.950
2015   10       11    13  56    2.9228   483.0    4.291      34.967
2015   10       11    14   2    2.9266   482.9    4.300      34.985
2015   10       11    14   9    2.9304   482.8    4.310      35.004
2015   10       11    14  15    2.9342   482.6    4.320      35.023
2015   10       11    14  21    2.9380   482.5    4.329      35.043
2015   10       11    14  27    2.9418   482.4    4.339      35.064
2015   10       11    14  34    2.9456   482.2    4.349      35.086
2015   10       11    14  40    2.9494   482.1    4.359      35.108
2015   10       11    14  46    2.9532   482.0    4.368      35.132
2015   10       11    14  53    2.9570   481.9    4.378      35.157
2015   10       11    14  59    2.9607   481.7    4.388      35.183
2015   10       11    15   5    2.9645   481.6    4.398      35.211
2015   10       11    15  12    2.9683   481.5    4.408      35.239
2015   10       11    15  18    2.9721   481.4    4.417      35.270
2015   10       11    15  24    2.9759   481.3    4.427      35.301
2015   10       11    15  31    2.9796   481.2    4.436      35.334
2015   10       11    15  37    2.9834   481.1    4.446      35.367
2015   10       11    15  43    2.9872   481.0    4.455      35.401
2015   10       11    15  50    2.9910   480.8    4.465      35.435
2015   10       11    15  56    2.9948   480.7    4.474      35.469
2015   10       11    16   2    2.9985   480.6    4.483      35.503
2015   10       11    16   8    3.0023   480.5    4.492      35.537
2015   10       11    16  15    3.0061   480.4    4.501      35.571
2015   10       11    16  21    3.0099   480.3    4.511      35.604
2015   10       11    16  27    3.0137   480.2    4.520      35.637
2015   10       11    16  34    3.0175   480.2    4.528      35.670
2015   10       11    16  40    3.0213   480.1    4.537      35.702
2015   10       11    16  46    3.0251   480.0    4.546      35.734
2015   10       11    16  53    3.0289   479.9    4.555      35.767
2015   10       11    16  59    3.0328   479.8    4.564      35.798
2015   10       11    17   5    3.0366   479.7    4.572      35.830
2015   10       11    17  12    3.0404   479.6    4.581      35.861
2015   10       11    17  18    3.0442   479.5    4.589      35.893
2015   10       11    17  24    3.0480   479.4    4.598      35.923
2015   10       11    17  31    3.0519   479.4    4.606      35.954
2015   10       11    17  37    3.0557   479.3    4.614      35.985
2015   10       11    17  43    3.0596   479.2    4.623      36.015
2015   10       11    17  49    3.0634   479.1    4.631      36.045
2015   10       11    17  56    3.0672   479.0    4.639      36.075
2015   10       11    18   2    3.0711   479.0    4.647      36.104
2015   10       11    18   8    3.0749   478.9    4.654      36.133
2015   10       11    18  15    3.0788   478.8    4.662      36.161
2015   10       11    18  21    3.0826   478.7    4.670      36.188
2015   10       11    18  27    3.0865   478.7    4.678      36.216
2015   10       11    18  34    3.0903   478.6    4.685      36.243
2015   10       11    18  40    3.0942   478.5    4.693      36.269
2015   10       11    18  46    3.0980   478.4    4.701      36.295
2015   10       11    18  53    3.1019   478.4    4.708      36.321
2015   10       11    18  59    3.1058   478.3    4.716      36.346
2015   10       11    19   5    3.1096   478.2    4.723      36.371
2015   10       11    19  12    3.1135   478.2    4.731      36.396
2015   10       11    19  18    3.1174   478.1    4.739      36.421
2015   10       11    19  24    3.1213   478.0    4.746      36.445
2015   10       11    19  30    3.1252   478.0    4.754      36.470
2015   10       11    19  37    3.1291   477.9    4.762      36.494
2015   10       11    19  43    3.1330   477.8    4.770      36.519
2015   10       11    19  49    3.1369   477.8    4.777      36.544
2015   10       11    19  56    3.1408   477.7    4.785      36.569
2015   10       11    20   2    3.1448   477.6    4.793      36.595
2015   10       11    20   8    3.1487   477.6    4.801      36.621
2015   10       11    20  15    3.1526   477.5    4.809      36.648
2015   10       11    20  21    3.1565   477.5    4.817      36.676
2015   10       11    20  27    3.1604   477.4    4.825      36.705
2015   10       11    20  34    3.1642   477.4    4.833      36.734
2015   10       11    20  40    3.1681   477.3    4.841      36.765
2015   10       11    20  46    3.1719   477.3    4.849      36.797
2015   10       11    20  52    3.1757   477.3    4.856      36.830
2015   10       11    20  59    3.1795   477.2    4.864      36.864
2015   10       11    21   5    3.1832   477.2    4.872      36.897
2015   10       11    21  11    3.1869   477.1    4.879      36.931
2015   10       11    21  18    3.1907   477.1    4.887      36.966
2015   10       11    21  24    3.1944   477.1    4.895      37.000
2015   10       11    21  30    3.1980   477.0    4.902      37.034
2015   10       11    21  37    3.2017   477.0    4.910      37.068
2015   10       11    21  43    3.2054   477.0    4.917      37.101
2015   10       11    21  49    3.2090   476.9    4.925      37.136
2015   10       11    21  56    3.2127   476.9    4.932      37.170
2015   10       11    22   2    3.2163   476.8    4.940      37.204
2015   10       11    22   8    3.2199   476.8    4.947      37.238
2015   10       11    22  14    3.2235   476.8    4.954      37.273
2015   10       11    22  21    3.2271   476.8    4.962      37.308
2015   10       11    22  27    3.2307   476.7    4.969      37.344
2015   10       11    22  33    3.2343   476.7    4.976      37.380
2015   10       11    22  40    3.2378   476.7    4.983      37.417
2015   10       11    22  46    3.2413   476.7    4.990      37.455
2015   10       11    22  52    3.2449   476.6    4.997      37.492
2015   10       11    22  59    3.2483   476.6    5.003      37.531
2015   10       11    23   5    3.2518   476.6    5.010      37.568
2015   10       11    23  11    3.2553   476.6    5.016      37.606
2015   10       11    23  18    3.2587   476.5    5.022      37.643
2015   10       11    23  24    3.2622   476.5    5.028      37.679
2015   10       11    23  30    3.2656   476.5    5.034      37.715
2015   10       11    23  37    3.2690   476.5    5.040      37.749
2015   10       11    23  43    3.2724   476.5    5.046      37.783
2015   10       11    23  49    3.2757   476.4    5.051      37.816
2015   10       11    23  55    3.2791   476.4    5.057      37.848
2015   10       12     0   2    3.2824   476.4    5.063      37.879
2015   10       12     0   8    3.2858   476.4    5.068      37.910
2015   10       12     0  14    3.2891   476.4    5.073      37.941
2015   10       12     0  21    3.2924   476.3    5.079      37.971
2015   10       12     0  27    3.2957   476.3    5.084      38.000
2015   10       12     0  33    3.2990   476.3    5.089      38.029
2015   10       12     0  40    3.3023   476.3    5.094      38.058
2015   10       12     0  46    3.3056   476.3    5.100      38.086
2015   10       12     0  52    3.3088   476.3    5.105      38.115
2015   10       12     0  59    3.3121   476.3    5.110      38.142
2015   10       12     1   5    3.3153   476.2    5.115      38.170
2015   10       12     1  11    3.3186   476.2    5.120      38.197
2015   10       12     1  18    3.3218   476.2    5.125      38.225
2015   10       12     1  24    3.3250   476.2    5.130      38.252
2015   10       12     1  30    3.3283   476.2    5.135      38.279
2015   10       12     1  37    3.3315   476.2    5.140      38.306
2015   10       12     1  43    3.3347   476.2    5.145      38.332
2015   10       12     1  49    3.3379   476.2    5.150      38.359
2015   10       12     1  55    3.3411   476.2    5.155      38.386
2015   10       12     2   2    3.3443   476.2    5.160      38.412
2015   10       12     2   8    3.3474   476.2    5.165      38.439
2015   10       12     2  14    3.3506   476.2    5.170      38.466
2015   10       12     2  21    3.3538   476.2    5.175      38.492
2015   10       12     2  27    3.3569   476.2    5.181      38.519
2015   10       12     2  33    3.3601   476.2    5.186      38.546
2015   10       12     2  40    3.3632   476.2    5.191      38.572
2015   10       12     2  46    3.3664   476.2    5.196      38.599
2015   10       12     2  52    3.3695   476.2    5.201      38.627
2015   10       12     2  59    3.3727   476.2    5.207      38.654
2015   10       12     3   5    3.3758   476.2    5.212      38.681
2015   10       12     3  11    3.3789   476.2    5.217      38.709
2015   10       12     3  17    3.3820   476.2    5.223      38.737
2015   10       12     3  24    3.3851   476.2    5.228      38.766
2015   10       12     3  30    3.3882   476.2    5.233      38.795
2015   10       12     3  36    3.3912   476.2    5.239      38.825
2015   10       12     3  43    3.3943   476.2    5.244      38.855
2015   10       12     3  49    3.3973   476.3    5.249      38.886
2015   10       12     3  55    3.4003   476.3    5.254      38.918
2015   10       12     4   2    3.4032   476.3    5.259      38.951
2015   10       12     4   8    3.4062   476.3    5.264      38.983
2015   10       12     4  14    3.4091   476.3    5.268      39.017
2015   10       12     4  21    3.4121   476.3    5.273      39.050
2015   10       12     4  27    3.4150   476.4    5.278      39.083
2015   10       12     4  33    3.4179   476.4    5.282      39.117
2015   10       12     4  39    3.4208   476.4    5.287      39.151
2015   10       12     4  46    3.4237   476.4    5.291      39.184
2015   10       12     4  52    3.4266   476.5    5.296      39.218
2015   10       12     4  58    3.4295   476.5    5.300      39.252
2015   10       12     5   5    3.4323   476.5    5.304      39.285
2015   10       12     5  11    3.4352   476.5    5.308      39.317
2015   10       12     5  17    3.4380   476.5    5.311      39.349
2015   10       12     5  24    3.4407   476.6    5.315      39.380
2015   10       12     5  30    3.4435   476.6    5.319      39.411
2015   10       12     5  36    3.4462   476.6    5.322      39.441
2015   10       12     5  43    3.4489   476.6    5.326      39.470
2015   10       12     5  49    3.4516   476.7    5.329      39.499
2015   10       12     5  55    3.4543   476.7    5.332      39.527
2015   10       12     6   1    3.4569   476.7    5.335      39.555
2015   10       12     6   8    3.4595   476.7    5.338      39.582
2015   10       12     6  14    3.4621   476.8    5.341      39.608
2015   10       12     6  20    3.4647   476.8    5.344      39.635
2015   10       12     6  27    3.4673   476.8    5.347      39.660
2015   10       12     6  33    3.4698   476.8    5.350      39.686
2015   10       12     6  39    3.4723   476.9    5.352      39.711
2015   10       12     6  46    3.4748   476.9    5.355      39.735
2015   10       12     6  52    3.4773   476.9    5.357      39.759
2015   10       12     6  58    3.4797   476.9    5.360      39.783
2015   10       12     7   5    3.4822   477.0    5.362      39.807
2015   10       12     7  11    3.4846   477.0    5.364      39.830
2015   10       12     7  17    3.4870   477.0    5.367      39.853
2015   10       12     7  23    3.4894   477.1    5.369      39.876
2015   10       12     7  30    3.4917   477.1    5.371      39.899
2015   10       12     7  36    3.4941   477.1    5.373      39.921
2015   10       12     7  42    3.4964   477.1    5.375      39.943
2015   10       12     7  49    3.4987   477.2    5.377      39.965
2015   10       12     7  55    3.5010   477.2    5.379      39.987
2015   10       12     8   1    3.5033   477.2    5.381      40.009
2015   10       12     8   8    3.5056   477.2    5.383      40.030
2015   10       12     8  14    3.5078   477.3    5.385      40.052
2015   10       12     8  20    3.5101   477.3    5.387      40.073
2015   10       12     8  27    3.5123   477.3    5.389      40.094
2015   10       12     8  33    3.5145   477.4    5.391      40.115
2015   10       12     8  39    3.5168   477.4    5.393      40.136
2015   10       12     8  45    3.5190   477.4    5.395      40.157
2015   10       12     8  52    3.5212   477.5    5.397      40.178
2015   10       12     8  58    3.5233   477.5    5.399      40.199
2015   10       12     9   4    3.5255   477.5    5.401      40.220
2015   10       12     9  11    3.5276   477.5    5.403      40.240
2015   10       12     9  17    3.5298   477.6    5.405      40.261
2015   10       12     9  23    3.5319   477.6    5.407      40.281
2015   10       12     9  30    3.5340   477.6    5.408      40.301
2015   10       12     9  36    3.5361   477.7    5.410      40.321
2015   10       12     9  42    3.5382   477.7    5.412      40.341
2015   10       12     9  49    3.5403   477.7    5.414      40.361
2015   10       12     9  55    3.5424   477.8    5.416      40.381
2015   10       12    10   1    3.5445   477.8    5.418      40.400
2015   10       12    10   7    3.5465   477.8    5.420      40.420
2015   10       12    10  14    3.5486   477.9    5.422      40.440
2015   10       12    10  20    3.5506   477.9    5.423      40.459
2015   10       12    10  26    3.5527   478.0    5.425      40.479
2015   10       12    10  33    3.5547   478.0    5.427      40.499
2015   10       12    10  39    3.5567   478.0    5.429      40.520
2015   10       12    10  45    3.5587   478.1    5.430      40.541
2015   10       12    10  52    3.5607   478.1    5.432      40.561
2015   10       12    10  58    3.5626   478.1    5.433      40.582
2015   10       12    11   4    3.5646   478.2    5.435      40.602
2015   10       12    11  11    3.5665   478.2    5.436      40.623
2015   10       12    11  17    3.5685   478.3    5.437      40.642
2015   10       12    11  23    3.5704   478.3    5.439      40.662
2015   10       12    11  29    3.5723   478.3    5.440      40.681
2015   10       12    11  36    3.5742   478.4    5.441      40.700
2015   10       12    11  42    3.5761   478.4    5.442      40.718
2015   10       12    11  48    3.5780   478.4    5.444      40.737
2015   10       12    11  55    3.5799   478.5    5.445      40.755
2015   10       12    12   1    3.5818   478.5    5.446      40.773
2015   10       12    12   7    3.5837   478.6    5.448      40.791
2015   10       12    12  14    3.5856   478.6    5.449      40.809
2015   10       12    12  20    3.5874   478.6    5.450      40.826
2015   10       12    12  26    3.5893   478.7    5.452      40.843
2015   10       12    12  33    3.5912   478.7    5.454      40.861
2015   10       12    12  39    3.5931   478.7    5.455      40.878
2015   10       12    12  45    3.5950   478.8    5.457      40.895
2015   10       12    12  52    3.5969   478.8    5.459      40.913
2015   10       12    12  58    3.5988   478.8    5.461      40.930
2015   10       12    13   4    3.6007   478.9    5.463      40.947
2015   10       12    13  10    3.6025   478.9    5.465      40.965
2015   10       12    13  17    3.6044   478.9    5.467      40.983
2015   10       12    13  23    3.6063   479.0    5.469      41.001
2015   10       12    13  29    3.6081   479.0    5.471      41.020
2015   10       12    13  36    3.6099   479.0    5.473      41.039
2015   10       12    13  42    3.6117   479.1    5.476      41.059
2015   10       12    13  48    3.6134   479.1    5.478      41.079
2015   10       12    13  55    3.6151   479.2    5.480      41.100
2015   10       12    14   1    3.6168   479.2    5.482      41.122
2015   10       12    14   7    3.6185   479.3    5.484      41.145
2015   10       12    14  14    3.6202   479.3    5.486      41.167
2015   10       12    14  20    3.6218   479.3    5.488      41.190
2015   10       12    14  26    3.6234   479.4    5.489      41.213
2015   10       12    14  32    3.6249   479.4    5.490      41.235
2015   10       12    14  39    3.6265   479.5    5.492      41.256
2015   10       12    14  45    3.6280   479.5    5.493      41.277
2015   10       12    14  51    3.6295   479.6    5.494      41.297
2015   10       12    14  58    3.6309   479.6    5.494      41.316
2015   10       12    15   4    3.6324   479.7    5.495      41.335
2015   10       12    15  10    3.6338   479.7    5.496      41.353
2015   10       12    15  17    3.6353   479.8    5.496      41.370
2015   10       12    15  23    3.6367   479.8    5.496      41.387
2015   10       12    15  29    3.6381   479.9    5.497      41.404
2015   10       12    15  36    3.6394   479.9    5.497      41.420
2015   10       12    15  42    3.6408   480.0    5.497      41.435
2015   10       12    15  48    3.6422   480.0    5.497      41.450
2015   10       12    15  54    3.6435   480.1    5.497      41.465
2015   10       12    16   1    3.6449   480.1    5.497      41.479
2015   10       12    16   7    3.6462   480.2    5.496      41.492
2015   10       12    16  13    3.6475   480.2    5.496      41.506
2015   10       12    16  20    3.6488   480.3    5.496      41.519
2015   10       12    16  26    3.6502   480.3    5.496      41.531
2015   10       12    16  32    3.6515   480.4    5.495      41.543
2015   10       12    16  39    3.6528   480.4    5.495      41.555
2015   10       12    16  45    3.6540   480.4    5.494      41.566
2015   10       12    16  51    3.6553   480.5    5.494      41.577
2015   10       12    16  58    3.6566   480.5    5.493      41.588
2015   10       12    17   4    3.6579   480.6    5.493      41.599
2015   10       12    17  10    3.6591   480.6    5.492      41.609
2015   10       12    17  16    3.6604   480.7    5.491      41.619
2015   10       12    17  23    3.6616   480.7    5.491      41.629
2015   10       12    17  29    3.6629   480.8    5.490      41.639
2015   10       12    17  35    3.6641   480.8    5.489      41.648
2015   10       12    17  42    3.6653   480.9    5.489      41.658
2015   10       12    17  48    3.6665   480.9    5.488      41.667
2015   10       12    17  54    3.6677   481.0    5.487      41.676
2015   10       12    18   1    3.6690   481.0    5.487      41.686
2015   10       12    18   7    3.6702   481.1    5.486      41.695
2015   10       12    18  13    3.6714   481.1    5.485      41.704
2015   10       12    18  20    3.6726   481.1    5.485      41.714
2015   10       12    18  26    3.6738   481.2    5.484      41.723
2015   10       12    18  32    3.6750   481.2    5.484      41.733
2015   10       12    18  38    3.6762   481.3    5.484      41.743
2015   10       12    18  45    3.6774   481.3    5.483      41.752
2015   10       12    18  51    3.6786   481.4    5.483      41.763
2015   10       12    18  57    3.6798   481.4    5.483      41.773
2015   10       12    19   4    3.6810   481.5    5.483      41.784
2015   10       12    19  10    3.6823   481.5    5.483      41.795
2015   10       12    19  16    3.6835   481.6    5.483      41.806
2015   10       12    19  23    3.6847   481.6    5.484      41.818
2015   10       12    19  29    3.6860   481.6    5.484      41.830
2015   10       12    19  35    3.6872   481.7    5.485      41.843
2015   10       12    19  42    3.6885   481.7    5.486      41.855
2015   10       12    19  48    3.6897   481.8    5.486      41.869
2015   10       12    19  54    3.6910   481.8    5.488      41.883
2015   10       12    20   0    3.6922   481.9    5.489      41.897
2015   10       12    20   7    3.6935   481.9    5.490      41.912
2015   10       12    20  13    3.6947   482.0    5.492      41.928
2015   10       12    20  19    3.6959   482.0    5.493      41.944
2015   10       12    20  26    3.6972   482.1    5.495      41.961
2015   10       12    20  32    3.6984   482.1    5.497      41.979
2015   10       12    20  38    3.6996   482.2    5.499      41.998
2015   10       12    20  45    3.7007   482.2    5.501      42.018
2015   10       12    20  51    3.7019   482.2    5.503      42.039
2015   10       12    20  57    3.7030   482.3    5.505      42.061
2015   10       12    21   4    3.7041   482.4    5.506      42.084
2015   10       12    21  10    3.7051   482.4    5.508      42.108
2015   10       12    21  16    3.7062   482.5    5.510      42.133
2015   10       12    21  22    3.7072   482.5    5.511      42.158
2015   10       12    21  29    3.7082   482.6    5.513      42.183
2015   10       12    21  35    3.7091   482.6    5.514      42.207
2015   10       12    21  41    3.7101   482.7    5.515      42.231
2015   10       12    21  48    3.7110   482.7    5.515      42.254
2015   10       12    21  54    3.7119   482.8    5.516      42.275
2015   10       12    22   0    3.7128   482.9    5.516      42.296
2015   10       12    22   7    3.7136   482.9    5.517      42.316
2015   10       12    22  13    3.7145   483.0    5.517      42.335
2015   10       12    22  19    3.7153   483.0    5.517      42.353
2015   10       12    22  26    3.7162   483.1    5.517      42.370
2015   10       12    22  32    3.7170   483.1    5.516      42.387
2015   10       12    22  38    3.7178   483.2    5.516      42.403
2015   10       12    22  44    3.7186   483.3    5.516      42.418
2015   10       12    22  51    3.7193   483.3    5.515      42.433
2015   10       12    22  57    3.7201   483.4    5.514      42.447
2015   10       12    23   3    3.7209   483.4    5.514      42.460
2015   10       12    23  10    3.7216   483.5    5.513      42.473
2015   10       12    23  16    3.7224   483.6    5.512      42.485
2015   10       12    23  22    3.7231   483.6    5.511      42.497
2015   10       12    23  29    3.7238   483.7    5.510      42.508
2015   10       12    23  35    3.7245   483.7    5.509      42.519
2015   10       12    23  41    3.7252   483.8    5.508      42.529
2015   10       12    23  48    3.7259   483.8    5.506      42.539
2015   10       12    23  54    3.7266   483.9    5.505      42.548
2015   10       13     0   0    3.7273   483.9    5.504      42.557
2015   10       13     0   6    3.7280   484.0    5.503      42.565
2015   10       13     0  13    3.7287   484.1    5.501      42.573
2015   10       13     0  19    3.7293   484.1    5.500      42.581
2015   10       13     0  25    3.7300   484.2    5.498      42.588
2015   10       13     0  32    3.7306   484.2    5.497      42.595
2015   10       13     0  38    3.7313   484.3    5.495      42.602
2015   10       13     0  44    3.7319   484.3    5.494      42.608
2015   10       13     0  51    3.7325   484.4    5.492      42.614
2015   10       13     0  57    3.7331   484.4    5.491      42.620
2015   10       13     1   3    3.7337   484.5    5.489      42.625
2015   10       13     1  10    3.7344   484.5    5.488      42.630
2015   10       13     1  16    3.7350   484.6    5.486      42.635
2015   10       13     1  22    3.7356   484.7    5.484      42.640
2015   10       13     1  29    3.7361   484.7    5.483      42.645
2015   10       13     1  35    3.7367   484.8    5.481      42.650
2015   10       13     1  41    3.7373   484.8    5.480      42.654
2015   10       13     1  47    3.7379   484.9    5.478      42.658
2015   10       13     1  54    3.7385   484.9    5.477      42.663
2015   10       13     2   0    3.7390   485.0    5.475      42.667
2015   10       13     2   6    3.7396   485.0    5.474      42.671
2015   10       13     2  13    3.7402   485.1    5.472      42.675
2015   10       13     2  19    3.7407   485.1    5.471      42.679
2015   10       13     2  25    3.7413   485.2    5.469      42.684
2015   10       13     2  32    3.7419   485.2    5.468      42.688
2015   10       13     2  38    3.7424   485.3    5.467      42.692
2015   10       13     2  44    3.7430   485.3    5.466      42.697
2015   10       13     2  51    3.7436   485.4    5.465      42.702
2015   10       13     2  57    3.7441   485.4    5.464      42.706
2015   10       13     3   3    3.7447   485.5    5.463      42.712
2015   10       13     3   9    3.7452   485.5    5.462      42.717
2015   10       13     3  16    3.7458   485.6    5.461      42.723
2015   10       13     3  22    3.7464   485.6    5.461      42.728
2015   10       13     3  28    3.7469   485.7    5.460      42.735
2015   10       13     3  35    3.7475   485.7    5.459      42.741
2015   10       13     3  41    3.7481   485.8    5.459      42.749
2015   10       13     3  47    3.7486   485.8    5.459      42.757
2015   10       13     3  54    3.7492   485.9    5.458      42.765
2015   10       13     4   0    3.7497   485.9    5.458      42.774
2015   10       13     4   6    3.7502   486.0    5.458      42.783
2015   10       13     4  13    3.7507   486.0    5.457      42.793
2015   10       13     4  19    3.7512   486.1    5.457      42.804
2015   10       13     4  25    3.7517   486.1    5.457      42.816
2015   10       13     4  31    3.7522   486.2    5.456      42.828
2015   10       13     4  38    3.7527   486.2    5.456      42.841
2015   10       13     4  44    3.7532   486.3    5.455      42.855
2015   10       13     4  50    3.7536   486.3    5.455      42.868
2015   10       13     4  57    3.7540   486.4    5.454      42.881
2015   10       13     5   3    3.7545   486.4    5.453      42.893
2015   10       13     5   9    3.7549   486.5    5.452      42.905
2015   10       13     5  16    3.7553   486.5    5.451      42.916
2015   10       13     5  22    3.7557   486.6    5.450      42.928
2015   10       13     5  28    3.7561   486.6    5.449      42.938
2015   10       13     5  35    3.7565   486.7    5.447      42.948
2015   10       13     5  41    3.7569   486.7    5.446      42.958
2015   10       13     5  47    3.7572   486.8    5.444      42.968
2015   10       13     5  53    3.7576   486.8    5.443      42.976
2015   10       13     6   0    3.7579   486.9    5.441      42.985
2015   10       13     6   6    3.7583   486.9    5.440      42.993
2015   10       13     6  12    3.7586   487.0    5.438      43.001
2015   10       13     6  19    3.7589   487.0    5.436      43.008
2015   10       13     6  25    3.7592   487.1    5.434      43.014
2015   10       13     6  31    3.7595   487.1    5.432      43.021
2015   10       13     6  38    3.7598   487.2    5.430      43.026
2015   10       13     6  44    3.7601   487.2    5.428      43.032
2015   10       13     6  50    3.7604   487.3    5.426      43.037
2015   10       13     6  57    3.7607   487.3    5.424      43.041
2015   10       13     7   3    3.7609   487.4    5.422      43.045
2015   10       13     7   9    3.7612   487.4    5.420      43.049
2015   10       13     7  15    3.7614   487.4    5.418      43.052
2015   10       13     7  22    3.7617   487.5    5.415      43.055
2015   10       13     7  28    3.7620   487.5    5.413      43.057
2015   10       13     7  34    3.7622   487.6    5.411      43.059
2015   10       13     7  41    3.7624   487.6    5.408      43.061
2015   10       13     7  47    3.7626   487.7    5.406      43.062
2015   10       13     7  53    3.7629   487.7    5.404      43.063
2015   10       13     8   0    3.7631   487.7    5.401      43.064
2015   10       13     8   6    3.7633   487.8    5.399      43.064
2015   10       13     8  12    3.7635   487.8    5.397      43.065
2015   10       13     8  19    3.7637   487.8    5.394      43.064
2015   10       13     8  25    3.7639   487.9    5.392      43.064
2015   10       13     8  31    3.7642   487.9    5.389      43.063
2015   10       13     8  37    3.7644   488.0    5.387      43.063
2015   10       13     8  44    3.7646   488.0    5.385      43.062
2015   10       13     8  50    3.7648   488.0    5.382      43.060
2015   10       13     8  56    3.7650   488.1    5.380      43.059
2015   10       13     9   3    3.7652   488.1    5.378      43.057
2015   10       13     9   9    3.7654   488.1    5.375      43.056
2015   10       13     9  15    3.7657   488.2    5.373      43.054
2015   10       13     9  22    3.7659   488.2    5.371      43.052
2015   10       13     9  28    3.7661   488.2    5.369      43.050
2015   10       13     9  34    3.7663   488.3    5.366      43.048
2015   10       13     9  41    3.7666   488.3    5.364      43.046
2015   10       13     9  47    3.7668   488.3    5.362      43.044
2015   10       13     9  53    3.7670   488.3    5.360      43.042
2015   10       13     9  59    3.7673   488.4    5.358      43.040
2015   10       13    10   6    3.7675   488.4    5.356      43.038
2015   10       13    10  12    3.7678   488.4    5.354      43.036
2015   10       13    10  18    3.7680   488.4    5.352      43.034
2015   10       13    10  25    3.7683   488.5    5.350      43.032
2015   10       13    10  31    3.7686   488.5    5.348      43.030
2015   10       13    10  37    3.7689   488.5    5.347      43.029
2015   10       13    10  44    3.7691   488.5    5.345      43.027
2015   10       13    10  50    3.7694   488.6    5.343      43.025
2015   10       13    10  56    3.7697   488.6    5.342      43.023
2015   10       13    11   3    3.7700   488.6    5.340      43.022
2015   10       13    11   9    3.7703   488.6    5.339      43.020
2015   10       13    11  15    3.7706   488.6    5.337      43.018
2015   10       13    11  21    3.7709   488.7    5.335      43.016
2015   10       13    11  28    3.7712   488.7    5.334      43.015
2015   10       13    11  34    3.7715   488.7    5.333      43.013
2015   10       13    11  40    3.7719   488.7    5.331      43.011
2015   10       13    11  47    3.7722   488.8    5.330      43.009
2015   10       13    11  53    3.7725   488.8    5.328      43.006
2015   10       13    11  59    3.7728   488.8    5.327      43.004
2015   10       13    12   6    3.7731   488.8    5.325      43.002
2015   10       13    12  12    3.7734   488.8    5.323      42.999
2015   10       13    12  18    3.7737   488.9    5.322      42.996
2015   10       13    12  25    3.7740   488.9    5.320      42.994
2015   10       13    12  31    3.7744   488.9    5.319      42.991
2015   10       13    12  37    3.7747   488.9    5.317      42.988
2015   10       13    12  43    3.7750   488.9    5.315      42.986
2015   10       13    12  50    3.7753   489.0    5.314      42.983
2015   10       13    12  56    3.7757   489.0    5.312      42.980
2015   10       13    13   2    3.7760   489.0    5.310      42.977
2015   10       13    13   9    3.7763   489.0    5.308      42.974
2015   10       13    13  15    3.7767   489.0    5.307      42.971
2015   10       13    13  21    3.7771   489.0    5.305      42.968
2015   10       13    13  28    3.7774   489.0    5.303      42.965
2015   10       13    13  34    3.7778   489.1    5.302      42.962
2015   10       13    13  40    3.7781   489.1    5.300      42.958
2015   10       13    13  47    3.7785   489.1    5.298      42.955
2015   10       13    13  53    3.7789   489.1    5.297      42.952
2015   10       13    13  59    3.7793   489.1    5.295      42.949
2015   10       13    14   5    3.7797   489.1    5.294      42.946
2015   10       13    14  12    3.7801   489.1    5.293      42.943
2015   10       13    14  18    3.7805   489.1    5.291      42.941
2015   10       13    14  24    3.7810   489.1    5.290      42.939
2015   10       13    14  31    3.7815   489.1    5.289      42.937
2015   10       13    14  37    3.7820   489.2    5.288      42.935
2015   10       13    14  43    3.7825   489.2    5.288      42.934
2015   10       13    14  50    3.7830   489.2    5.287      42.934
2015   10       13    14  56    3.7835   489.2    5.286      42.934
2015   10       13    15   2    3.7841   489.2    5.286      42.934
2015   10       13    15   9    3.7847   489.2    5.285      42.935
2015   10       13    15  15    3.7853   489.2    5.285      42.936
2015   10       13    15  21    3.7860   489.2    5.285      42.938
2015   10       13    15  27    3.7866   489.2    5.285      42.941
2015   10       13    15  34    3.7873   489.2    5.286      42.943
2015   10       13    15  40    3.7880   489.3    5.286      42.947
2015   10       13    15  46    3.7887   489.3    5.286      42.951
2015   10       13    15  53    3.7894   489.3    5.287      42.955
2015   10       13    15  59    3.7902   489.3    5.288      42.960
2015   10       13    16   5    3.7910   489.3    5.288      42.965
2015   10       13    16  12    3.7918   489.3    5.289      42.971
2015   10       13    16  18    3.7926   489.3    5.290      42.977
2015   10       13    16  24    3.7934   489.3    5.291      42.984
2015   10       13    16  31    3.7942   489.3    5.292      42.991
2015   10       13    16  37    3.7951   489.4    5.294      42.998
2015   10       13    16  43    3.7959   489.4    5.295      43.006
2015   10       13    16  49    3.7968   489.4    5.296      43.014
2015   10       13    16  56    3.7976   489.4    5.297      43.024
2015   10       13    17   2    3.7985   489.4    5.298      43.033
2015   10       13    17   8    3.7994   489.4    5.299      43.043
2015   10       13    17  15    3.8003   489.4    5.300      43.054
2015   10       13    17  21    3.8011   489.4    5.301      43.064
2015   10       13    17  27    3.8020   489.4    5.303      43.074
2015   10       13    17  34    3.8029   489.4    5.304      43.084
2015   10       13    17  40    3.8037   489.5    5.304      43.093
2015   10       13    17  46    3.8046   489.5    5.305      43.103
2015   10       13    17  53    3.8055   489.5    5.306      43.112
2015   10       13    17  59    3.8064   489.5    5.307      43.121
2015   10       13    18   5    3.8073   489.5    5.308      43.129
2015   10       13    18  11    3.8082   489.5    5.309      43.138
2015   10       13    18  18    3.8091   489.5    5.310      43.146
2015   10       13    18  24    3.8100   489.5    5.311      43.154
2015   10       13    18  30    3.8109   489.5    5.311      43.162
2015   10       13    18  37    3.8118   489.5    5.312      43.169
2015   10       13    18  43    3.8127   489.5    5.313      43.176
2015   10       13    18  49    3.8136   489.6    5.313      43.183
2015   10       13    18  56    3.8146   489.6    5.314      43.189
2015   10       13    19   2    3.8155   489.6    5.315      43.195
2015   10       13    19   8    3.8165   489.6    5.315      43.201
2015   10       13    19  15    3.8175   489.6    5.316      43.207
2015   10       13    19  21    3.8184   489.6    5.316      43.213
2015   10       13    19  27    3.8194   489.6    5.317      43.218
2015   10       13    19  33    3.8204   489.6    5.317      43.224
2015   10       13    19  40    3.8213   489.6    5.317      43.230
2015   10       13    19  46    3.8223   489.6    5.318      43.235
2015   10       13    19  52    3.8233   489.7    5.318      43.241
2015   10       13    19  59    3.8243   489.7    5.319      43.247
2015   10       13    20   5    3.8253   489.7    5.319      43.253
2015   10       13    20  11    3.8262   489.7    5.319      43.259
2015   10       13    20  18    3.8272   489.7    5.320      43.265
2015   10       13    20  24    3.8282   489.7    5.320      43.272
2015   10       13    20  30    3.8291   489.7    5.321      43.278
2015   10       13    20  37    3.8301   489.8    5.321      43.285
2015   10       13    20  43    3.8311   489.8    5.321      43.292
2015   10       13    20  49    3.8320   489.8    5.322      43.299
2015   10       13    20  55    3.8330   489.8    5.322      43.306
2015   10       13    21   2    3.8340   489.8    5.323      43.314
2015   10       13    21   8    3.8349   489.8    5.324      43.322
2015   10       13    21  14    3.8359   489.9    5.324      43.330
2015   10       13    21  21    3.8368   489.9    5.325      43.338
2015   10       13    21  27    3.8378   489.9    5.326      43.347
2015   10       13    21  33    3.8388   489.9    5.327      43.356
2015   10       13    21  40    3.8398   489.9    5.328      43.365
2015   10       13    21  46    3.8408   490.0    5.329      43.375
2015   10       13    21  52    3.8418   490.0    5.330      43.385
2015   10       13    21  59    3.8428   490.0    5.331      43.396
2015   10       13    22   5    3.8438   490.0    5.332      43.407
2015   10       13    22  11    3.8449   490.0    5.334      43.418
2015   10       13    22  17    3.8459   490.1    5.335      43.430
2015   10       13    22  24    3.8470   490.1    5.337      43.443
2015   10       13    22  30    3.8481   490.1    5.339      43.456
2015   10       13    22  36    3.8492   490.1    5.341      43.469
2015   10       13    22  43    3.8503   490.1    5.342      43.483
2015   10       13    22  49    3.8514   490.2    5.345      43.498
2015   10       13    22  55    3.8525   490.2    5.347      43.513
2015   10       13    23   2    3.8537   490.2    5.349      43.529
2015   10       13    23   8    3.8549   490.2    5.351      43.545
2015   10       13    23  14    3.8561   490.3    5.354      43.562
2015   10       13    23  21    3.8573   490.3    5.357      43.579
2015   10       13    23  27    3.8585   490.3    5.359      43.596
2015   10       13    23  33    3.8597   490.3    5.362      43.614
2015   10       13    23  39    3.8609   490.4    5.365      43.633
2015   10       13    23  46    3.8622   490.4    5.368      43.652
2015   10       13    23  52    3.8635   490.4    5.371      43.672
2015   10       13    23  58    3.8647   490.4    5.374      43.691
2015   10       14     0   5    3.8660   490.5    5.377      43.712
2015   10       14     0  11    3.8673   490.5    5.380      43.733
2015   10       14     0  17    3.8686   490.5    5.383      43.755
2015   10       14     0  24    3.8699   490.5    5.386      43.778
2015   10       14     0  30    3.8712   490.6    5.389      43.802
2015   10       14     0  36    3.8726   490.6    5.392      43.825
2015   10       14     0  43    3.8739   490.6    5.395      43.849
2015   10       14     0  49    3.8752   490.7    5.398      43.873
2015   10       14     0  55    3.8766   490.7    5.401      43.897
2015   10       14     1   1    3.8779   490.7    5.404      43.921
2015   10       14     1   8    3.8793   490.7    5.407      43.945
2015   10       14     1  14    3.8807   490.8    5.410      43.968
2015   10       14     1  20    3.8821   490.8    5.413      43.992
2015   10       14     1  27    3.8835   490.8    5.416      44.016
2015   10       14     1  33    3.8849   490.9    5.419      44.040
2015   10       14     1  39    3.8863   490.9    5.422      44.064
2015   10       14     1  46    3.8877   490.9    5.425      44.088
2015   10       14     1  52    3.8891   491.0    5.428      44.113
2015   10       14     1  58    3.8904   491.0    5.431      44.138
2015   10       14     2   5    3.8918   491.0    5.434      44.164
2015   10       14     2  11    3.8931   491.1    5.437      44.191
2015   10       14     2  17    3.8944   491.1    5.439      44.218
2015   10       14     2  23    3.8957   491.2    5.442      44.246
2015   10       14     2  30    3.8969   491.2    5.444      44.274
2015   10       14     2  36    3.8982   491.3    5.447      44.301
2015   10       14     2  42    3.8994   491.3    5.449      44.329
2015   10       14     2  49    3.9005   491.3    5.451      44.355
2015   10       14     2  55    3.9017   491.4    5.453      44.381
2015   10       14     3   1    3.9028   491.4    5.455      44.407
2015   10       14     3   8    3.9039   491.5    5.456      44.431
2015   10       14     3  14    3.9049   491.5    5.458      44.456
2015   10       14     3  20    3.9060   491.6    5.460      44.480
2015   10       14     3  27    3.9070   491.6    5.461      44.504
2015   10       14     3  33    3.9080   491.7    5.462      44.528
2015   10       14     3  39    3.9090   491.7    5.464      44.552
2015   10       14     3  45    3.9099   491.8    5.465      44.575
2015   10       14     3  52    3.9108   491.8    5.466      44.598
2015   10       14     3  58    3.9117   491.9    5.467      44.621
2015   10       14     4   4    3.9126   491.9    5.468      44.644
2015   10       14     4  11    3.9135   492.0    5.469      44.667
2015   10       14     4  17    3.9143   492.0    5.470      44.690
2015   10       14     4  23    3.9151   492.1    5.471      44.712
2015   10       14     4  30    3.9159   492.1    5.472      44.734
2015   10       14     4  36    3.9167   492.2    5.473      44.756
2015   10       14     4  42    3.9174   492.2    5.474      44.778
2015   10       14     4  49    3.9181   492.3    5.474      44.800
2015   10       14     4  55    3.9189   492.3    5.475      44.822
2015   10       14     5   1    3.9196   492.4    5.476      44.843
2015   10       14     5   7    3.9203   492.4    5.476      44.864
2015   10       14     5  14    3.9209   492.5    5.477      44.885
2015   10       14     5  20    3.9216   492.5    5.478      44.906
2015   10       14     5  26    3.9222   492.6    5.478      44.926
2015   10       14     5  33    3.9229   492.6    5.479      44.947
2015   10       14     5  39    3.9235   492.7    5.479      44.967
2015   10       14     5  45    3.9241   492.7    5.480      44.987
2015   10       14     5  52    3.9247   492.8    5.480      45.006
2015   10       14     5  58    3.9253   492.8    5.481      45.026
2015   10       14     6   4    3.9259   492.9    5.481      45.046
2015   10       14     6  11    3.9265   492.9    5.482      45.065
2015   10       14     6  17    3.9271   493.0    5.482      45.085
2015   10       14     6  23    3.9277   493.0    5.483      45.104
2015   10       14     6  29    3.9282   493.1    5.483      45.124
2015   10       14     6  36    3.9289   493.1    5.484      45.144
2015   10       14     6  42    3.9295   493.2    5.485      45.164
2015   10       14     6  48    3.9301   493.2    5.485      45.185
2015   10       14     6  55    3.9308   493.3    5.486      45.206
2015   10       14     7   1    3.9315   493.3    5.487      45.228
2015   10       14     7   7    3.9322   493.4    5.488      45.250
2015   10       14     7  14    3.9329   493.4    5.489      45.272
2015   10       14     7  20    3.9337   493.5    5.491      45.296
2015   10       14     7  26    3.9345   493.5    5.492      45.320
2015   10       14     7  33    3.9354   493.6    5.494      45.345
2015   10       14     7  39    3.9363   493.6    5.496      45.371
2015   10       14     7  45    3.9372   493.7    5.498      45.398
2015   10       14     7  51    3.9382   493.7    5.500      45.426
2015   10       14     7  58    3.9393   493.8    5.502      45.456
2015   10       14     8   4    3.9403   493.9    5.505      45.486
2015   10       14     8  10    3.9414   493.9    5.507      45.518
2015   10       14     8  17    3.9426   494.0    5.510      45.550
2015   10       14     8  23    3.9437   494.0    5.513      45.584
2015   10       14     8  29    3.9448   494.1    5.517      45.620
2015   10       14     8  36    3.9458   494.2    5.520      45.656
2015   10       14     8  42    3.9469   494.2    5.523      45.692
2015   10       14     8  48    3.9478   494.3    5.526      45.730
2015   10       14     8  55    3.9488   494.4    5.529      45.769
2015   10       14     9   1    3.9496   494.5    5.532      45.806
2015   10       14     9   7    3.9504   494.5    5.534      45.842
2015   10       14     9  13    3.9512   494.6    5.537      45.877
2015   10       14     9  20    3.9518   494.7    5.539      45.911
2015   10       14     9  26    3.9524   494.8    5.541      45.946
2015   10       14     9  32    3.9529   494.9    5.542      45.980
2015   10       14     9  39    3.9534   494.9    5.544      46.013
2015   10       14     9  45    3.9538   495.0    5.545      46.047
2015   10       14     9  51    3.9541   495.1    5.546      46.079
2015   10       14     9  58    3.9543   495.2    5.546      46.110
2015   10       14    10   4    3.9545   495.3    5.547      46.140
2015   10       14    10  10    3.9547   495.3    5.547      46.169
2015   10       14    10  17    3.9548   495.4    5.547      46.196
2015   10       14    10  23    3.9548   495.5    5.546      46.222
2015   10       14    10  29    3.9548   495.6    5.546      46.247
2015   10       14    10  35    3.9547   495.6    5.545      46.271
2015   10       14    10  42    3.9546   495.7    5.544      46.294
2015   10       14    10  48    3.9545   495.8    5.543      46.316
2015   10       14    10  54    3.9543   495.9    5.542      46.337
2015   10       14    11   1    3.9541   495.9    5.541      46.357
2015   10       14    11   7    3.9538   496.0    5.540      46.376
2015   10       14    11  13    3.9536   496.1    5.538      46.395
2015   10       14    11  20    3.9533   496.1    5.537      46.413
2015   10       14    11  26    3.9529   496.2    5.535      46.430
2015   10       14    11  32    3.9526   496.3    5.534      46.447
2015   10       14    11  39    3.9522   496.3    5.532      46.463
2015   10       14    11  45    3.9518   496.4    5.530      46.478
2015   10       14    11  51    3.9514   496.4    5.528      46.493
2015   10       14    11  57    3.9510   496.5    5.526      46.508
2015   10       14    12   4    3.9505   496.6    5.524      46.522
2015   10       14    12  10    3.9501   496.6    5.522      46.535
2015   10       14    12  16    3.9496   496.7    5.520      46.548
2015   10       14    12  23    3.9491   496.7    5.518      46.561
2015   10       14    12  29    3.9486   496.8    5.516      46.573
2015   10       14    12  35    3.9480   496.9    5.514      46.584
2015   10       14    12  42    3.9475   496.9    5.511      46.596
2015   10       14    12  48    3.9470   497.0    5.509      46.607
2015   10       14    12  54    3.9464   497.0    5.507      46.617
2015   10       14    13   0    3.9458   497.1    5.505      46.628
2015   10       14    13   7    3.9453   497.1    5.503      46.639
2015   10       14    13  13    3.9447   497.2    5.501      46.649
2015   10       14    13  19    3.9442   497.2    5.498      46.660
2015   10       14    13  26    3.9436   497.3    5.496      46.670
2015   10       14    13  32    3.9431   497.4    5.495      46.681
2015   10       14    13  38    3.9426   497.4    5.493      46.693
2015   10       14    13  45    3.9420   497.5    5.491      46.704
2015   10       14    13  51    3.9415   497.5    5.489      46.717
2015   10       14    13  57    3.9411   497.6    5.488      46.730
2015   10       14    14   4    3.9406   497.6    5.486      46.744
2015   10       14    14  10    3.9402   497.7    5.485      46.758
2015   10       14    14  16    3.9398   497.7    5.484      46.774
2015   10       14    14  22    3.9395   497.8    5.484      46.791
2015   10       14    14  29    3.9392   497.9    5.483      46.809
2015   10       14    14  35    3.9390   497.9    5.483      46.829
2015   10       14    14  41    3.9388   498.0    5.483      46.850
2015   10       14    14  48    3.9387   498.0    5.484      46.873
2015   10       14    14  54    3.9386   498.1    5.485      46.897
2015   10       14    15   0    3.9386   498.2    5.486      46.924
2015   10       14    15   7    3.9386   498.2    5.487      46.953
2015   10       14    15  13    3.9388   498.3    5.489      46.985
2015   10       14    15  19    3.9389   498.4    5.491      47.019
2015   10       14    15  26    3.9391   498.4    5.494      47.054
2015   10       14    15  32    3.9393   498.5    5.497      47.093
2015   10       14    15  38    3.9395   498.6    5.500      47.133
2015   10       14    15  44    3.9396   498.7    5.503      47.176
2015   10       14    15  51    3.9396   498.8    5.506      47.221
2015   10       14    15  57    3.9396   498.9    5.509      47.268
2015   10       14    16   3    3.9394   499.0    5.512      47.316
2015   10       14    16  10    3.9391   499.1    5.514      47.363
2015   10       14    16  16    3.9387   499.2    5.516      47.408
2015   10       14    16  22    3.9382   499.3    5.517      47.450
2015   10       14    16  29    3.9376   499.4    5.518      47.489
2015   10       14    16  35    3.9368   499.5    5.518      47.526
2015   10       14    16  41    3.9360   499.6    5.518      47.560
2015   10       14    16  48    3.9351   499.8    5.517      47.591
2015   10       14    16  54    3.9340   499.9    5.516      47.620
2015   10       14    17   0    3.9329   500.0    5.515      47.647
2015   10       14    17   6    3.9318   500.1    5.513      47.671
2015   10       14    17  13    3.9305   500.2    5.511      47.694
2015   10       14    17  19    3.9292   500.3    5.509      47.714
2015   10       14    17  25    3.9278   500.4    5.506      47.733
2015   10       14    17  32    3.9264   500.5    5.503      47.751
2015   10       14    17  38    3.9249   500.6    5.500      47.766
2015   10       14    17  44    3.9234   500.7    5.497      47.781
2015   10       14    17  51    3.9217   500.8    5.493      47.793
2015   10       14    17  57    3.9201   500.9    5.489      47.804
2015   10       14    18   3    3.9184   501.0    5.485      47.814
2015   10       14    18  10    3.9167   501.1    5.480      47.823
2015   10       14    18  16    3.9149   501.2    5.476      47.830
2015   10       14    18  22    3.9131   501.3    5.471      47.837
2015   10       14    18  28    3.9112   501.4    5.466      47.842
2015   10       14    18  35    3.9093   501.5    5.461      47.846
2015   10       14    18  41    3.9073   501.6    5.456      47.849
2015   10       14    18  47    3.9053   501.7    5.451      47.850
2015   10       14    18  54    3.9033   501.8    5.446      47.852
2015   10       14    19   0    3.9012   501.8    5.440      47.852
2015   10       14    19   6    3.8991   501.9    5.435      47.851
2015   10       14    19  13    3.8970   502.0    5.429      47.850
2015   10       14    19  19    3.8948   502.1    5.424      47.848
2015   10       14    19  25    3.8926   502.2    5.418      47.845
2015   10       14    19  32    3.8903   502.3    5.412      47.841
2015   10       14    19  38    3.8880   502.3    5.406      47.837
2015   10       14    19  44    3.8857   502.4    5.400      47.832
2015   10       14    19  50    3.8833   502.5    5.395      47.827
2015   10       14    19  57    3.8809   502.6    5.389      47.821
2015   10       14    20   3    3.8785   502.6    5.383      47.815
2015   10       14    20   9    3.8761   502.7    5.377      47.808
2015   10       14    20  16    3.8736   502.8    5.371      47.801
2015   10       14    20  22    3.8711   502.9    5.365      47.794
2015   10       14    20  28    3.8687   502.9    5.359      47.786
2015   10       14    20  35    3.8661   503.0    5.353      47.778
2015   10       14    20  41    3.8636   503.1    5.347      47.770
2015   10       14    20  47    3.8610   503.1    5.341      47.762
2015   10       14    20  54    3.8584   503.2    5.336      47.754
2015   10       14    21   0    3.8558   503.3    5.330      47.746
2015   10       14    21   6    3.8532   503.3    5.324      47.738
2015   10       14    21  12    3.8505   503.4    5.319      47.730
2015   10       14    21  19    3.8479   503.4    5.313      47.723
2015   10       14    21  25    3.8453   503.5    5.308      47.715
2015   10       14    21  31    3.8427   503.6    5.303      47.709
2015   10       14    21  38    3.8400   503.6    5.298      47.702
2015   10       14    21  44    3.8374   503.7    5.293      47.696
2015   10       14    21  50    3.8348   503.7    5.289      47.691
2015   10       14    21  57    3.8322   503.8    5.284      47.687
2015   10       14    22   3    3.8296   503.8    5.280      47.683
2015   10       14    22   9    3.8271   503.9    5.277      47.680
2015   10       14    22  16    3.8245   503.9    5.273      47.679
2015   10       14    22  22    3.8219   504.0    5.270      47.680
2015   10       14    22  28    3.8193   504.1    5.267      47.682
2015   10       14    22  34    3.8167   504.1    5.264      47.685
2015   10       14    22  41    3.8141   504.2    5.262      47.690
2015   10       14    22  47    3.8115   504.2    5.260      47.696
2015   10       14    22  53    3.8089   504.3    5.258      47.705
2015   10       14    23   0    3.8062   504.3    5.256      47.715
2015   10       14    23   6    3.8034   504.4    5.254      47.727
2015   10       14    23  12    3.8006   504.5    5.253      47.740
2015   10       14    23  19    3.7976   504.5    5.251      47.755
2015   10       14    23  25    3.7947   504.6    5.248      47.768
2015   10       14    23  31    3.7916   504.7    5.246      47.781
2015   10       14    23  37    3.7886   504.8    5.244      47.791
2015   10       14    23  44    3.7854   504.8    5.241      47.801
2015   10       14    23  50    3.7822   504.9    5.238      47.810
2015   10       14    23  56    3.7789   505.0    5.234      47.818
2015   10       15     0   3    3.7756   505.0    5.231      47.825
2015   10       15     0   9    3.7722   505.1    5.227      47.830
2015   10       15     0  15    3.7688   505.2    5.223      47.834
2015   10       15     0  22    3.7653   505.2    5.218      47.835
2015   10       15     0  28    3.7618   505.3    5.213      47.835
2015   10       15     0  34    3.7582   505.4    5.208      47.834
2015   10       15     0  41    3.7546   505.4    5.203      47.831
2015   10       15     0  47    3.7510   505.5    5.198      47.826
2015   10       15     0  53    3.7473   505.5    5.192      47.820
2015   10       15     0  59    3.7435   505.6    5.186      47.812
2015   10       15     1   6    3.7397   505.7    5.180      47.803
2015   10       15     1  12    3.7359   505.7    5.173      47.792
2015   10       15     1  18    3.7320   505.8    5.167      47.780
2015   10       15     1  25    3.7281   505.8    5.160      47.767
2015   10       15     1  31    3.7242   505.9    5.153      47.752
2015   10       15     1  37    3.7202   506.0    5.146      47.735
2015   10       15     1  44    3.7162   506.0    5.139      47.717
2015   10       15     1  50    3.7122   506.1    5.131      47.698
2015   10       15     1  56    3.7081   506.1    5.124      47.678
2015   10       15     2   3    3.7040   506.2    5.116      47.656
2015   10       15     2   9    3.6999   506.2    5.108      47.633
2015   10       15     2  15    3.6957   506.3    5.100      47.609
2015   10       15     2  21    3.6915   506.3    5.092      47.584
2015   10       15     2  28    3.6873   506.3    5.084      47.557
2015   10       15     2  34    3.6830   506.4    5.076      47.530
2015   10       15     2  40    3.6788   506.4    5.067      47.501
2015   10       15     2  47    3.6745   506.5    5.059      47.472
2015   10       15     2  53    3.6702   506.5    5.051      47.441
2015   10       15     2  59    3.6659   506.5    5.042      47.410
2015   10       15     3   6    3.6615   506.5    5.034      47.377
2015   10       15     3  12    3.6572   506.6    5.025      47.344
2015   10       15     3  18    3.6528   506.6    5.017      47.310
2015   10       15     3  25    3.6484   506.6    5.008      47.275
2015   10       15     3  31    3.6440   506.6    5.000      47.239
2015   10       15     3  37    3.6396   506.7    4.991      47.203
2015   10       15     3  43    3.6352   506.7    4.982      47.166
2015   10       15     3  50    3.6308   506.7    4.973      47.128
2015   10       15     3  56    3.6263   506.7    4.965      47.089
2015   10       15     4   2    3.6219   506.7    4.956      47.050
2015   10       15     4   9    3.6174   506.7    4.947      47.010
2015   10       15     4  15    3.6129   506.7    4.939      46.969
2015   10       15     4  21    3.6084   506.7    4.930      46.927
2015   10       15     4  28    3.6039   506.7    4.921      46.885
2015   10       15     4  34    3.5994   506.7    4.912      46.842
2015   10       15     4  40    3.5948   506.7    4.903      46.798
2015   10       15     4  47    3.5903   506.7    4.895      46.754
2015   10       15     4  53    3.5857   506.7    4.886      46.709
2015   10       15     4  59    3.5812   506.7    4.877      46.664
2015   10       15     5   5    3.5766   506.7    4.869      46.618
2015   10       15     5  12    3.5720   506.7    4.860      46.572
2015   10       15     5  18    3.5675   506.7    4.851      46.526
2015   10       15     5  24    3.5629   506.7    4.843      46.479
2015   10       15     5  31    3.5583   506.6    4.834      46.432
2015   10       15     5  37    3.5537   506.6    4.826      46.384
2015   10       15     5  43    3.5491   506.6    4.818      46.337
2015   10       15     5  50    3.5444   506.6    4.810      46.289
2015   10       15     5  56    3.5398   506.5    4.801      46.242
2015   10       15     6   2    3.5352   506.5    4.794      46.195
2015   10       15     6   8    3.5306   506.5    4.786      46.148
2015   10       15     6  15    3.5260   506.4    4.778      46.101
2015   10       15     6  21    3.5215   506.4    4.771      46.054
2015   10       15     6  27    3.5169   506.4    4.764      46.007
2015   10       15     6  34    3.5124   506.3    4.757      45.962
2015   10       15     6  40    3.5078   506.3    4.750      45.916
2015   10       15     6  46    3.5033   506.2    4.743      45.872
2015   10       15     6  53    3.4988   506.2    4.737      45.828
2015   10       15     6  59    3.4943   506.1    4.730      45.785
2015   10       15     7   5    3.4898   506.1    4.724      45.742
2015   10       15     7  12    3.4853   506.0    4.718      45.700
2015   10       15     7  18    3.4809   506.0    4.713      45.659
2015   10       15     7  24    3.4765   505.9    4.707      45.618
2015   10       15     7  30    3.4720   505.8    4.702      45.578
2015   10       15     7  37    3.4677   505.8    4.697      45.539
2015   10       15     7  43    3.4633   505.7    4.691      45.500
2015   10       15     7  49    3.4590   505.6    4.686      45.461
2015   10       15     7  56    3.4547   505.6    4.681      45.421
2015   10       15     8   2    3.4505   505.5    4.676      45.380
2015   10       15     8   8    3.4462   505.4    4.671      45.340
2015   10       15     8  15    3.4420   505.3    4.666      45.298
2015   10       15     8  21    3.4378   505.3    4.661      45.256
2015   10       15     8  27    3.4337   505.2    4.656      45.214
2015   10       15     8  34    3.4295   505.1    4.651      45.170
2015   10       15     8  40    3.4254   505.0    4.647      45.127
2015   10       15     8  46    3.4212   505.0    4.642      45.082
2015   10       15     8  52    3.4171   504.9    4.637      45.037
2015   10       15     8  59    3.4130   504.8    4.632      44.991
2015   10       15     9   5    3.4089   504.7    4.628      44.945
2015   10       15     9  11    3.4049   504.6    4.623      44.897
2015   10       15     9  18    3.4008   504.5    4.618      44.849
2015   10       15     9  24    3.3967   504.4    4.614      44.800
2015   10       15     9  30    3.3927   504.4    4.609      44.750
2015   10       15     9  37    3.3886   504.3    4.604      44.698
2015   10       15     9  43    3.3845   504.2    4.599      44.646
2015   10       15     9  49    3.3805   504.1    4.595      44.593
2015   10       15     9  56    3.3764   504.0    4.590      44.539
2015   10       15    10   2    3.3723   503.9    4.585      44.483
2015   10       15    10   8    3.3683   503.7    4.580      44.427
2015   10       15    10  14    3.3642   503.6    4.575      44.370
2015   10       15    10  21    3.3601   503.5    4.570      44.311
2015   10       15    10  27    3.3560   503.4    4.565      44.252
2015   10       15    10  33    3.3519   503.3    4.560      44.192
2015   10       15    10  40    3.3478   503.2    4.555      44.131
2015   10       15    10  46    3.3437   503.0    4.550      44.069
2015   10       15    10  52    3.3396   502.9    4.545      44.007
2015   10       15    10  59    3.3355   502.8    4.540      43.943
2015   10       15    11   5    3.3314   502.7    4.535      43.879
2015   10       15    11  11    3.3273   502.5    4.530      43.814
2015   10       15    11  18    3.3232   502.4    4.525      43.749
2015   10       15    11  24    3.3190   502.3    4.520      43.682
2015   10       15    11  30    3.3149   502.1    4.516      43.615
2015   10       15    11  36    3.3108   502.0    4.511      43.547
2015   10       15    11  43    3.3067   501.9    4.506      43.478
2015   10       15    11  49    3.3026   501.7    4.501      43.408
2015   10       15    11  55    3.2984   501.6    4.496      43.336
2015   10       15    12   2    3.2943   501.5    4.491      43.264
2015   10       15    12   8    3.2902   501.3    4.486      43.191
2015   10       15    12  14    3.2860   501.2    4.482      43.117
2015   10       15    12  21    3.2819   501.0    4.477      43.042
2015   10       15    12  27    3.2777   500.9    4.472      42.967
2015   10       15    12  33    3.2736   500.7    4.467      42.891
2015   10       15    12  39    3.2694   500.6    4.462      42.815
2015   10       15    12  46    3.2653   500.4    4.457      42.738
2015   10       15    12  52    3.2611   500.3    4.452      42.661
2015   10       15    12  58    3.2570   500.1    4.447      42.583
2015   10       15    13   5    3.2529   499.9    4.442      42.506
2015   10       15    13  11    3.2487   499.8    4.437      42.428
2015   10       15    13  17    3.2446   499.6    4.432      42.350
2015   10       15    13  24    3.2405   499.5    4.427      42.272
2015   10       15    13  30    3.2364   499.3    4.422      42.194
2015   10       15    13  36    3.2324   499.1    4.417      42.115
2015   10       15    13  43    3.2283   498.9    4.412      42.036
2015   10       15    13  49    3.2243   498.8    4.407      41.958
2015   10       15    13  55    3.2203   498.6    4.402      41.879
2015   10       15    14   1    3.2163   498.4    4.397      41.800
2015   10       15    14   8    3.2124   498.2    4.392      41.721
2015   10       15    14  14    3.2085   498.1    4.388      41.643
2015   10       15    14  20    3.2046   497.9    4.383      41.565
2015   10       15    14  27    3.2007   497.7    4.378      41.486
2015   10       15    14  33    3.1968   497.5    4.374      41.409
2015   10       15    14  39    3.1930   497.3    4.369      41.331
2015   10       15    14  46    3.1892   497.1    4.365      41.255
2015   10       15    14  52    3.1854   496.9    4.361      41.179
2015   10       15    14  58    3.1817   496.7    4.357      41.103
2015   10       15    15   5    3.1780   496.5    4.353      41.029
2015   10       15    15  11    3.1743   496.3    4.350      40.956
2015   10       15    15  17    3.1707   496.1    4.346      40.883
2015   10       15    15  23    3.1671   495.9    4.343      40.813
2015   10       15    15  30    3.1636   495.7    4.340      40.743
2015   10       15    15  36    3.1602   495.5    4.338      40.675
2015   10       15    15  42    3.1568   495.3    4.335      40.608
2015   10       15    15  49    3.1534   495.1    4.333      40.543
2015   10       15    15  55    3.1501   494.9    4.331      40.479
2015   10       15    16   1    3.1469   494.6    4.329      40.417
2015   10       15    16   8    3.1438   494.4    4.327      40.357
2015   10       15    16  14    3.1407   494.2    4.326      40.298
2015   10       15    16  20    3.1376   494.0    4.325      40.241
2015   10       15    16  27    3.1347   493.8    4.324      40.185
2015   10       15    16  33    3.1317   493.6    4.324      40.131
2015   10       15    16  39    3.1289   493.4    4.323      40.078
2015   10       15    16  45    3.1261   493.2    4.323      40.026
2015   10       15    16  52    3.1233   493.0    4.323      39.975
2015   10       15    16  58    3.1206   492.8    4.323      39.925
2015   10       15    17   4    3.1179   492.6    4.323      39.875
2015   10       15    17  11    3.1153   492.3    4.324      39.826
2015   10       15    17  17    3.1127   492.1    4.324      39.777
2015   10       15    17  23    3.1101   491.9    4.325      39.728
2015   10       15    17  30    3.1075   491.7    4.325      39.679
2015   10       15    17  36    3.1050   491.5    4.326      39.628
2015   10       15    17  42    3.1025   491.3    4.326      39.577
2015   10       15    17  49    3.1000   491.1    4.327      39.526
2015   10       15    17  55    3.0974   490.8    4.328      39.474
2015   10       15    18   1    3.0949   490.6    4.328      39.421
2015   10       15    18   7    3.0924   490.4    4.329      39.369
2015   10       15    18  14    3.0899   490.2    4.330      39.316
2015   10       15    18  20    3.0874   490.0    4.330      39.263
2015   10       15    18  26    3.0848   489.7    4.331      39.209
2015   10       15    18  33    3.0823   489.5    4.331      39.155
2015   10       15    18  39    3.0798   489.3    4.332      39.100
2015   10       15    18  45    3.0772   489.1    4.332      39.045
2015   10       15    18  52    3.0747   488.9    4.332      38.989
2015   10       15    18  58    3.0721   488.6    4.333      38.932
2015   10       15    19   4    3.0695   488.4    4.333      38.876
2015   10       15    19  10    3.0670   488.2    4.333      38.818
2015   10       15    19  17    3.0644   488.0    4.333      38.760
2015   10       15    19  23    3.0618   487.8    4.333      38.702
2015   10       15    19  29    3.0593   487.5    4.333      38.644
2015   10       15    19  36    3.0567   487.3    4.333      38.585
2015   10       15    19  42    3.0541   487.1    4.333      38.526
2015   10       15    19  48    3.0515   486.9    4.333      38.467
2015   10       15    19  55    3.0490   486.6    4.332      38.407
2015   10       15    20   1    3.0464   486.4    4.332      38.347
2015   10       15    20   7    3.0438   486.2    4.332      38.287
2015   10       15    20  14    3.0413   485.9    4.331      38.226
2015   10       15    20  20    3.0387   485.7    4.331      38.166
2015   10       15    20  26    3.0362   485.5    4.331      38.105
2015   10       15    20  32    3.0336   485.3    4.330      38.044
2015   10       15    20  39    3.0311   485.0    4.330      37.983
2015   10       15    20  45    3.0286   484.8    4.329      37.922
2015   10       15    20  51    3.0260   484.6    4.329      37.861
2015   10       15    20  58    3.0235   484.3    4.328      37.800
2015   10       15    21   4    3.0210   484.1    4.328      37.738
2015   10       15    21  10    3.0185   483.9    4.327      37.677
2015   10       15    21  17    3.0160   483.6    4.326      37.615
2015   10       15    21  23    3.0136   483.4    4.326      37.554
2015   10       15    21  29    3.0111   483.2    4.325      37.492
2015   10       15    21  36    3.0086   482.9    4.324      37.430
2015   10       15    21  42    3.0062   482.7    4.323      37.369
2015   10       15    21  48    3.0038   482.5    4.322      37.307
2015   10       15    21  54    3.0013   482.2    4.322      37.245
2015   10       15    22   1    2.9989   482.0    4.321      37.182
2015   10       15    22   7    2.9966   481.7    4.320      37.120
2015   10       15    22  13    2.9942   481.5    4.319      37.058
2015   10       15    22  20    2.9918   481.3    4.318      36.995
2015   10       15    22  26    2.9895   481.0    4.317      36.932
2015   10       15    22  32    2.9872   480.8    4.316      36.870
2015   10       15    22  39    2.9849   480.5    4.315      36.807
2015   10       15    22  45    2.9827   480.3    4.314      36.744
2015   10       15    22  51    2.9804   480.0    4.313      36.681
2015   10       15    22  58    2.9782   479.8    4.311      36.617
2015   10       15    23   4    2.9760   479.5    4.310      36.554
2015   10       15    23  10    2.9739   479.2    4.309      36.490
2015   10       15    23  16    2.9718   479.0    4.308      36.427
2015   10       15    23  23    2.9697   478.7    4.307      36.363
2015   10       15    23  29    2.9676   478.5    4.306      36.299
2015   10       15    23  35    2.9656   478.2    4.305      36.236
2015   10       15    23  42    2.9636   477.9    4.304      36.172
2015   10       15    23  48    2.9616   477.7    4.303      36.109
2015   10       15    23  54    2.9597   477.4    4.302      36.046
2015   10       16     0   1    2.9578   477.2    4.301      35.983
2015   10       16     0   7    2.9560   476.9    4.300      35.920
2015   10       16     0  13    2.9542   476.6    4.300      35.858
2015   10       16     0  20    2.9524   476.3    4.299      35.796
2015   10       16     0  26    2.9507   476.1    4.299      35.735
2015   10       16     0  32    2.9490   475.8    4.298      35.674
2015   10       16     0  38    2.9473   475.5    4.298      35.613
2015   10       16     0  45    2.9457   475.3    4.297      35.553
2015   10       16     0  51    2.9441   475.0    4.297      35.494
2015   10       16     0  57    2.9426   474.7    4.297      35.435
2015   10       16     1   4    2.9411   474.5    4.297      35.376
2015   10       16     1  10    2.9396   474.2    4.297      35.318
2015   10       16     1  16    2.9381   473.9    4.297      35.261
2015   10       16     1  23    2.9367   473.7    4.298      35.205
2015   10       16     1  29    2.9352   473.4    4.298      35.149
2015   10       16     1  35    2.9338   473.1    4.299      35.093
2015   10       16     1  41    2.9324   472.9    4.299      35.038
2015   10       16     1  48    2.9310   472.6    4.300      34.983
2015   10       16     1  54    2.9296   472.3    4.301      34.928
2015   10       16     2   0    2.9282   472.0    4.301      34.873
2015   10       16     2   7    2.9267   471.8    4.302      34.819
2015   10       16     2  13    2.9252   471.5    4.303      34.765
2015   10       16     2  19    2.9237   471.2    4.304      34.711
2015   10       16     2  26    2.9222   471.0    4.304      34.656
2015   10       16     2  32    2.9207   470.7    4.305      34.602
2015   10       16     2  38    2.9192   470.4    4.306      34.548
2015   10       16     2  45    2.9177   470.1    4.307      34.493
2015   10       16     2  51    2.9162   469.9    4.308      34.439
2015   10       16     2  57    2.9147   469.6    4.309      34.385
2015   10       16     3   3    2.9133   469.3    4.310      34.331
2015   10       16     3  10    2.9118   469.0    4.310      34.278
2015   10       16     3  16    2.9104   468.7    4.311      34.224
2015   10       16     3  22    2.9089   468.4    4.313      34.171
2015   10       16     3  29    2.9075   468.2    4.314      34.118
2015   10       16     3  35    2.9061   467.9    4.315      34.066
2015   10       16     3  41    2.9048   467.6    4.316      34.013
2015   10       16     3  48    2.9035   467.3    4.318      33.962
2015   10       16     3  54    2.9022   467.0    4.319      33.910
2015   10       16     4   0    2.9009   466.7    4.321      33.859
2015   10       16     4   7    2.8997   466.4    4.322      33.808
2015   10       16     4  13    2.8985   466.2    4.324      33.757
2015   10       16     4  19    2.8974   465.9    4.326      33.707
2015   10       16     4  25    2.8962   465.6    4.328      33.657
2015   10       16     4  32    2.8952   465.3    4.330      33.608
2015   10       16     4  38    2.8941   465.0    4.332      33.558
2015   10       16     4  44    2.8931   464.7    4.335      33.509
2015   10       16     4  51    2.8921   464.4    4.337      33.461
2015   10       16     4  57    2.8912   464.1    4.340      33.413
2015   10       16     5   3    2.8903   463.8    4.342      33.365
2015   10       16     5  10    2.8894   463.6    4.345      33.317
2015   10       16     5  16    2.8886   463.3    4.348      33.270
2015   10       16     5  22    2.8878   463.0    4.351      33.222
2015   10       16     5  28    2.8870   462.7    4.354      33.175
2015   10       16     5  35    2.8863   462.4    4.357      33.129
2015   10       16     5  41    2.8856   462.1    4.360      33.082
2015   10       16     5  47    2.8849   461.8    4.363      33.036
2015   10       16     5  54    2.8843   461.5    4.367      32.990
2015   10       16     6   0    2.8836   461.2    4.370      32.944
2015   10       16     6   6    2.8830   460.9    4.373      32.898
2015   10       16     6  13    2.8825   460.6    4.377      32.852
2015   10       16     6  19    2.8819   460.3    4.380      32.807
2015   10       16     6  25    2.8814   460.1    4.384      32.762
2015   10       16     6  32    2.8808   459.8    4.387      32.717
2015   10       16     6  38    2.8803   459.5    4.391      32.671
2015   10       16     6  44    2.8798   459.2    4.394      32.626
2015   10       16     6  50    2.8792   458.9    4.397      32.581
2015   10       16     6  57    2.8787   458.6    4.401      32.536
2015   10       16     7   3    2.8782   458.3    4.404      32.491
2015   10       16     7   9    2.8777   458.0    4.408      32.447
2015   10       16     7  16    2.8772   457.7    4.411      32.402
2015   10       16     7  22    2.8767   457.4    4.414      32.357
2015   10       16     7  28    2.8762   457.1    4.417      32.312
2015   10       16     7  35    2.8757   456.8    4.421      32.267
2015   10       16     7  41    2.8752   456.5    4.424      32.222
2015   10       16     7  47    2.8747   456.2    4.427      32.177
2015   10       16     7  54    2.8743   455.9    4.430      32.132
2015   10       16     8   0    2.8738   455.6    4.433      32.087
2015   10       16     8   6    2.8734   455.3    4.436      32.042
2015   10       16     8  12    2.8730   455.0    4.439      31.998
2015   10       16     8  19    2.8726   454.6    4.441      31.953
2015   10       16     8  25    2.8722   454.3    4.444      31.908
2015   10       16     8  31    2.8719   454.0    4.447      31.863
2015   10       16     8  38    2.8716   453.7    4.450      31.819
2015   10       16     8  44    2.8712   453.4    4.452      31.774
2015   10       16     8  50    2.8710   453.1    4.455      31.729
2015   10       16     8  57    2.8707   452.8    4.458      31.685
2015   10       16     9   3    2.8704   452.5    4.460      31.640
2015   10       16     9   9    2.8702   452.1    4.463      31.596
2015   10       16     9  15    2.8701   451.8    4.466      31.552
2015   10       16     9  22    2.8699   451.5    4.468      31.508
2015   10       16     9  28    2.8698   451.2    4.471      31.464
2015   10       16     9  34    2.8697   450.9    4.474      31.420
2015   10       16     9  41    2.8697   450.5    4.477      31.376
2015   10       16     9  47    2.8697   450.2    4.479      31.332
2015   10       16     9  53    2.8697   449.9    4.482      31.289
2015   10       16    10   0    2.8698   449.6    4.486      31.246
2015   10       16    10   6    2.8699   449.2    4.489      31.203
2015   10       16    10  12    2.8701   448.9    4.492      31.160
2015   10       16    10  19    2.8703   448.6    4.495      31.118
2015   10       16    10  25    2.8706   448.3    4.499      31.076
2015   10       16    10  31    2.8709   447.9    4.503      31.035
2015   10       16    10  37    2.8713   447.6    4.507      30.994
2015   10       16    10  44    2.8717   447.3    4.511      30.953
2015   10       16    10  50    2.8722   447.0    4.515      30.913
2015   10       16    10  56    2.8728   446.6    4.520      30.874
2015   10       16    11   3    2.8734   446.3    4.524      30.834
2015   10       16    11   9    2.8741   446.0    4.529      30.796
2015   10       16    11  15    2.8748   445.6    4.534      30.758
2015   10       16    11  22    2.8756   445.3    4.540      30.721
2015   10       16    11  28    2.8765   445.0    4.546      30.684
2015   10       16    11  34    2.8774   444.7    4.552      30.648
2015   10       16    11  41    2.8784   444.3    4.558      30.613
2015   10       16    11  47    2.8794   444.0    4.564      30.578
2015   10       16    11  53    2.8806   443.7    4.571      30.544
2015   10       16    11  59    2.8817   443.4    4.578      30.511
2015   10       16    12   6    2.8829   443.1    4.586      30.478
2015   10       16    12  12    2.8842   442.7    4.593      30.446
2015   10       16    12  18    2.8855   442.4    4.601      30.415
2015   10       16    12  25    2.8869   442.1    4.609      30.384
2015   10       16    12  31    2.8883   441.8    4.618      30.354
2015   10       16    12  37    2.8898   441.5    4.626      30.325
2015   10       16    12  44    2.8913   441.1    4.635      30.296
2015   10       16    12  50    2.8929   440.8    4.644      30.268
2015   10       16    12  56    2.8945   440.5    4.654      30.241
2015   10       16    13   2    2.8961   440.2    4.663      30.214
2015   10       16    13   9    2.8978   439.9    4.673      30.188
2015   10       16    13  15    2.8996   439.6    4.683      30.163
2015   10       16    13  21    2.9014   439.3    4.694      30.138
2015   10       16    13  28    2.9032   438.9    4.704      30.114
2015   10       16    13  34    2.9050   438.6    4.715      30.090
2015   10       16    13  40    2.9069   438.3    4.725      30.067
2015   10       16    13  47    2.9089   438.0    4.736      30.045
2015   10       16    13  53    2.9108   437.7    4.748      30.023
2015   10       16    13  59    2.9128   437.4    4.759      30.002
2015   10       16    14   6    2.9148   437.1    4.770      29.981
2015   10       16    14  12    2.9169   436.8    4.782      29.961
2015   10       16    14  18    2.9190   436.5    4.793      29.941
2015   10       16    14  24    2.9211   436.2    4.805      29.922
2015   10       16    14  31    2.9232   435.9    4.817      29.903
2015   10       16    14  37    2.9254   435.6    4.828      29.885
2015   10       16    14  43    2.9276   435.3    4.840      29.867
2015   10       16    14  50    2.9299   435.0    4.852      29.850
2015   10       16    14  56    2.9321   434.7    4.864      29.833
2015   10       16    15   2    2.9344   434.5    4.876      29.816
2015   10       16    15   9    2.9367   434.2    4.888      29.800
2015   10       16    15  15    2.9391   433.9    4.900      29.784
2015   10       16    15  21    2.9415   433.6    4.911      29.768
2015   10       16    15  28    2.9440   433.3    4.923      29.753
2015   10       16    15  34    2.9465   433.0    4.935      29.738
2015   10       16    15  40    2.9490   432.7    4.947      29.723
2015   10       16    15  46    2.9515   432.5    4.958      29.709
2015   10       16    15  53    2.9541   432.2    4.970      29.695
2015   10       16    15  59    2.9567   431.9    4.982      29.682
2015   10       16    16   5    2.9594   431.6    4.994      29.669
2015   10       16    16  12    2.9621   431.3    5.005      29.656
2015   10       16    16  18    2.9649   431.1    5.017      29.643
2015   10       16    16  24    2.9677   430.8    5.028      29.631
2015   10       16    16  31    2.9706   430.5    5.040      29.620
2015   10       16    16  37    2.9735   430.3    5.052      29.608
2015   10       16    16  43    2.9764   430.0    5.063      29.598
2015   10       16    16  49    2.9794   429.7    5.075      29.587
2015   10       16    16  56    2.9825   429.4    5.087      29.577
2015   10       16    17   2    2.9855   429.2    5.098      29.568
2015   10       16    17   8    2.9887   428.9    5.110      29.558
2015   10       16    17  15    2.9918   428.7    5.122      29.550
2015   10       16    17  21    2.9951   428.4    5.133      29.542
2015   10       16    17  27    2.9984   428.1    5.145      29.534
2015   10       16    17  34    3.0017   427.9    5.157      29.527
2015   10       16    17  40    3.0051   427.6    5.169      29.520
2015   10       16    17  46    3.0086   427.4    5.181      29.514
2015   10       16    17  53    3.0120   427.1    5.193      29.508
2015   10       16    17  59    3.0156   426.9    5.205      29.503
2015   10       16    18   5    3.0191   426.6    5.218      29.499
2015   10       16    18  11    3.0228   426.4    5.230      29.494
2015   10       16    18  18    3.0264   426.1    5.243      29.491
2015   10       16    18  24    3.0302   425.9    5.255      29.488
2015   10       16    18  30    3.0339   425.6    5.268      29.485
2015   10       16    18  37    3.0377   425.4    5.281      29.483
2015   10       16    18  43    3.0415   425.2    5.294      29.482
2015   10       16    18  49    3.0454   424.9    5.307      29.481
2015   10       16    18  56    3.0493   424.7    5.320      29.480
2015   10       16    19   2    3.0532   424.4    5.333      29.480
2015   10       16    19   8    3.0571   424.2    5.347      29.480
2015   10       16    19  15    3.0612   424.0    5.360      29.481
2015   10       16    19  21    3.0652   423.8    5.374      29.482
2015   10       16    19  27    3.0692   423.5    5.388      29.483
2015   10       16    19  33    3.0733   423.3    5.402      29.485
2015   10       16    19  40    3.0774   423.1    5.416      29.487
2015   10       16    19  46    3.0816   422.8    5.430      29.490
2015   10       16    19  52    3.0858   422.6    5.444      29.493
2015   10       16    19  59    3.0900   422.4    5.459      29.496
2015   10       16    20   5    3.0943   422.2    5.473      29.499
2015   10       16    20  11    3.0985   422.0    5.488      29.503
2015   10       16    20  18    3.1029   421.7    5.503      29.507
2015   10       16    20  24    3.1073   421.5    5.518      29.511
2015   10       16    20  30    3.1117   421.3    5.533      29.515
2015   10       16    20  36    3.1161   421.1    5.548      29.520
2015   10       16    20  43    3.1206   420.9    5.563      29.525
2015   10       16    20  49    3.1251   420.7    5.578      29.531
2015   10       16    20  55    3.1297   420.5    5.594      29.536
2015   10       16    21   2    3.1343   420.3    5.609      29.542
2015   10       16    21   8    3.1390   420.1    5.625      29.548
2015   10       16    21  14    3.1437   419.9    5.640      29.554
2015   10       16    21  21    3.1484   419.7    5.656      29.561
2015   10       16    21  27    3.1532   419.5    5.672      29.567
2015   10       16    21  33    3.1580   419.3    5.688      29.574
2015   10       16    21  40    3.1628   419.1    5.703      29.581
2015   10       16    21  46    3.1677   418.9    5.719      29.589
2015   10       16    21  52    3.1726   418.7    5.735      29.596
2015   10       16    21  58    3.1776   418.5    5.751      29.604
2015   10       16    22   5    3.1826   418.3    5.768      29.612
2015   10       16    22  11    3.1877   418.1    5.784      29.621
2015   10       16    22  17    3.1928   417.9    5.800      29.629
2015   10       16    22  24    3.1980   417.7    5.816      29.638
2015   10       16    22  30    3.2031   417.6    5.832      29.647
2015   10       16    22  36    3.2084   417.4    5.849      29.657
2015   10       16    22  43    3.2136   417.2    5.865      29.666
2015   10       16    22  49    3.2189   417.0    5.882      29.677
2015   10       16    22  55    3.2243   416.8    5.898      29.687
2015   10       16    23   1    3.2297   416.7    5.914      29.698
2015   10       16    23   8    3.2351   416.5    5.931      29.709
2015   10       16    23  14    3.2406   416.3    5.948      29.720
2015   10       16    23  20    3.2461   416.2    5.964      29.732
2015   10       16    23  27    3.2517   416.0    5.981      29.745
2015   10       16    23  33    3.2573   415.8    5.997      29.758
2015   10       16    23  39    3.2630   415.7    6.014      29.771
2015   10       16    23  46    3.2686   415.5    6.031      29.785
2015   10       16    23  52    3.2744   415.4    6.048      29.799
2015   10       16    23  58    3.2801   415.2    6.065      29.814
2015   10       17     0   5    3.2860   415.0    6.082      29.829
2015   10       17     0  11    3.2918   414.9    6.099      29.845
2015   10       17     0  17    3.2977   414.7    6.116      29.862
2015   10       17     0  23    3.3037   414.6    6.133      29.880
2015   10       17     0  30    3.3096   414.5    6.150      29.898
2015   10       17     0  36    3.3156   414.3    6.167      29.917
2015   10       17     0  42    3.3217   414.2    6.184      29.937
2015   10       17     0  49    3.3277   414.0    6.201      29.958
2015   10       17     0  55    3.3338   413.9    6.218      29.980
2015   10       17     1   1    3.3398   413.8    6.235      30.003
2015   10       17     1   8    3.3459   413.6    6.252      30.027
2015   10       17     1  14    3.3520   413.5    6.268      30.052
2015   10       17     1  20    3.3581   413.4    6.285      30.078
2015   10       17     1  27    3.3641   413.3    6.301      30.105
2015   10       17     1  33    3.3702   413.2    6.318      30.132
2015   10       17     1  39    3.3763   413.0    6.334      30.160
2015   10       17     1  45    3.3824   412.9    6.350      30.188
2015   10       17     1  52    3.3885   412.8    6.366      30.217
2015   10       17     1  58    3.3946   412.7    6.382      30.246
2015   10       17     2   4    3.4007   412.6    6.398      30.274
2015   10       17     2  11    3.4068   412.5    6.413      30.303
2015   10       17     2  17    3.4128   412.4    6.429      30.332
2015   10       17     2  23    3.4189   412.3    6.444      30.360
2015   10       17     2  30    3.4250   412.2    6.460      30.388
2015   10       17     2  36    3.4310   412.0    6.475      30.416
2015   10       17     2  42    3.4371   411.9    6.491      30.444
2015   10       17     2  48    3.4432   411.8    6.506      30.472
2015   10       17     2  55    3.4492   411.7    6.521      30.499
2015   10       17     3   1    3.4553   411.6    6.536      30.527
2015   10       17     3   7    3.4613   411.5    6.551      30.554
2015   10       17     3  14    3.4674   411.4    6.566      30.580
2015   10       17     3  20    3.4735   411.3    6.580      30.607
2015   10       17     3  26    3.4795   411.2    6.595      30.633
2015   10       17     3  33    3.4856   411.2    6.610      30.659
2015   10       17     3  39    3.4917   411.1    6.624      30.685
2015   10       17     3  45    3.4977   411.0    6.639      30.710
2015   10       17     3  52    3.5038   410.9    6.653      30.735
2015   10       17     3  58    3.5099   410.8    6.667      30.760
2015   10       17     4   4    3.5160   410.7    6.682      30.785
2015   10       17     4  10    3.5221   410.6    6.696      30.809
2015   10       17     4  17    3.5282   410.5    6.710      30.833
2015   10       17     4  23    3.5343   410.4    6.724      30.857
2015   10       17     4  29    3.5405   410.3    6.738      30.880
2015   10       17     4  36    3.5466   410.2    6.751      30.903
2015   10       17     4  42    3.5528   410.2    6.765      30.926
2015   10       17     4  48    3.5589   410.1    6.779      30.949
2015   10       17     4  55    3.5651   410.0    6.793      30.971
2015   10       17     5   1    3.5713   409.9    6.807      30.994
2015   10       17     5   7    3.5776   409.8    6.820      31.016
2015   10       17     5  14    3.5838   409.7    6.834      31.038
2015   10       17     5  20    3.5901   409.6    6.848      31.060
2015   10       17     5  26    3.5964   409.6    6.861      31.082
2015   10       17     5  32    3.6027   409.5    6.875      31.105
2015   10       17     5  39    3.6091   409.4    6.889      31.127
2015   10       17     5  45    3.6155   409.3    6.903      31.149
2015   10       17     5  51    3.6219   409.2    6.917      31.171
2015   10       17     5  58    3.6283   409.2    6.931      31.194
2015   10       17     6   4    3.6348   409.1    6.945      31.216
2015   10       17     6  10    3.6413   409.0    6.959      31.240
2015   10       17     6  17    3.6479   408.9    6.973      31.263
2015   10       17     6  23    3.6545   408.9    6.988      31.287
2015   10       17     6  29    3.6611   408.8    7.002      31.311
2015   10       17     6  35    3.6677   408.7    7.017      31.336
2015   10       17     6  42    3.6744   408.6    7.031      31.362
2015   10       17     6  48    3.6811   408.6    7.046      31.388
2015   10       17     6  54    3.6877   408.5    7.060      31.415
2015   10       17     7   1    3.6944   408.5    7.075      31.443
2015   10       17     7   7    3.7012   408.4    7.090      31.472
2015   10       17     7  13    3.7079   408.3    7.104      31.502
2015   10       17     7  20    3.7146   408.3    7.119      31.533
2015   10       17     7  26    3.7214   408.2    7.133      31.565
2015   10       17     7  32    3.7281   408.2    7.148      31.598
2015   10       17     7  39    3.7349   408.1    7.162      31.631
2015   10       17     7  45    3.7417   408.1    7.176      31.665
2015   10       17     7  51    3.7485   408.0    7.191      31.700
2015   10       17     7  57    3.7553   408.0    7.205      31.735
2015   10       17     8   4    3.7621   407.9    7.219      31.771
2015   10       17     8  10    3.7689   407.9    7.233      31.808
2015   10       17     8  16    3.7756   407.9    7.247      31.846
2015   10       17     8  23    3.7824   407.8    7.260      31.884
2015   10       17     8  29    3.7891   407.8    7.274      31.922
2015   10       17     8  35    3.7959   407.7    7.287      31.961
2015   10       17     8  42    3.8026   407.7    7.300      32.001
2015   10       17     8  48    3.8093   407.7    7.313      32.040
2015   10       17     8  54    3.8159   407.6    7.326      32.080
2015   10       17     9   0    3.8226   407.6    7.339      32.119
2015   10       17     9   7    3.8293   407.6    7.351      32.159
2015   10       17     9  13    3.8359   407.5    7.364      32.198
2015   10       17     9  19    3.8425   407.5    7.376      32.237
2015   10       17     9  26    3.8491   407.5    7.388      32.275
2015   10       17     9  32    3.8558   407.4    7.400      32.313
2015   10       17     9  38    3.8624   407.4    7.411      32.350
2015   10       17     9  45    3.8690   407.4    7.423      32.387
2015   10       17     9  51    3.8755   407.3    7.435      32.423
2015   10       17     9  57    3.8821   407.3    7.446      32.458
2015   10       17    10   4    3.8887   407.3    7.458      32.493
2015   10       17    10  10    3.8953   407.2    7.469      32.528
2015   10       17    10  16    3.9019   407.2    7.480      32.562
2015   10       17    10  22    3.9085   407.2    7.491      32.595
2015   10       17    10  29    3.9151   407.1    7.502      32.628
2015   10       17    10  35    3.9217   407.1    7.513      32.661
2015   10       17    10  41    3.9283   407.1    7.524      32.694
2015   10       17    10  48    3.9350   407.1    7.535      32.726
2015   10       17    10  54    3.9416   407.0    7.546      32.757
2015   10       17    11   0    3.9483   407.0    7.557      32.789
2015   10       17    11   7    3.9550   407.0    7.568      32.820
2015   10       17    11  13    3.9617   407.0    7.579      32.851
2015   10       17    11  19    3.9684   406.9    7.590      32.882
2015   10       17    11  26    3.9751   406.9    7.601      32.913
2015   10       17    11  32    3.9819   406.9    7.612      32.944
2015   10       17    11  38    3.9887   406.9    7.623      32.974
2015   10       17    11  44    3.9954   406.8    7.635      33.004
2015   10       17    11  51    4.0023   406.8    7.646      33.035
2015   10       17    11  57    4.0091   406.8    7.657      33.065
2015   10       17    12   3    4.0160   406.8    7.669      33.096
2015   10       17    12  10    4.0228   406.8    7.680      33.126
2015   10       17    12  16    4.0298   406.7    7.692      33.157
2015   10       17    12  22    4.0367   406.7    7.704      33.188
2015   10       17    12  29    4.0436   406.7    7.716      33.219
2015   10       17    12  35    4.0506   406.7    7.728      33.250
2015   10       17    12  41    4.0576   406.7    7.740      33.282
2015   10       17    12  47    4.0646   406.7    7.752      33.315
2015   10       17    12  54    4.0716   406.7    7.765      33.348
2015   10       17    13   0    4.0786   406.6    7.778      33.382
2015   10       17    13   6    4.0856   406.6    7.791      33.416
2015   10       17    13  13    4.0926   406.6    7.804      33.451
2015   10       17    13  19    4.0997   406.6    7.817      33.488
2015   10       17    13  25    4.1067   406.6    7.830      33.525
2015   10       17    13  32    4.1138   406.6    7.843      33.563
2015   10       17    13  38    4.1208   406.6    7.856      33.604
2015   10       17    13  44    4.1278   406.6    7.869      33.645
2015   10       17    13  51    4.1349   406.7    7.882      33.688
2015   10       17    13  57    4.1419   406.7    7.895      33.732
2015   10       17    14   3    4.1489   406.7    7.908      33.777
2015   10       17    14   9    4.1558   406.7    7.920      33.822
2015   10       17    14  16    4.1628   406.7    7.932      33.868
2015   10       17    14  22    4.1697   406.7    7.944      33.914
2015   10       17    14  28    4.1766   406.8    7.956      33.959
2015   10       17    14  35    4.1834   406.8    7.967      34.006
2015   10       17    14  41    4.1903   406.8    7.978      34.052
2015   10       17    14  47    4.1971   406.8    7.989      34.098
2015   10       17    14  54    4.2039   406.9    8.000      34.145
2015   10       17    15   0    4.2107   406.9    8.010      34.191
2015   10       17    15   6    4.2174   406.9    8.021      34.237
2015   10       17    15  12    4.2242   406.9    8.031      34.283
2015   10       17    15  19    4.2309   406.9    8.041      34.328
2015   10       17    15  25    4.2377   407.0    8.051      34.374
2015   10       17    15  31    4.2444   407.0    8.060      34.419
2015   10       17    15  38    4.2511   407.0    8.070      34.464
2015   10       17    15  44    4.2578   407.0    8.079      34.509
2015   10       17    15  50    4.2645   407.1    8.088      34.553
2015   10       17    15  57    4.2713   407.1    8.098      34.596
2015   10       17    16   3    4.2780   407.1    8.107      34.640
2015   10       17    16   9    4.2847   407.2    8.116      34.682
2015   10       17    16  16    4.2914   407.2    8.125      34.725
2015   10       17    16  22    4.2981   407.2    8.133      34.767
2015   10       17    16  28    4.3049   407.2    8.142      34.808
2015   10       17    16  34    4.3116   407.3    8.151      34.849
2015   10       17    16  41    4.3184   407.3    8.159      34.890
2015   10       17    16  47    4.3251   407.3    8.168      34.930
2015   10       17    16  53    4.3319   407.4    8.177      34.970
2015   10       17    17   0    4.3387   407.4    8.185      35.009
2015   10       17    17   6    4.3456   407.4    8.193      35.048
2015   10       17    17  12    4.3524   407.5    8.202      35.087
2015   10       17    17  19    4.3593   407.5    8.210      35.125
2015   10       17    17  25    4.3662   407.5    8.219      35.163
2015   10       17    17  31    4.3731   407.6    8.227      35.201
2015   10       17    17  37    4.3800   407.6    8.235      35.238
2015   10       17    17  44    4.3871   407.6    8.244      35.276
2015   10       17    17  50    4.3940   407.7    8.252      35.313
2015   10       17    17  56    4.4011   407.7    8.260      35.351
2015   10       17    18   3    4.4082   407.7    8.269      35.388
2015   10       17    18   9    4.4153   407.8    8.277      35.425
2015   10       17    18  15    4.4224   407.8    8.286      35.462
2015   10       17    18  22    4.4295   407.8    8.295      35.500
2015   10       17    18  28    4.4367   407.9    8.304      35.537
2015   10       17    18  34    4.4439   407.9    8.312      35.575
2015   10       17    18  41    4.4510   408.0    8.322      35.612
2015   10       17    18  47    4.4582   408.0    8.331      35.650
2015   10       17    18  53    4.4654   408.0    8.340      35.688
2015   10       17    18  59    4.4726   408.1    8.350      35.727
2015   10       17    19   6    4.4798   408.1    8.359      35.766
2015   10       17    19  12    4.4870   408.2    8.369      35.806
2015   10       17    19  18    4.4943   408.2    8.379      35.847
2015   10       17    19  25    4.5015   408.3    8.389      35.888
2015   10       17    19  31    4.5087   408.3    8.399      35.930
2015   10       17    19  37    4.5159   408.4    8.410      35.973
2015   10       17    19  44    4.5231   408.4    8.420      36.017
2015   10       17    19  50    4.5302   408.5    8.430      36.062
2015   10       17    19  56    4.5374   408.5    8.441      36.109
2015   10       17    20   3    4.5445   408.6    8.451      36.157
2015   10       17    20   9    4.5516   408.7    8.461      36.207
2015   10       17    20  15    4.5587   408.7    8.472      36.257
2015   10       17    20  21    4.5657   408.8    8.482      36.308
2015   10       17    20  28    4.5726   408.9    8.492      36.359
2015   10       17    20  34    4.5796   408.9    8.502      36.410
2015   10       17    20  40    4.5865   409.0    8.512      36.461
2015   10       17    20  47    4.5933   409.1    8.521      36.513
2015   10       17    20  53    4.6001   409.2    8.531      36.565
2015   10       17    20  59    4.6068   409.3    8.540      36.618
2015   10       17    21   6    4.6136   409.3    8.549      36.672
2015   10       17    21  12    4.6203   409.4    8.558      36.726
2015   10       17    21  18    4.6269   409.5    8.566      36.780
2015   10       17    21  24    4.6335   409.6    8.574      36.835
2015   10       17    21  31    4.6401   409.7    8.582      36.889
2015   10       17    21  37    4.6467   409.8    8.590      36.943
2015   10       17    21  43    4.6532   409.8    8.597      36.996
2015   10       17    21  50    4.6597   409.9    8.605      37.048
2015   10       17    21  56    4.6662   410.0    8.612      37.100
2015   10       17    22   2    4.6726   410.1    8.619      37.151
2015   10       17    22   9    4.6791   410.2    8.625      37.201
2015   10       17    22  15    4.6855   410.3    8.632      37.251
2015   10       17    22  21    4.6920   410.3    8.638      37.300
2015   10       17    22  28    4.6984   410.4    8.645      37.349
2015   10       17    22  34    4.7048   410.5    8.651      37.397
2015   10       17    22  40    4.7112   410.6    8.657      37.445
2015   10       17    22  46    4.7177   410.7    8.664      37.492
2015   10       17    22  53    4.7241   410.8    8.670      37.539
2015   10       17    22  59    4.7306   410.9    8.676      37.586
2015   10       17    23   5    4.7371   411.0    8.682      37.632
2015   10       17    23  12    4.7436   411.0    8.688      37.678
2015   10       17    23  18    4.7502   411.1    8.695      37.724
2015   10       17    23  24    4.7568   411.2    8.701      37.770
2015   10       17    23  31    4.7634   411.3    8.707      37.816
2015   10       17    23  37    4.7701   411.4    8.714      37.862
2015   10       17    23  43    4.7768   411.5    8.721      37.907
2015   10       17    23  49    4.7835   411.6    8.728      37.953
2015   10       17    23  56    4.7903   411.7    8.735      38.000
2015   10       18     0   2    4.7972   411.8    8.743      38.047
2015   10       18     0   8    4.8041   411.9    8.750      38.095
2015   10       18     0  15    4.8111   412.0    8.758      38.144
2015   10       18     0  21    4.8182   412.1    8.766      38.193
2015   10       18     0  27    4.8253   412.2    8.774      38.242
2015   10       18     0  34    4.8324   412.3    8.783      38.293
2015   10       18     0  40    4.8396   412.4    8.791      38.345
2015   10       18     0  46    4.8468   412.5    8.800      38.398
2015   10       18     0  53    4.8540   412.6    8.808      38.453
2015   10       18     0  59    4.8612   412.7    8.817      38.508
2015   10       18     1   5    4.8683   412.8    8.825      38.565
2015   10       18     1  11    4.8754   413.0    8.833      38.623
2015   10       18     1  18    4.8825   413.1    8.840      38.680
2015   10       18     1  24    4.8895   413.2    8.847      38.737
2015   10       18     1  30    4.8964   413.4    8.854      38.793
2015   10       18     1  37    4.9033   413.5    8.861      38.848
2015   10       18     1  43    4.9101   413.6    8.867      38.902
2015   10       18     1  49    4.9169   413.8    8.874      38.955
2015   10       18     1  56    4.9235   413.9    8.879      39.008
2015   10       18     2   2    4.9302   414.0    8.885      39.060
2015   10       18     2   8    4.9367   414.2    8.890      39.112
2015   10       18     2  15    4.9432   414.3    8.896      39.163
2015   10       18     2  21    4.9497   414.4    8.901      39.214
2015   10       18     2  27    4.9560   414.6    8.906      39.265
2015   10       18     2  33    4.9624   414.7    8.910      39.316
2015   10       18     2  40    4.9687   414.8    8.915      39.366
2015   10       18     2  46    4.9749   415.0    8.920      39.417
2015   10       18     2  52    4.9811   415.1    8.924      39.468
2015   10       18     2  59    4.9873   415.2    8.928      39.520
2015   10       18     3   5    4.9934   415.4    8.932      39.572
2015   10       18     3  11    4.9994   415.5    8.936      39.624
2015   10       18     3  18    5.0055   415.7    8.939      39.678
2015   10       18     3  24    5.0114   415.8    8.942      39.732
2015   10       18     3  30    5.0174   416.0    8.945      39.787
2015   10       18     3  36    5.0233   416.1    8.948      39.841
2015   10       18     3  43    5.0292   416.3    8.950      39.896
2015   10       18     3  49    5.0350   416.4    8.952      39.950
2015   10       18     3  55    5.0408   416.6    8.954      40.003
2015   10       18     4   2    5.0466   416.7    8.956      40.055
2015   10       18     4   8    5.0523   416.9    8.958      40.107
2015   10       18     4  14    5.0581   417.0    8.959      40.159
2015   10       18     4  21    5.0638   417.2    8.960      40.210
2015   10       18     4  27    5.0695   417.3    8.961      40.260
2015   10       18     4  33    5.0753   417.5    8.962      40.310
2015   10       18     4  40    5.0810   417.6    8.963      40.360
2015   10       18     4  46    5.0867   417.8    8.964      40.409
2015   10       18     4  52    5.0925   417.9    8.964      40.458
2015   10       18     4  58    5.0982   418.1    8.965      40.507
2015   10       18     5   5    5.1040   418.2    8.966      40.555
2015   10       18     5  11    5.1097   418.4    8.966      40.603
2015   10       18     5  17    5.1155   418.5    8.966      40.650
2015   10       18     5  24    5.1213   418.7    8.967      40.698
2015   10       18     5  30    5.1271   418.8    8.967      40.745
2015   10       18     5  36    5.1329   419.0    8.968      40.791
2015   10       18     5  43    5.1387   419.1    8.968      40.838
2015   10       18     5  49    5.1446   419.3    8.969      40.885
2015   10       18     5  55    5.1504   419.4    8.969      40.931
2015   10       18     6   1    5.1562   419.6    8.970      40.977
2015   10       18     6   8    5.1621   419.7    8.970      41.023
2015   10       18     6  14    5.1679   419.8    8.971      41.069
2015   10       18     6  20    5.1738   420.0    8.972      41.115
2015   10       18     6  27    5.1797   420.1    8.973      41.161
2015   10       18     6  33    5.1856   420.3    8.974      41.207
2015   10       18     6  39    5.1915   420.4    8.976      41.253
2015   10       18     6  46    5.1974   420.6    8.978      41.300
2015   10       18     6  52    5.2034   420.7    8.980      41.346
2015   10       18     6  58    5.2094   420.9    8.982      41.393
2015   10       18     7   5    5.2154   421.0    8.985      41.440
2015   10       18     7  11    5.2215   421.1    8.988      41.488
2015   10       18     7  17    5.2276   421.3    8.991      41.537
2015   10       18     7  23    5.2337   421.4    8.995      41.587
2015   10       18     7  30    5.2399   421.6    8.999      41.639
2015   10       18     7  36    5.2461   421.7    9.004      41.691
2015   10       18     7  42    5.2524   421.9    9.010      41.744
2015   10       18     7  49    5.2587   422.0    9.015      41.798
2015   10       18     7  55    5.2650   422.2    9.022      41.855
2015   10       18     8   1    5.2714   422.3    9.028      41.914
2015   10       18     8   8    5.2778   422.5    9.035      41.975
2015   10       18     8  14    5.2841   422.7    9.042      42.038
2015   10       18     8  20    5.2904   422.8    9.049      42.103
2015   10       18     8  27    5.2966   423.0    9.056      42.170
2015   10       18     8  33    5.3028   423.2    9.062      42.238
2015   10       18     8  39    5.3090   423.4    9.069      42.307
2015   10       18     8  45    5.3150   423.6    9.075      42.377
2015   10       18     8  52    5.3209   423.8    9.081      42.447
2015   10       18     8  58    5.3268   423.9    9.087      42.516
2015   10       18     9   4    5.3325   424.1    9.092      42.586
2015   10       18     9  11    5.3381   424.3    9.096      42.655
2015   10       18     9  17    5.3436   424.5    9.100      42.725
2015   10       18     9  23    5.3491   424.7    9.104      42.793
2015   10       18     9  30    5.3544   424.9    9.107      42.859
2015   10       18     9  36    5.3596   425.1    9.109      42.924
2015   10       18     9  42    5.3648   425.3    9.111      42.988
2015   10       18     9  49    5.3699   425.5    9.113      43.050
2015   10       18     9  55    5.3749   425.7    9.114      43.111
2015   10       18    10   1    5.3799   425.9    9.115      43.171
2015   10       18    10   7    5.3848   426.1    9.116      43.230
2015   10       18    10  14    5.3897   426.3    9.116      43.288
2015   10       18    10  20    5.3945   426.5    9.117      43.346
2015   10       18    10  26    5.3993   426.7    9.117      43.402
2015   10       18    10  33    5.4041   426.9    9.117      43.458
2015   10       18    10  39    5.4089   427.1    9.117      43.513
2015   10       18    10  45    5.4136   427.3    9.116      43.568
2015   10       18    10  52    5.4184   427.5    9.116      43.622
2015   10       18    10  58    5.4232   427.7    9.116      43.676
2015   10       18    11   4    5.4280   427.9    9.115      43.730
2015   10       18    11  10    5.4328   428.1    9.115      43.784
2015   10       18    11  17    5.4377   428.3    9.115      43.837
2015   10       18    11  23    5.4426   428.5    9.115      43.890
2015   10       18    11  29    5.4476   428.7    9.115      43.943
2015   10       18    11  36    5.4527   428.9    9.115      43.998
2015   10       18    11  42    5.4578   429.1    9.116      44.053
2015   10       18    11  48    5.4630   429.3    9.116      44.109
2015   10       18    11  55    5.4683   429.5    9.117      44.166
2015   10       18    12   1    5.4737   429.7    9.118      44.223
2015   10       18    12   7    5.4792   429.9    9.120      44.282
2015   10       18    12  13    5.4848   430.2    9.122      44.342
2015   10       18    12  20    5.4904   430.4    9.123      44.405
2015   10       18    12  26    5.4960   430.6    9.125      44.470
2015   10       18    12  32    5.5017   430.8    9.127      44.536
2015   10       18    12  39    5.5073   431.1    9.128      44.605
2015   10       18    12  45    5.5128   431.3    9.129      44.676
2015   10       18    12  51    5.5183   431.6    9.130      44.748
2015   10       18    12  58    5.5236   431.8    9.130      44.818
2015   10       18    13   4    5.5289   432.1    9.130      44.888
2015   10       18    13  10    5.5340   432.3    9.130      44.956
2015   10       18    13  17    5.5390   432.6    9.129      45.024
2015   10       18    13  23    5.5439   432.8    9.128      45.091
2015   10       18    13  29    5.5487   433.1    9.126      45.157
2015   10       18    13  35    5.5534   433.3    9.124      45.223
2015   10       18    13  42    5.5580   433.6    9.122      45.288
2015   10       18    13  48    5.5626   433.8    9.120      45.352
2015   10       18    13  54    5.5670   434.1    9.117      45.415
2015   10       18    14   1    5.5714   434.3    9.114      45.478
2015   10       18    14   7    5.5758   434.6    9.112      45.541
2015   10       18    14  13    5.5801   434.8    9.109      45.603
2015   10       18    14  20    5.5843   435.1    9.106      45.665
2015   10       18    14  26    5.5885   435.3    9.103      45.727
2015   10       18    14  32    5.5927   435.6    9.100      45.789
2015   10       18    14  38    5.5969   435.8    9.097      45.851
2015   10       18    14  45    5.6010   436.1    9.094      45.913
2015   10       18    14  51    5.6051   436.3    9.091      45.975
2015   10       18    14  57    5.6092   436.6    9.088      46.037
2015   10       18    15   4    5.6132   436.8    9.085      46.099
2015   10       18    15  10    5.6173   437.1    9.083      46.162
2015   10       18    15  16    5.6213   437.3    9.080      46.225
2015   10       18    15  23    5.6254   437.6    9.078      46.289
2015   10       18    15  29    5.6294   437.8    9.076      46.353
2015   10       18    15  35    5.6334   438.1    9.073      46.419
2015   10       18    15  42    5.6373   438.3    9.071      46.484
2015   10       18    15  48    5.6413   438.6    9.069      46.549
2015   10       18    15  54    5.6452   438.8    9.067      46.615
2015   10       18    16   0    5.6491   439.1    9.064      46.681
2015   10       18    16   7    5.6529   439.3    9.062      46.749
2015   10       18    16  13    5.6567   439.6    9.060      46.817
2015   10       18    16  19    5.6604   439.9    9.057      46.885
2015   10       18    16  26    5.6641   440.1    9.054      46.954
2015   10       18    16  32    5.6678   440.4    9.051      47.023
2015   10       18    16  38    5.6714   440.7    9.048      47.093
2015   10       18    16  45    5.6749   440.9    9.044      47.162
2015   10       18    16  51    5.6784   441.2    9.040      47.230
2015   10       18    16  57    5.6819   441.5    9.036      47.297
2015   10       18    17   4    5.6854   441.7    9.032      47.364
2015   10       18    17  10    5.6887   442.0    9.027      47.429
2015   10       18    17  16    5.6921   442.3    9.023      47.494
2015   10       18    17  22    5.6954   442.6    9.018      47.558
2015   10       18    17  29    5.6987   442.9    9.012      47.621
2015   10       18    17  35    5.7020   443.1    9.007      47.683
2015   10       18    17  41    5.7052   443.4    9.002      47.744
2015   10       18    17  48    5.7084   443.7    8.996      47.804
2015   10       18    17  54    5.7115   444.0    8.990      47.863
2015   10       18    18   0    5.7146   444.2    8.984      47.921
2015   10       18    18   7    5.7177   444.5    8.978      47.978
2015   10       18    18  13    5.7208   444.8    8.972      48.033
2015   10       18    18  19    5.7238   445.1    8.966      48.088
2015   10       18    18  25    5.7268   445.4    8.960      48.142
2015   10       18    18  32    5.7298   445.6    8.953      48.196
2015   10       18    18  38    5.7329   445.9    8.947      48.248
2015   10       18    18  44    5.7360   446.2    8.941      48.300
2015   10       18    18  51    5.7391   446.5    8.935      48.351
2015   10       18    18  57    5.7422   446.7    8.929      48.403
2015   10       18    19   3    5.7454   447.0    8.924      48.456
2015   10       18    19  10    5.7487   447.3    8.918      48.509
2015   10       18    19  16    5.7519   447.6    8.913      48.562
2015   10       18    19  22    5.7553   447.9    8.909      48.615
2015   10       18    19  29    5.7587   448.1    8.904      48.669
2015   10       18    19  35    5.7621   448.4    8.900      48.726
2015   10       18    19  41    5.7656   448.7    8.895      48.784
2015   10       18    19  47    5.7690   449.0    8.891      48.844
2015   10       18    19  54    5.7724   449.3    8.887      48.906
2015   10       18    20   0    5.7757   449.7    8.882      48.971
2015   10       18    20   6    5.7788   450.0    8.877      49.037
2015   10       18    20  13    5.7819   450.3    8.872      49.104
2015   10       18    20  19    5.7847   450.6    8.866      49.170
2015   10       18    20  25    5.7874   451.0    8.860      49.235
2015   10       18    20  32    5.7900   451.3    8.853      49.299
2015   10       18    20  38    5.7924   451.6    8.846      49.363
2015   10       18    20  44    5.7946   451.9    8.838      49.426
2015   10       18    20  51    5.7967   452.3    8.830      49.489
2015   10       18    20  57    5.7987   452.6    8.821      49.551
2015   10       18    21   3    5.8005   452.9    8.812      49.612
2015   10       18    21   9    5.8022   453.3    8.803      49.672
2015   10       18    21  16    5.8038   453.6    8.793      49.732
2015   10       18    21  22    5.8053   453.9    8.783      49.791
2015   10       18    21  28    5.8067   454.2    8.773      49.849
2015   10       18    21  35    5.8080   454.6    8.762      49.907
2015   10       18    21  41    5.8093   454.9    8.751      49.964
2015   10       18    21  47    5.8105   455.2    8.740      50.020
2015   10       18    21  54    5.8116   455.6    8.729      50.076
2015   10       18    22   0    5.8127   455.9    8.717      50.132
2015   10       18    22   6    5.8138   456.2    8.706      50.187
2015   10       18    22  12    5.8148   456.5    8.694      50.241
2015   10       18    22  19    5.8157   456.9    8.681      50.295
2015   10       18    22  25    5.8166   457.2    8.669      50.348
2015   10       18    22  31    5.8175   457.5    8.656      50.401
2015   10       18    22  38    5.8183   457.9    8.644      50.453
2015   10       18    22  44    5.8191   458.2    8.631      50.504
2015   10       18    22  50    5.8198   458.5    8.617      50.554
2015   10       18    22  57    5.8204   458.9    8.604      50.604
2015   10       18    23   3    5.8211   459.2    8.590      50.653
2015   10       18    23   9    5.8216   459.5    8.577      50.701
2015   10       18    23  16    5.8221   459.9    8.563      50.749
2015   10       18    23  22    5.8226   460.2    8.548      50.795
2015   10       18    23  28    5.8230   460.5    8.534      50.841
2015   10       18    23  34    5.8234   460.9    8.520      50.886
2015   10       18    23  41    5.8238   461.2    8.505      50.931
2015   10       18    23  47    5.8241   461.6    8.490      50.975
2015   10       18    23  53    5.8244   461.9    8.475      51.019
2015   10       19     0   0    5.8246   462.3    8.460      51.062
2015   10       19     0   6    5.8248   462.6    8.445      51.105
2015   10       19     0  12    5.8250   463.0    8.430      51.148
2015   10       19     0  19    5.8251   463.3    8.414      51.191
2015   10       19     0  25    5.8251   463.7    8.399      51.233
2015   10       19     0  31    5.8250   464.1    8.382      51.275
2015   10       19     0  38    5.8248   464.5    8.366      51.317
2015   10       19     0  44    5.8245   464.9    8.349      51.358
2015   10       19     0  50    5.8240   465.3    8.331      51.398
2015   10       19     0  56    5.8233   465.6    8.314      51.437
2015   10       19     1   3    5.8225   466.0    8.295      51.475
2015   10       19     1   9    5.8215   466.4    8.276      51.513
2015   10       19     1  15    5.8202   466.8    8.256      51.547
2015   10       19     1  22    5.8187   467.2    8.236      51.577
2015   10       19     1  28    5.8169   467.6    8.215      51.603
2015   10       19     1  34    5.8149   468.0    8.194      51.626
2015   10       19     1  41    5.8129   468.3    8.173      51.647
2015   10       19     1  47    5.8107   468.7    8.152      51.665
2015   10       19     1  53    5.8084   469.0    8.132      51.678
2015   10       19     1  59    5.8063   469.3    8.112      51.693
2015   10       19     2   6    5.8043   469.6    8.092      51.708
2015   10       19     2  12    5.8023   469.9    8.073      51.724
2015   10       19     2  18    5.8004   470.3    8.054      51.741
2015   10       19     2  25    5.7986   470.6    8.036      51.758
2015   10       19     2  31    5.7968   470.9    8.017      51.774
2015   10       19     2  37    5.7951   471.2    8.000      51.791
2015   10       19     2  44    5.7934   471.5    7.982      51.808
2015   10       19     2  50    5.7917   471.8    7.965      51.825
2015   10       19     2  56    5.7901   472.2    7.948      51.842
2015   10       19     3   2    5.7885   472.5    7.931      51.860
2015   10       19     3   9    5.7869   472.8    7.915      51.878
2015   10       19     3  15    5.7853   473.1    7.899      51.895
2015   10       19     3  21    5.7837   473.4    7.883      51.914
2015   10       19     3  28    5.7821   473.7    7.867      51.933
2015   10       19     3  34    5.7805   474.0    7.851      51.953
2015   10       19     3  40    5.7788   474.3    7.836      51.974
2015   10       19     3  47    5.7771   474.6    7.821      51.996
2015   10       19     3  53    5.7754   474.9    7.805      52.020
2015   10       19     3  59    5.7736   475.2    7.790      52.046
2015   10       19     4   6    5.7719   475.5    7.775      52.074
2015   10       19     4  12    5.7700   475.8    7.760      52.104
2015   10       19     4  18    5.7681   476.1    7.745      52.135
2015   10       19     4  24    5.7661   476.4    7.730      52.167
2015   10       19     4  31    5.7641   476.8    7.715      52.199
2015   10       19     4  37    5.7620   477.1    7.700      52.231
2015   10       19     4  43    5.7599   477.4    7.685      52.261
2015   10       19     4  50    5.7577   477.8    7.669      52.289
2015   10       19     4  56    5.7554   478.1    7.654      52.315
2015   10       19     5   2    5.7530   478.4    7.639      52.338
2015   10       19     5   9    5.7506   478.8    7.623      52.360
2015   10       19     5  15    5.7480   479.1    7.607      52.380
2015   10       19     5  21    5.7453   479.4    7.591      52.398
2015   10       19     5  28    5.7424   479.7    7.574      52.414
2015   10       19     5  34    5.7395   480.0    7.558      52.429
2015   10       19     5  40    5.7364   480.4    7.541      52.442
2015   10       19     5  46    5.7333   480.7    7.524      52.455
2015   10       19     5  53    5.7300   481.0    7.507      52.466
2015   10       19     5  59    5.7266   481.3    7.489      52.477
2015   10       19     6   5    5.7231   481.7    7.472      52.487
2015   10       19     6  12    5.7196   482.0    7.454      52.494
2015   10       19     6  18    5.7160   482.3    7.436      52.500
2015   10       19     6  24    5.7123   482.6    7.418      52.504
2015   10       19     6  31    5.7086   482.9    7.401      52.505
2015   10       19     6  37    5.7050   483.2    7.383      52.503
2015   10       19     6  43    5.7014   483.5    7.366      52.498
2015   10       19     6  49    5.6979   483.7    7.348      52.494
2015   10       19     6  56    5.6944   484.0    7.331      52.490
2015   10       19     7   2    5.6910   484.3    7.315      52.486
2015   10       19     7   8    5.6877   484.5    7.298      52.482
2015   10       19     7  15    5.6844   484.8    7.282      52.479
2015   10       19     7  21    5.6812   485.1    7.266      52.477
2015   10       19     7  27    5.6781   485.4    7.250      52.477
2015   10       19     7  34    5.6749   485.7    7.234      52.478
2015   10       19     7  40    5.6717   486.0    7.218      52.480
2015   10       19     7  46    5.6684   486.3    7.202      52.485
2015   10       19     7  53    5.6651   486.7    7.186      52.492
2015   10       19     7  59    5.6617   487.0    7.169      52.502
2015   10       19     8   5    5.6581   487.4    7.153      52.511
2015   10       19     8  11    5.6544   487.8    7.136      52.521
2015   10       19     8  18    5.6505   488.2    7.119      52.530
2015   10       19     8  24    5.6465   488.5    7.102      52.539
2015   10       19     8  30    5.6423   488.9    7.083      52.547
2015   10       19     8  37    5.6378   489.3    7.064      52.550
2015   10       19     8  43    5.6331   489.7    7.045      52.546
2015   10       19     8  49    5.6280   490.0    7.025      52.539
2015   10       19     8  56    5.6229   490.3    7.005      52.528
2015   10       19     9   2    5.6175   490.7    6.985      52.515
2015   10       19     9   8    5.6122   491.0    6.965      52.498
2015   10       19     9  15    5.6067   491.2    6.945      52.478
2015   10       19     9  21    5.6015   491.5    6.927      52.459
2015   10       19     9  27    5.5964   491.8    6.909      52.443
2015   10       19     9  33    5.5915   492.1    6.891      52.427
2015   10       19     9  40    5.5867   492.3    6.874      52.413
2015   10       19     9  46    5.5820   492.6    6.857      52.400
2015   10       19     9  52    5.5775   492.8    6.841      52.388
2015   10       19     9  59    5.5731   493.1    6.825      52.377
2015   10       19    10   5    5.5687   493.3    6.810      52.367
2015   10       19    10  11    5.5644   493.6    6.795      52.358
2015   10       19    10  18    5.5602   493.8    6.780      52.351
2015   10       19    10  24    5.5562   494.0    6.766      52.345
2015   10       19    10  30    5.5521   494.2    6.753      52.340
2015   10       19    10  36    5.5481   494.5    6.739      52.336
2015   10       19    10  43    5.5442   494.7    6.726      52.334
2015   10       19    10  49    5.5403   494.9    6.714      52.333
2015   10       19    10  55    5.5364   495.1    6.701      52.334
2015   10       19    11   2    5.5326   495.4    6.689      52.337
2015   10       19    11   8    5.5287   495.6    6.677      52.341
2015   10       19    11  14    5.5249   495.8    6.665      52.348
2015   10       19    11  21    5.5211   496.0    6.654      52.358
2015   10       19    11  27    5.5174   496.3    6.642      52.371
2015   10       19    11  33    5.5135   496.5    6.631      52.386
2015   10       19    11  39    5.5097   496.8    6.620      52.402
2015   10       19    11  46    5.5059   497.0    6.608      52.419
2015   10       19    11  52    5.5021   497.3    6.597      52.435
2015   10       19    11  58    5.4982   497.6    6.586      52.451
2015   10       19    12   5    5.4943   497.9    6.574      52.465
2015   10       19    12  11    5.4903   498.1    6.563      52.474
2015   10       19    12  17    5.4863   498.4    6.551      52.480
2015   10       19    12  24    5.4823   498.7    6.539      52.484
2015   10       19    12  30    5.4781   498.9    6.527      52.486
2015   10       19    12  36    5.4738   499.2    6.515      52.486
2015   10       19    12  43    5.4695   499.4    6.503      52.484
2015   10       19    12  49    5.4650   499.7    6.490      52.481
2015   10       19    12  55    5.4605   499.9    6.477      52.476
2015   10       19    13   1    5.4558   500.2    6.464      52.471
2015   10       19    13   8    5.4512   500.5    6.451      52.466
2015   10       19    13  14    5.4464   500.7    6.438      52.461
2015   10       19    13  20    5.4416   501.0    6.424      52.455
2015   10       19    13  27    5.4367   501.3    6.411      52.447
2015   10       19    13  33    5.4319   501.5    6.397      52.437
2015   10       19    13  39    5.4270   501.8    6.384      52.427
2015   10       19    13  46    5.4221   502.0    6.370      52.413
2015   10       19    13  52    5.4173   502.3    6.357      52.397
2015   10       19    13  58    5.4125   502.5    6.344      52.379
2015   10       19    14   5    5.4079   502.7    6.331      52.360
2015   10       19    14  11    5.4034   502.9    6.319      52.342
2015   10       19    14  17    5.3990   503.0    6.307      52.326
2015   10       19    14  23    5.3948   503.2    6.295      52.310
2015   10       19    14  30    5.3906   503.4    6.283      52.295
2015   10       19    14  36    5.3866   503.6    6.273      52.282
2015   10       19    14  42    5.3827   503.8    6.262      52.272
2015   10       19    14  49    5.3788   504.0    6.251      52.264
2015   10       19    14  55    5.3750   504.2    6.241      52.257
2015   10       19    15   1    5.3712   504.4    6.231      52.254
2015   10       19    15   8    5.3675   504.6    6.221      52.254
2015   10       19    15  14    5.3638   504.8    6.211      52.257
2015   10       19    15  20    5.3601   505.1    6.202      52.262
2015   10       19    15  27    5.3563   505.3    6.193      52.269
2015   10       19    15  33    5.3526   505.6    6.184      52.276
2015   10       19    15  39    5.3489   505.8    6.174      52.285
2015   10       19    15  45    5.3452   506.1    6.165      52.293
2015   10       19    15  52    5.3414   506.3    6.156      52.299
2015   10       19    15  58    5.3377   506.5    6.146      52.303
2015   10       19    16   4    5.3338   506.8    6.137      52.306
2015   10       19    16  11    5.3299   507.0    6.127      52.309
2015   10       19    16  17    5.3259   507.2    6.118      52.312
2015   10       19    16  23    5.3220   507.5    6.108      52.314
2015   10       19    16  30    5.3181   507.7    6.099      52.316
2015   10       19    16  36    5.3142   507.9    6.089      52.319
2015   10       19    16  42    5.3103   508.1    6.080      52.322
2015   10       19    16  48    5.3065   508.3    6.071      52.325
2015   10       19    16  55    5.3029   508.5    6.062      52.329
2015   10       19    17   1    5.2992   508.8    6.053      52.332
2015   10       19    17   7    5.2957   509.0    6.044      52.337
2015   10       19    17  14    5.2922   509.2    6.035      52.342
2015   10       19    17  20    5.2887   509.4    6.026      52.349
2015   10       19    17  26    5.2853   509.6    6.018      52.355
2015   10       19    17  33    5.2819   509.8    6.009      52.363
2015   10       19    17  39    5.2785   510.0    6.001      52.372
2015   10       19    17  45    5.2752   510.2    5.993      52.381
2015   10       19    17  52    5.2718   510.4    5.985      52.391
2015   10       19    17  58    5.2685   510.6    5.977      52.401
2015   10       19    18   4    5.2652   510.8    5.969      52.413
2015   10       19    18  10    5.2619   511.0    5.961      52.424
2015   10       19    18  17    5.2586   511.3    5.953      52.435
2015   10       19    18  23    5.2554   511.5    5.946      52.447
2015   10       19    18  29    5.2521   511.7    5.938      52.459
2015   10       19    18  36    5.2488   511.9    5.930      52.471
2015   10       19    18  42    5.2455   512.1    5.923      52.483
2015   10       19    18  48    5.2422   512.3    5.915      52.495
2015   10       19    18  55    5.2389   512.5    5.908      52.506
2015   10       19    19   1    5.2356   512.7    5.900      52.517
2015   10       19    19   7    5.2324   512.9    5.892      52.528
2015   10       19    19  13    5.2291   513.1    5.885      52.539
2015   10       19    19  20    5.2258   513.3    5.877      52.548
2015   10       19    19  26    5.2225   513.5    5.869      52.557
2015   10       19    19  32    5.2193   513.7    5.861      52.566
2015   10       19    19  39    5.2160   513.9    5.853      52.575
2015   10       19    19  45    5.2128   514.1    5.845      52.583
2015   10       19    19  51    5.2096   514.4    5.838      52.591
2015   10       19    19  58    5.2063   514.6    5.830      52.598
2015   10       19    20   4    5.2031   514.8    5.822      52.605
2015   10       19    20  10    5.2000   515.0    5.814      52.613
2015   10       19    20  17    5.1968   515.2    5.806      52.620
2015   10       19    20  23    5.1937   515.4    5.798      52.627
2015   10       19    20  29    5.1906   515.6    5.790      52.633
2015   10       19    20  35    5.1875   515.8    5.783      52.640
2015   10       19    20  42    5.1845   516.0    5.775      52.647
2015   10       19    20  48    5.1815   516.2    5.767      52.654
2015   10       19    20  54    5.1785   516.4    5.759      52.660
2015   10       19    21   1    5.1756   516.7    5.752      52.667
2015   10       19    21   7    5.1727   516.9    5.744      52.674
2015   10       19    21  13    5.1699   517.1    5.736      52.681
2015   10       19    21  20    5.1670   517.3    5.729      52.689
2015   10       19    21  26    5.1643   517.5    5.721      52.696
2015   10       19    21  32    5.1616   517.7    5.714      52.704
2015   10       19    21  39    5.1589   517.9    5.706      52.712
2015   10       19    21  45    5.1563   518.1    5.699      52.721
2015   10       19    21  51    5.1537   518.3    5.692      52.730
2015   10       19    21  57    5.1512   518.5    5.685      52.740
2015   10       19    22   4    5.1487   518.7    5.678      52.750
2015   10       19    22  10    5.1462   518.9    5.671      52.761
2015   10       19    22  16    5.1438   519.1    5.664      52.772
2015   10       19    22  23    5.1414   519.3    5.657      52.784
2015   10       19    22  29    5.1390   519.5    5.651      52.797
2015   10       19    22  35    5.1367   519.7    5.644      52.811
2015   10       19    22  42    5.1343   519.9    5.638      52.826
2015   10       19    22  48    5.1320   520.2    5.632      52.842
2015   10       19    22  54    5.1297   520.4    5.626      52.858
2015   10       19    23   0    5.1274   520.6    5.620      52.875
2015   10       19    23   7    5.1251   520.8    5.614      52.893
2015   10       19    23  13    5.1227   521.0    5.608      52.911
2015   10       19    23  19    5.1204   521.2    5.602      52.930
2015   10       19    23  26    5.1180   521.4    5.596      52.950
2015   10       19    23  32    5.1156   521.6    5.591      52.969
2015   10       19    23  38    5.1132   521.8    5.585      52.989
2015   10       19    23  45    5.1109   522.0    5.579      53.008
2015   10       19    23  51    5.1085   522.2    5.573      53.026
2015   10       19    23  57    5.1060   522.4    5.567      53.045
2015   10       20     0   4    5.1036   522.6    5.561      53.063
2015   10       20     0  10    5.1012   522.8    5.555      53.081
2015   10       20     0  16    5.0988   523.0    5.549      53.099
2015   10       20     0  22    5.0964   523.2    5.543      53.117
2015   10       20     0  29    5.0940   523.4    5.537      53.134
2015   10       20     0  35    5.0916   523.6    5.530      53.151
2015   10       20     0  41    5.0892   523.8    5.524      53.168
2015   10       20     0  48    5.0867   524.0    5.518      53.185
2015   10       20     0  54    5.0843   524.2    5.512      53.202
2015   10       20     1   0    5.0819   524.4    5.506      53.218
2015   10       20     1   7    5.0794   524.6    5.500      53.235
2015   10       20     1  13    5.0770   524.8    5.494      53.251
2015   10       20     1  19    5.0746   525.0    5.487      53.266
2015   10       20     1  25    5.0721   525.2    5.481      53.282
2015   10       20     1  32    5.0697   525.4    5.475      53.297
2015   10       20     1  38    5.0673   525.5    5.469      53.313
2015   10       20     1  44    5.0648   525.7    5.463      53.327
2015   10       20     1  51    5.0624   525.9    5.456      53.342
2015   10       20     1  57    5.0600   526.1    5.450      53.356
2015   10       20     2   3    5.0576   526.3    5.444      53.370
2015   10       20     2  10    5.0552   526.5    5.438      53.385
2015   10       20     2  16    5.0528   526.7    5.431      53.398
2015   10       20     2  22    5.0505   526.9    5.425      53.412
2015   10       20     2  29    5.0481   527.1    5.419      53.426
2015   10       20     2  35    5.0458   527.3    5.413      53.440
2015   10       20     2  41    5.0435   527.5    5.406      53.453
2015   10       20     2  47    5.0412   527.7    5.400      53.467
2015   10       20     2  54    5.0390   527.9    5.394      53.481
2015   10       20     3   0    5.0368   528.1    5.388      53.495
2015   10       20     3   6    5.0346   528.3    5.382      53.509
2015   10       20     3  13    5.0324   528.5    5.376      53.523
2015   10       20     3  19    5.0302   528.7    5.370      53.538
2015   10       20     3  25    5.0281   528.9    5.364      53.553
2015   10       20     3  32    5.0260   529.1    5.358      53.568
2015   10       20     3  38    5.0240   529.3    5.352      53.584
2015   10       20     3  44    5.0219   529.5    5.346      53.600
2015   10       20     3  50    5.0199   529.7    5.341      53.617
2015   10       20     3  57    5.0179   529.9    5.335      53.634
2015   10       20     4   3    5.0160   530.1    5.329      53.652
2015   10       20     4   9    5.0141   530.3    5.324      53.670
2015   10       20     4  16    5.0122   530.5    5.318      53.690
2015   10       20     4  22    5.0103   530.8    5.313      53.709
2015   10       20     4  28    5.0085   531.0    5.308      53.730
2015   10       20     4  35    5.0067   531.2    5.302      53.751
2015   10       20     4  41    5.0050   531.4    5.297      53.772
2015   10       20     4  47    5.0032   531.6    5.292      53.795
2015   10       20     4  54    5.0015   531.8    5.287      53.818
2015   10       20     5   0    4.9999   532.0    5.282      53.842
2015   10       20     5   6    4.9982   532.2    5.277      53.867
2015   10       20     5  12    4.9966   532.5    5.272      53.892
2015   10       20     5  19    4.9950   532.7    5.268      53.919
2015   10       20     5  25    4.9933   532.9    5.263      53.946
2015   10       20     5  31    4.9917   533.1    5.258      53.974
2015   10       20     5  38    4.9901   533.3    5.254      54.002
2015   10       20     5  44    4.9885   533.5    5.249      54.031
2015   10       20     5  50    4.9868   533.8    5.244      54.059
2015   10       20     5  57    4.9852   534.0    5.240      54.088
2015   10       20     6   3    4.9835   534.2    5.235      54.117
2015   10       20     6   9    4.9819   534.4    5.230      54.146
2015   10       20     6  16    4.9802   534.6    5.226      54.174
2015   10       20     6  22    4.9785   534.9    5.221      54.203
2015   10       20     6  28    4.9767   535.1    5.216      54.231
2015   10       20     6  34    4.9749   535.3    5.212      54.260
2015   10       20     6  41    4.9731   535.5    5.207      54.288
2015   10       20     6  47    4.9713   535.7    5.202      54.316
2015   10       20     6  53    4.9694   536.0    5.197      54.343
2015   10       20     7   0    4.9675   536.2    5.192      54.370
2015   10       20     7   6    4.9656   536.4    5.187      54.395
2015   10       20     7  12    4.9637   536.6    5.182      54.419
2015   10       20     7  19    4.9618   536.8    5.176      54.443
2015   10       20     7  25    4.9599   537.0    5.171      54.466
2015   10       20     7  31    4.9579   537.2    5.166      54.488
2015   10       20     7  37    4.9559   537.5    5.160      54.509
2015   10       20     7  44    4.9540   537.7    5.155      54.530
2015   10       20     7  50    4.9520   537.9    5.150      54.550
2015   10       20     7  56    4.9501   538.1    5.144      54.569
2015   10       20     8   3    4.9481   538.3    5.139      54.588
2015   10       20     8   9    4.9462   538.5    5.133      54.606
2015   10       20     8  15    4.9443   538.7    5.128      54.624
2015   10       20     8  22    4.9423   538.9    5.122      54.642
2015   10       20     8  28    4.9404   539.1    5.117      54.660
2015   10       20     8  34    4.9385   539.3    5.111      54.677
2015   10       20     8  41    4.9366   539.5    5.106      54.694
2015   10       20     8  47    4.9347   539.7    5.101      54.711
2015   10       20     8  53    4.9328   539.9    5.095      54.728
2015   10       20     8  59    4.9310   540.1    5.090      54.744
2015   10       20     9   6    4.9291   540.3    5.085      54.761
2015   10       20     9  12    4.9273   540.5    5.080      54.778
2015   10       20     9  18    4.9255   540.8    5.075      54.795
2015   10       20     9  25    4.9238   541.0    5.070      54.813
2015   10       20     9  31    4.9220   541.2    5.065      54.831
2015   10       20     9  37    4.9203   541.4    5.060      54.849
2015   10       20     9  44    4.9186   541.6    5.055      54.868
2015   10       20     9  50    4.9170   541.8    5.050      54.888
2015   10       20     9  56    4.9153   542.0    5.045      54.909
2015   10       20    10   2    4.9137   542.2    5.040      54.930
2015   10       20    10   9    4.9121   542.4    5.035      54.952
2015   10       20    10  15    4.9105   542.6    5.031      54.975
2015   10       20    10  21    4.9089   542.9    5.026      55.000
2015   10       20    10  28    4.9073   543.1    5.021      55.026
2015   10       20    10  34    4.9058   543.3    5.016      55.053
2015   10       20    10  40    4.9042   543.5    5.011      55.080
2015   10       20    10  47    4.9026   543.7    5.006      55.108
2015   10       20    10  53    4.9010   544.0    5.001      55.136
2015   10       20    10  59    4.8994   544.2    4.996      55.163
2015   10       20    11   6    4.8979   544.4    4.991      55.191
2015   10       20    11  12    4.8963   544.6    4.986      55.218
2015   10       20    11  18    4.8948   544.8    4.981      55.246
2015   10       20    11  24    4.8932   545.1    4.976      55.274
2015   10       20    11  31    4.8917   545.3    4.971      55.301
2015   10       20    11  37    4.8901   545.5    4.966      55.329
2015   10       20    11  43    4.8886   545.7    4.961      55.357
2015   10       20    11  50    4.8871   546.0    4.956      55.386
2015   10       20    11  56    4.8856   546.2    4.951      55.414
2015   10       20    12   2    4.8841   546.4    4.946      55.442
2015   10       20    12   9    4.8826   546.6    4.941      55.470
2015   10       20    12  15    4.8811   546.9    4.936      55.499
2015   10       20    12  21    4.8796   547.1    4.931      55.528
2015   10       20    12  28    4.8781   547.3    4.926      55.557
2015   10       20    12  34    4.8766   547.5    4.922      55.586
2015   10       20    12  40    4.8751   547.8    4.917      55.615
2015   10       20    12  46    4.8735   548.0    4.912      55.644
2015   10       20    12  53    4.8720   548.2    4.907      55.674
2015   10       20    12  59    4.8704   548.5    4.902      55.704
2015   10       20    13   5    4.8688   548.7    4.897      55.733
2015   10       20    13  12    4.8672   548.9    4.892      55.762
2015   10       20    13  18    4.8656   549.2    4.887      55.790
2015   10       20    13  24    4.8640   549.4    4.882      55.817
2015   10       20    13  31    4.8623   549.6    4.877      55.844
2015   10       20    13  37    4.8607   549.9    4.872      55.871
2015   10       20    13  43    4.8590   550.1    4.867      55.897
2015   10       20    13  49    4.8574   550.3    4.861      55.922
2015   10       20    13  56    4.8558   550.5    4.856      55.948
2015   10       20    14   2    4.8541   550.8    4.851      55.973
2015   10       20    14   8    4.8525   551.0    4.846      55.998
2015   10       20    14  15    4.8509   551.2    4.841      56.022
2015   10       20    14  21    4.8492   551.5    4.836      56.047
2015   10       20    14  27    4.8476   551.7    4.831      56.071
2015   10       20    14  34    4.8460   551.9    4.827      56.095
2015   10       20    14  40    4.8444   552.1    4.822      56.119
2015   10       20    14  46    4.8427   552.4    4.817      56.142
2015   10       20    14  53    4.8411   552.6    4.812      56.166
2015   10       20    14  59    4.8395   552.8    4.807      56.190
2015   10       20    15   5    4.8379   553.0    4.803      56.213
2015   10       20    15  11    4.8363   553.3    4.798      56.236
2015   10       20    15  18    4.8347   553.5    4.794      56.260
2015   10       20    15  24    4.8331   553.7    4.789      56.283
2015   10       20    15  30    4.8316   553.9    4.785      56.306
2015   10       20    15  37    4.8300   554.2    4.781      56.330
2015   10       20    15  43    4.8284   554.4    4.776      56.353
2015   10       20    15  49    4.8269   554.6    4.772      56.377
2015   10       20    15  56    4.8253   554.8    4.768      56.401
2015   10       20    16   2    4.8238   555.0    4.764      56.425
2015   10       20    16   8    4.8223   555.3    4.760      56.449
2015   10       20    16  14    4.8208   555.5    4.757      56.474
2015   10       20    16  21    4.8193   555.7    4.753      56.500
2015   10       20    16  27    4.8179   555.9    4.750      56.526
2015   10       20    16  33    4.8164   556.2    4.746      56.554
2015   10       20    16  40    4.8150   556.4    4.743      56.582
2015   10       20    16  46    4.8136   556.6    4.740      56.612
2015   10       20    16  52    4.8123   556.9    4.737      56.643
2015   10       20    16  59    4.8109   557.1    4.734      56.676
2015   10       20    17   5    4.8096   557.3    4.730      56.711
2015   10       20    17  11    4.8083   557.6    4.727      56.748
2015   10       20    17  18    4.8069   557.8    4.724      56.787
2015   10       20    17  24    4.8056   558.0    4.721      56.828
2015   10       20    17  30    4.8042   558.3    4.717      56.869
2015   10       20    17  36    4.8028   558.5    4.714      56.911
2015   10       20    17  43    4.8014   558.8    4.710      56.953
2015   10       20    17  49    4.8000   559.0    4.706      56.996
2015   10       20    17  55    4.7985   559.2    4.702      57.039
2015   10       20    18   2    4.7970   559.5    4.698      57.081
2015   10       20    18   8    4.7955   559.7    4.693      57.123
2015   10       20    18  14    4.7940   560.0    4.689      57.164
2015   10       20    18  21    4.7924   560.2    4.684      57.203
2015   10       20    18  27    4.7909   560.5    4.680      57.242
2015   10       20    18  33    4.7893   560.7    4.675      57.280
2015   10       20    18  40    4.7877   560.9    4.670      57.317
2015   10       20    18  46    4.7862   561.2    4.665      57.353
2015   10       20    18  52    4.7846   561.4    4.660      57.388
2015   10       20    18  58    4.7830   561.7    4.655      57.422
2015   10       20    19   5    4.7814   561.9    4.650      57.456
2015   10       20    19  11    4.7798   562.1    4.645      57.489
2015   10       20    19  17    4.7782   562.4    4.640      57.521
2015   10       20    19  24    4.7766   562.6    4.635      57.552
2015   10       20    19  30    4.7750   562.8    4.630      57.583
2015   10       20    19  36    4.7734   563.1    4.624      57.613
2015   10       20    19  43    4.7718   563.3    4.619      57.643
2015   10       20    19  49    4.7702   563.6    4.614      57.672
2015   10       20    19  55    4.7686   563.8    4.609      57.701
2015   10       20    20   1    4.7670   564.0    4.604      57.729
2015   10       20    20   8    4.7655   564.3    4.598      57.757
2015   10       20    20  14    4.7639   564.5    4.593      57.785
2015   10       20    20  20    4.7623   564.8    4.588      57.812
2015   10       20    20  27    4.7608   565.0    4.583      57.839
2015   10       20    20  33    4.7593   565.2    4.578      57.866
2015   10       20    20  39    4.7577   565.5    4.573      57.893
2015   10       20    20  46    4.7562   565.7    4.568      57.920
2015   10       20    20  52    4.7547   566.0    4.563      57.947
2015   10       20    20  58    4.7532   566.2    4.558      57.974
2015   10       20    21   5    4.7517   566.4    4.553      58.001
2015   10       20    21  11    4.7503   566.7    4.548      58.028
2015   10       20    21  17    4.7488   566.9    4.544      58.055
2015   10       20    21  23    4.7473   567.2    4.539      58.082
2015   10       20    21  30    4.7458   567.4    4.535      58.109
2015   10       20    21  36    4.7443   567.7    4.530      58.137
2015   10       20    21  42    4.7429   567.9    4.526      58.165
2015   10       20    21  49    4.7414   568.2    4.522      58.193
2015   10       20    21  55    4.7399   568.4    4.517      58.221
2015   10       20    22   1    4.7384   568.7    4.513      58.250
2015   10       20    22   8    4.7370   568.9    4.509      58.278
2015   10       20    22  14    4.7355   569.2    4.505      58.307
2015   10       20    22  20    4.7340   569.4    4.501      58.336
2015   10       20    22  26    4.7325   569.7    4.497      58.366
2015   10       20    22  33    4.7310   569.9    4.494      58.396
2015   10       20    22  39    4.7296   570.2    4.490      58.426
2015   10       20    22  45    4.7281   570.4    4.486      58.457
2015   10       20    22  52    4.7266   570.7    4.483      58.488
2015   10       20    22  58    4.7252   570.9    4.479      58.520
2015   10       20    23   4    4.7237   571.2    4.476      58.553
2015   10       20    23  11    4.7222   571.4    4.473      58.586
2015   10       20    23  17    4.7208   571.7    4.469      58.621
2015   10       20    23  23    4.7193   571.9    4.466      58.657
2015   10       20    23  30    4.7179   572.2    4.463      58.694
2015   10       20    23  36    4.7164   572.4    4.459      58.733
2015   10       20    23  42    4.7150   572.7    4.456      58.772
2015   10       20    23  48    4.7136   572.9    4.453      58.812
2015   10       20    23  55    4.7121   573.2    4.450      58.854
2015   10       21     0   1    4.7107   573.5    4.447      58.896
