year    month   day   hour  minute  B_enl V_enl   n_enl       T_enl
[year] [month] [day] [hour][minute] [nT]  [km/s]  [cm-3]      [kK]
2015   10        5     0   1    5.4181   426.9   11.886      52.142
2015   10        5     0   8    5.4059   427.7   11.797      52.156
2015   10        5     0  16    5.3917   428.4   11.703      52.135
2015   10        5     0  23    5.3763   429.1   11.605      52.088
2015   10        5     0  30    5.3595   429.8   11.504      52.019
2015   10        5     0  38    5.3422   430.4   11.401      51.935
2015   10        5     0  45    5.3237   431.1   11.297      51.838
2015   10        5     0  52    5.3050   431.6   11.197      51.719
2015   10        5     0  59    5.2861   432.2   11.100      51.600
2015   10        5     1   7    5.2677   432.8   11.005      51.494
2015   10        5     1  14    5.2491   433.4   10.913      51.397
2015   10        5     1  21    5.2307   434.1   10.821      51.312
2015   10        5     1  29    5.2118   434.7   10.730      51.232
2015   10        5     1  36    5.1927   435.4   10.640      51.147
2015   10        5     1  43    5.1733   436.0   10.551      51.057
2015   10        5     1  51    5.1540   436.6   10.463      50.966
2015   10        5     1  58    5.1346   437.2   10.378      50.874
2015   10        5     2   5    5.1157   437.8   10.296      50.779
2015   10        5     2  12    5.0971   438.3   10.218      50.674
2015   10        5     2  20    5.0793   438.7   10.144      50.575
2015   10        5     2  27    5.0622   439.1   10.074      50.484
2015   10        5     2  34    5.0459   439.6   10.009      50.402
2015   10        5     2  42    5.0302   440.0    9.947      50.327
2015   10        5     2  49    5.0151   440.4    9.889      50.259
2015   10        5     2  56    5.0005   440.7    9.834      50.195
2015   10        5     3   4    4.9866   441.1    9.782      50.139
2015   10        5     3  11    4.9731   441.4    9.733      50.090
2015   10        5     3  18    4.9601   441.7    9.687      50.047
2015   10        5     3  25    4.9474   442.1    9.643      50.010
2015   10        5     3  33    4.9351   442.4    9.601      49.979
2015   10        5     3  40    4.9230   442.6    9.561      49.957
2015   10        5     3  47    4.9113   442.9    9.523      49.944
2015   10        5     3  55    4.8998   443.2    9.486      49.938
2015   10        5     4   2    4.8885   443.5    9.450      49.940
2015   10        5     4   9    4.8772   443.8    9.415      49.956
2015   10        5     4  17    4.8660   444.1    9.381      49.986
2015   10        5     4  24    4.8548   444.4    9.348      50.026
2015   10        5     4  31    4.8438   444.8    9.315      50.074
2015   10        5     4  38    4.8328   445.1    9.282      50.125
2015   10        5     4  46    4.8219   445.5    9.249      50.180
2015   10        5     4  53    4.8111   445.9    9.217      50.236
2015   10        5     5   0    4.8003   446.2    9.185      50.280
2015   10        5     5   8    4.7894   446.6    9.153      50.314
2015   10        5     5  15    4.7786   446.9    9.121      50.340
2015   10        5     5  22    4.7675   447.2    9.089      50.360
2015   10        5     5  30    4.7564   447.5    9.056      50.376
2015   10        5     5  37    4.7449   447.8    9.023      50.384
2015   10        5     5  44    4.7333   448.2    8.989      50.389
2015   10        5     5  51    4.7214   448.6    8.953      50.393
2015   10        5     5  59    4.7093   449.0    8.917      50.396
2015   10        5     6   6    4.6969   449.5    8.880      50.398
2015   10        5     6  13    4.6842   450.0    8.840      50.396
2015   10        5     6  21    4.6710   450.5    8.799      50.392
2015   10        5     6  28    4.6576   451.1    8.755      50.388
2015   10        5     6  35    4.6434   451.7    8.707      50.386
2015   10        5     6  43    4.6287   452.4    8.655      50.379
2015   10        5     6  50    4.6130   453.1    8.600      50.357
2015   10        5     6  57    4.5966   453.8    8.540      50.317
2015   10        5     7   4    4.5792   454.4    8.475      50.258
2015   10        5     7  12    4.5609   455.1    8.407      50.174
2015   10        5     7  19    4.5416   455.8    8.333      50.071
2015   10        5     7  26    4.5213   456.5    8.254      49.947
2015   10        5     7  34    4.4997   457.2    8.170      49.772
2015   10        5     7  41    4.4773   457.7    8.083      49.557
2015   10        5     7  48    4.4542   458.3    7.995      49.309
2015   10        5     7  55    4.4309   458.8    7.907      49.038
2015   10        5     8   3    4.4076   459.2    7.821      48.745
2015   10        5     8  10    4.3845   459.5    7.740      48.422
2015   10        5     8  17    4.3622   459.7    7.664      48.101
2015   10        5     8  25    4.3408   460.0    7.593      47.803
2015   10        5     8  32    4.3203   460.2    7.525      47.523
2015   10        5     8  39    4.3005   460.5    7.462      47.260
2015   10        5     8  47    4.2813   460.8    7.401      47.009
2015   10        5     8  54    4.2626   461.0    7.344      46.772
2015   10        5     9   1    4.2445   461.3    7.290      46.544
2015   10        5     9   8    4.2269   461.5    7.239      46.328
2015   10        5     9  16    4.2097   461.8    7.190      46.122
2015   10        5     9  23    4.1929   462.0    7.142      45.924
2015   10        5     9  30    4.1765   462.2    7.097      45.733
2015   10        5     9  38    4.1603   462.4    7.053      45.548
2015   10        5     9  45    4.1445   462.6    7.011      45.368
2015   10        5     9  52    4.1289   462.8    6.970      45.194
2015   10        5    10   0    4.1137   463.0    6.931      45.024
2015   10        5    10   7    4.0986   463.1    6.893      44.858
2015   10        5    10  14    4.0837   463.3    6.856      44.694
2015   10        5    10  21    4.0691   463.4    6.820      44.534
2015   10        5    10  29    4.0546   463.6    6.785      44.376
2015   10        5    10  36    4.0402   463.7    6.751      44.221
2015   10        5    10  43    4.0260   463.8    6.717      44.067
2015   10        5    10  51    4.0119   463.9    6.685      43.916
2015   10        5    10  58    3.9979   464.0    6.653      43.765
2015   10        5    11   5    3.9840   464.1    6.622      43.616
2015   10        5    11  13    3.9701   464.2    6.591      43.468
2015   10        5    11  20    3.9564   464.3    6.562      43.322
2015   10        5    11  27    3.9426   464.4    6.532      43.176
2015   10        5    11  34    3.9290   464.4    6.504      43.031
2015   10        5    11  42    3.9154   464.5    6.475      42.887
2015   10        5    11  49    3.9018   464.6    6.448      42.744
2015   10        5    11  56    3.8883   464.6    6.420      42.601
2015   10        5    12   4    3.8748   464.7    6.393      42.459
2015   10        5    12  11    3.8614   464.7    6.367      42.317
2015   10        5    12  18    3.8479   464.8    6.341      42.176
2015   10        5    12  26    3.8346   464.8    6.315      42.035
2015   10        5    12  33    3.8212   464.8    6.290      41.895
2015   10        5    12  40    3.8079   464.8    6.265      41.755
2015   10        5    12  47    3.7946   464.8    6.240      41.616
2015   10        5    12  55    3.7814   464.8    6.216      41.477
2015   10        5    13   2    3.7682   464.8    6.192      41.338
2015   10        5    13   9    3.7550   464.8    6.169      41.200
2015   10        5    13  17    3.7419   464.8    6.146      41.062
2015   10        5    13  24    3.7289   464.8    6.124      40.925
2015   10        5    13  31    3.7159   464.8    6.102      40.789
2015   10        5    13  39    3.7029   464.7    6.081      40.653
2015   10        5    13  46    3.6901   464.7    6.060      40.519
2015   10        5    13  53    3.6772   464.6    6.040      40.385
2015   10        5    14   0    3.6645   464.6    6.020      40.252
2015   10        5    14   8    3.6519   464.5    6.001      40.120
2015   10        5    14  15    3.6394   464.4    5.982      39.989
2015   10        5    14  22    3.6271   464.3    5.964      39.859
2015   10        5    14  30    3.6149   464.3    5.946      39.730
2015   10        5    14  37    3.6029   464.2    5.929      39.603
2015   10        5    14  44    3.5911   464.1    5.913      39.477
2015   10        5    14  52    3.5797   463.9    5.898      39.352
2015   10        5    14  59    3.5683   463.8    5.883      39.229
2015   10        5    15   6    3.5573   463.7    5.868      39.108
2015   10        5    15  13    3.5465   463.6    5.854      38.989
2015   10        5    15  21    3.5360   463.5    5.841      38.872
2015   10        5    15  28    3.5256   463.3    5.829      38.757
2015   10        5    15  35    3.5156   463.2    5.817      38.644
2015   10        5    15  43    3.5057   463.1    5.805      38.534
2015   10        5    15  50    3.4962   462.9    5.794      38.426
2015   10        5    15  57    3.4868   462.8    5.784      38.322
2015   10        5    16   5    3.4776   462.7    5.774      38.221
2015   10        5    16  12    3.4686   462.6    5.764      38.122
2015   10        5    16  19    3.4597   462.5    5.755      38.026
2015   10        5    16  26    3.4510   462.4    5.747      37.934
2015   10        5    16  34    3.4424   462.2    5.738      37.843
2015   10        5    16  41    3.4338   462.1    5.730      37.755
2015   10        5    16  48    3.4254   462.0    5.722      37.669
2015   10        5    16  56    3.4171   461.9    5.715      37.585
2015   10        5    17   3    3.4089   461.8    5.708      37.503
2015   10        5    17  10    3.4007   461.6    5.701      37.422
2015   10        5    17  18    3.3927   461.5    5.694      37.342
2015   10        5    17  25    3.3847   461.4    5.688      37.265
2015   10        5    17  32    3.3768   461.3    5.681      37.188
2015   10        5    17  39    3.3690   461.1    5.675      37.112
2015   10        5    17  47    3.3613   461.0    5.669      37.037
2015   10        5    17  54    3.3537   460.9    5.662      36.962
2015   10        5    18   1    3.3461   460.7    5.656      36.888
2015   10        5    18   9    3.3386   460.6    5.649      36.813
2015   10        5    18  16    3.3312   460.5    5.643      36.737
2015   10        5    18  23    3.3239   460.4    5.637      36.661
2015   10        5    18  30    3.3166   460.2    5.630      36.584
2015   10        5    18  38    3.3094   460.1    5.624      36.507
2015   10        5    18  45    3.3023   460.0    5.617      36.430
2015   10        5    18  52    3.2952   459.8    5.611      36.353
2015   10        5    19   0    3.2883   459.7    5.605      36.277
2015   10        5    19   7    3.2814   459.6    5.598      36.200
2015   10        5    19  14    3.2745   459.5    5.592      36.124
2015   10        5    19  22    3.2677   459.3    5.585      36.048
2015   10        5    19  29    3.2610   459.2    5.579      35.973
2015   10        5    19  36    3.2544   459.1    5.572      35.899
2015   10        5    19  43    3.2478   458.9    5.565      35.825
2015   10        5    19  51    3.2413   458.8    5.559      35.751
2015   10        5    19  58    3.2349   458.7    5.552      35.678
2015   10        5    20   5    3.2286   458.6    5.545      35.606
2015   10        5    20  13    3.2224   458.4    5.538      35.534
2015   10        5    20  20    3.2162   458.3    5.532      35.463
2015   10        5    20  27    3.2101   458.2    5.525      35.393
2015   10        5    20  35    3.2041   458.0    5.518      35.323
2015   10        5    20  42    3.1982   457.9    5.512      35.253
2015   10        5    20  49    3.1924   457.8    5.505      35.185
2015   10        5    20  56    3.1867   457.6    5.499      35.116
2015   10        5    21   4    3.1810   457.5    5.492      35.049
2015   10        5    21  11    3.1755   457.4    5.486      34.982
2015   10        5    21  18    3.1701   457.2    5.479      34.915
2015   10        5    21  26    3.1647   457.1    5.473      34.849
2015   10        5    21  33    3.1594   456.9    5.467      34.783
2015   10        5    21  40    3.1546   456.8    5.461      34.723
2015   10        5    21  47    3.1497   456.7    5.455      34.663
2015   10        5    21  53    3.1451   456.5    5.450      34.604
2015   10        5    22   0    3.1405   456.4    5.445      34.546
2015   10        5    22   6    3.1361   456.3    5.440      34.489
2015   10        5    22  13    3.1318   456.1    5.435      34.433
2015   10        5    22  19    3.1275   456.0    5.430      34.377
2015   10        5    22  26    3.1234   455.8    5.426      34.321
2015   10        5    22  32    3.1193   455.7    5.421      34.266
2015   10        5    22  39    3.1153   455.6    5.417      34.211
2015   10        5    22  45    3.1114   455.4    5.413      34.157
2015   10        5    22  52    3.1075   455.3    5.409      34.102
2015   10        5    22  58    3.1038   455.1    5.406      34.049
2015   10        5    23   4    3.1000   455.0    5.403      33.996
2015   10        5    23  10    3.0964   454.8    5.399      33.943
2015   10        5    23  17    3.0928   454.7    5.397      33.891
2015   10        5    23  23    3.0893   454.5    5.394      33.840
2015   10        5    23  29    3.0858   454.4    5.391      33.790
2015   10        5    23  36    3.0823   454.2    5.389      33.741
2015   10        5    23  42    3.0789   454.1    5.387      33.693
2015   10        5    23  48    3.0755   453.9    5.385      33.647
2015   10        5    23  54    3.0721   453.8    5.384      33.601
2015   10        6     0   1    3.0688   453.6    5.382      33.557
2015   10        6     0   7    3.0655   453.5    5.381      33.515
2015   10        6     0  14    3.0623   453.3    5.380      33.474
2015   10        6     0  20    3.0591   453.2    5.379      33.434
2015   10        6     0  26    3.0559   453.0    5.378      33.396
2015   10        6     0  33    3.0528   452.9    5.377      33.359
2015   10        6     0  39    3.0497   452.7    5.377      33.323
2015   10        6     0  45    3.0467   452.6    5.376      33.288
2015   10        6     0  52    3.0437   452.4    5.376      33.255
2015   10        6     0  58    3.0408   452.2    5.375      33.222
2015   10        6     1   4    3.0379   452.1    5.375      33.190
2015   10        6     1  11    3.0350   451.9    5.374      33.159
2015   10        6     1  17    3.0322   451.8    5.374      33.127
2015   10        6     1  24    3.0293   451.6    5.373      33.096
2015   10        6     1  30    3.0266   451.4    5.373      33.063
2015   10        6     1  37    3.0238   451.3    5.372      33.031
2015   10        6     1  44    3.0212   451.1    5.372      32.997
2015   10        6     1  50    3.0185   450.9    5.371      32.964
2015   10        6     1  57    3.0159   450.8    5.371      32.930
2015   10        6     2   4    3.0134   450.6    5.370      32.896
2015   10        6     2  11    3.0109   450.4    5.370      32.861
2015   10        6     2  17    3.0085   450.2    5.370      32.827
2015   10        6     2  24    3.0061   450.1    5.370      32.793
2015   10        6     2  31    3.0038   449.9    5.370      32.758
2015   10        6     2  38    3.0015   449.7    5.370      32.724
2015   10        6     2  45    2.9993   449.6    5.370      32.689
2015   10        6     2  52    2.9971   449.4    5.370      32.655
2015   10        6     2  59    2.9950   449.2    5.370      32.620
2015   10        6     3   5    2.9929   449.1    5.370      32.586
2015   10        6     3  12    2.9909   448.9    5.370      32.552
2015   10        6     3  19    2.9889   448.7    5.371      32.517
2015   10        6     3  26    2.9870   448.5    5.371      32.483
2015   10        6     3  34    2.9851   448.4    5.372      32.448
2015   10        6     3  41    2.9832   448.2    5.373      32.414
2015   10        6     3  48    2.9813   448.0    5.373      32.379
2015   10        6     3  55    2.9796   447.8    5.374      32.344
2015   10        6     4   2    2.9778   447.7    5.375      32.309
2015   10        6     4  10    2.9761   447.5    5.376      32.275
2015   10        6     4  17    2.9745   447.3    5.377      32.240
2015   10        6     4  24    2.9729   447.1    5.378      32.206
2015   10        6     4  32    2.9713   447.0    5.379      32.172
2015   10        6     4  39    2.9698   446.8    5.381      32.139
2015   10        6     4  46    2.9684   446.6    5.382      32.105
2015   10        6     4  53    2.9670   446.4    5.383      32.072
2015   10        6     5   1    2.9656   446.3    5.385      32.039
2015   10        6     5   8    2.9643   446.1    5.386      32.007
2015   10        6     5  15    2.9630   445.9    5.388      31.974
2015   10        6     5  23    2.9617   445.7    5.389      31.942
2015   10        6     5  30    2.9605   445.6    5.391      31.910
2015   10        6     5  37    2.9593   445.4    5.393      31.879
2015   10        6     5  45    2.9582   445.2    5.394      31.848
2015   10        6     5  52    2.9571   445.1    5.396      31.817
2015   10        6     5  59    2.9560   444.9    5.398      31.786
2015   10        6     6   6    2.9550   444.7    5.400      31.755
2015   10        6     6  14    2.9541   444.5    5.402      31.725
2015   10        6     6  21    2.9531   444.4    5.404      31.695
2015   10        6     6  28    2.9522   444.2    5.406      31.665
2015   10        6     6  36    2.9513   444.0    5.408      31.635
2015   10        6     6  43    2.9505   443.8    5.410      31.605
2015   10        6     6  50    2.9497   443.7    5.412      31.576
2015   10        6     6  58    2.9489   443.5    5.415      31.547
2015   10        6     7   5    2.9482   443.3    5.417      31.518
2015   10        6     7  12    2.9476   443.1    5.419      31.489
2015   10        6     7  19    2.9469   443.0    5.422      31.460
2015   10        6     7  27    2.9464   442.8    5.424      31.432
2015   10        6     7  34    2.9458   442.6    5.427      31.403
2015   10        6     7  41    2.9453   442.4    5.430      31.375
2015   10        6     7  49    2.9449   442.2    5.432      31.348
2015   10        6     7  56    2.9445   442.0    5.435      31.320
2015   10        6     8   3    2.9442   441.8    5.438      31.293
2015   10        6     8  10    2.9440   441.7    5.442      31.266
2015   10        6     8  18    2.9437   441.5    5.445      31.240
2015   10        6     8  25    2.9436   441.3    5.448      31.213
2015   10        6     8  32    2.9436   441.1    5.452      31.188
2015   10        6     8  40    2.9436   440.9    5.456      31.163
2015   10        6     8  47    2.9437   440.7    5.460      31.138
2015   10        6     8  54    2.9440   440.5    5.464      31.114
2015   10        6     9   1    2.9442   440.2    5.468      31.090
2015   10        6     9   9    2.9446   440.0    5.473      31.067
2015   10        6     9  16    2.9451   439.8    5.478      31.045
2015   10        6     9  23    2.9457   439.6    5.483      31.024
2015   10        6     9  31    2.9464   439.4    5.489      31.003
2015   10        6     9  38    2.9472   439.2    5.495      30.984
2015   10        6     9  45    2.9481   439.0    5.501      30.966
2015   10        6     9  53    2.9491   438.8    5.508      30.948
2015   10        6    10   0    2.9502   438.6    5.515      30.932
2015   10        6    10   7    2.9514   438.3    5.522      30.918
2015   10        6    10  14    2.9527   438.1    5.530      30.904
2015   10        6    10  22    2.9541   437.9    5.539      30.893
2015   10        6    10  29    2.9557   437.7    5.547      30.882
2015   10        6    10  36    2.9573   437.5    5.557      30.873
2015   10        6    10  44    2.9591   437.3    5.566      30.866
2015   10        6    10  51    2.9609   437.1    5.577      30.861
2015   10        6    10  58    2.9629   436.9    5.587      30.856
2015   10        6    11   5    2.9649   436.7    5.598      30.854
2015   10        6    11  13    2.9671   436.5    5.609      30.853
2015   10        6    11  20    2.9693   436.3    5.621      30.853
2015   10        6    11  27    2.9716   436.1    5.633      30.856
2015   10        6    11  35    2.9740   435.9    5.646      30.859
2015   10        6    11  42    2.9764   435.8    5.658      30.864
2015   10        6    11  49    2.9789   435.6    5.671      30.871
2015   10        6    11  57    2.9815   435.4    5.684      30.880
2015   10        6    12   4    2.9841   435.2    5.697      30.889
2015   10        6    12  11    2.9867   435.1    5.710      30.901
2015   10        6    12  18    2.9893   434.9    5.723      30.913
2015   10        6    12  26    2.9920   434.8    5.736      30.927
2015   10        6    12  33    2.9947   434.6    5.749      30.943
2015   10        6    12  40    2.9974   434.4    5.762      30.959
2015   10        6    12  48    3.0002   434.3    5.775      30.976
2015   10        6    12  55    3.0030   434.1    5.788      30.992
2015   10        6    13   2    3.0058   434.0    5.801      31.010
2015   10        6    13  10    3.0087   433.8    5.814      31.027
2015   10        6    13  17    3.0117   433.7    5.827      31.044
2015   10        6    13  24    3.0146   433.6    5.840      31.061
2015   10        6    13  31    3.0177   433.4    5.853      31.079
2015   10        6    13  39    3.0208   433.3    5.867      31.096
2015   10        6    13  46    3.0240   433.1    5.880      31.114
2015   10        6    13  53    3.0272   433.0    5.893      31.131
2015   10        6    14   1    3.0305   432.9    5.907      31.150
2015   10        6    14   8    3.0339   432.7    5.921      31.168
2015   10        6    14  15    3.0375   432.6    5.935      31.188
2015   10        6    14  23    3.0411   432.5    5.950      31.207
2015   10        6    14  30    3.0449   432.3    5.965      31.228
2015   10        6    14  37    3.0487   432.2    5.980      31.250
2015   10        6    14  44    3.0528   432.1    5.996      31.273
2015   10        6    14  52    3.0569   432.0    6.012      31.297
2015   10        6    14  59    3.0613   431.8    6.029      31.323
2015   10        6    15   6    3.0658   431.7    6.046      31.350
2015   10        6    15  14    3.0705   431.6    6.065      31.379
2015   10        6    15  21    3.0753   431.5    6.084      31.410
2015   10        6    15  28    3.0804   431.4    6.104      31.444
2015   10        6    15  35    3.0856   431.3    6.125      31.481
2015   10        6    15  43    3.0910   431.2    6.146      31.522
2015   10        6    15  50    3.0965   431.1    6.168      31.565
2015   10        6    15  57    3.1021   431.0    6.191      31.612
2015   10        6    16   5    3.1077   431.0    6.214      31.663
2015   10        6    16  12    3.1134   430.9    6.238      31.719
2015   10        6    16  19    3.1191   430.9    6.261      31.780
2015   10        6    16  26    3.1248   430.9    6.284      31.846
2015   10        6    16  34    3.1303   430.8    6.306      31.917
2015   10        6    16  41    3.1360   430.8    6.328      31.991
2015   10        6    16  48    3.1415   430.8    6.349      32.064
2015   10        6    16  56    3.1471   430.8    6.370      32.136
2015   10        6    17   3    3.1526   430.7    6.390      32.206
2015   10        6    17  10    3.1581   430.7    6.410      32.275
2015   10        6    17  17    3.1635   430.7    6.429      32.342
2015   10        6    17  25    3.1690   430.6    6.448      32.408
2015   10        6    17  32    3.1745   430.6    6.466      32.472
2015   10        6    17  39    3.1800   430.6    6.485      32.536
2015   10        6    17  47    3.1856   430.5    6.504      32.600
2015   10        6    17  54    3.1912   430.5    6.522      32.663
2015   10        6    18   1    3.1968   430.5    6.540      32.725
2015   10        6    18   9    3.2025   430.4    6.559      32.788
2015   10        6    18  16    3.2082   430.4    6.577      32.849
2015   10        6    18  23    3.2140   430.4    6.596      32.911
2015   10        6    18  30    3.2199   430.3    6.615      32.974
2015   10        6    18  38    3.2257   430.3    6.633      33.036
2015   10        6    18  45    3.2316   430.3    6.652      33.098
2015   10        6    18  52    3.2376   430.3    6.671      33.161
2015   10        6    19   0    3.2435   430.2    6.690      33.223
2015   10        6    19   7    3.2495   430.2    6.708      33.286
2015   10        6    19  14    3.2555   430.2    6.727      33.350
2015   10        6    19  21    3.2615   430.2    6.746      33.413
2015   10        6    19  29    3.2675   430.2    6.764      33.477
2015   10        6    19  36    3.2735   430.2    6.783      33.541
2015   10        6    19  43    3.2795   430.2    6.801      33.606
2015   10        6    19  51    3.2855   430.2    6.819      33.671
2015   10        6    19  58    3.2915   430.2    6.837      33.735
2015   10        6    20   5    3.2976   430.2    6.855      33.800
2015   10        6    20  13    3.3037   430.2    6.872      33.864
2015   10        6    20  20    3.3098   430.2    6.890      33.927
2015   10        6    20  27    3.3159   430.2    6.908      33.990
2015   10        6    20  34    3.3220   430.3    6.926      34.053
2015   10        6    20  42    3.3282   430.3    6.944      34.115
2015   10        6    20  49    3.3344   430.3    6.962      34.178
2015   10        6    20  56    3.3407   430.3    6.980      34.241
2015   10        6    21   4    3.3470   430.3    6.998      34.304
2015   10        6    21  11    3.3535   430.3    7.017      34.367
2015   10        6    21  18    3.3600   430.4    7.036      34.431
2015   10        6    21  26    3.3666   430.4    7.055      34.496
2015   10        6    21  33    3.3733   430.4    7.076      34.563
2015   10        6    21  40    3.3801   430.5    7.096      34.631
2015   10        6    21  47    3.3871   430.5    7.118      34.700
2015   10        6    21  55    3.3943   430.5    7.141      34.771
2015   10        6    22   2    3.4016   430.6    7.164      34.845
2015   10        6    22   9    3.4092   430.6    7.189      34.920
2015   10        6    22  17    3.4170   430.7    7.215      34.999
2015   10        6    22  24    3.4249   430.7    7.243      35.080
2015   10        6    22  31    3.4332   430.8    7.272      35.165
2015   10        6    22  38    3.4417   430.9    7.303      35.256
2015   10        6    22  46    3.4504   431.0    7.335      35.354
2015   10        6    22  53    3.4594   431.1    7.369      35.457
2015   10        6    23   0    3.4686   431.2    7.404      35.566
2015   10        6    23   8    3.4780   431.4    7.440      35.680
2015   10        6    23  15    3.4875   431.5    7.477      35.804
2015   10        6    23  22    3.4970   431.7    7.514      35.937
2015   10        6    23  30    3.5064   431.9    7.550      36.080
2015   10        6    23  37    3.5157   432.2    7.585      36.233
2015   10        6    23  44    3.5248   432.5    7.618      36.393
2015   10        6    23  51    3.5337   432.7    7.649      36.557
2015   10        6    23  59    3.5423   433.0    7.678      36.719
2015   10        7     0   6    3.5506   433.2    7.706      36.875
2015   10        7     0  13    3.5587   433.4    7.731      37.027
2015   10        7     0  21    3.5664   433.7    7.754      37.174
2015   10        7     0  28    3.5740   433.9    7.776      37.317
2015   10        7     0  35    3.5813   434.1    7.796      37.455
2015   10        7     0  42    3.5884   434.4    7.815      37.590
2015   10        7     0  50    3.5954   434.6    7.832      37.721
2015   10        7     0  57    3.6023   434.8    7.848      37.848
2015   10        7     1   4    3.6091   435.0    7.863      37.972
2015   10        7     1  12    3.6158   435.3    7.877      38.094
2015   10        7     1  19    3.6223   435.5    7.890      38.212
2015   10        7     1  26    3.6288   435.7    7.902      38.327
2015   10        7     1  33    3.6352   435.9    7.913      38.440
2015   10        7     1  41    3.6415   436.1    7.923      38.550
2015   10        7     1  48    3.6477   436.3    7.933      38.657
2015   10        7     1  55    3.6539   436.5    7.942      38.762
2015   10        7     2   3    3.6599   436.7    7.950      38.864
2015   10        7     2  10    3.6659   436.9    7.958      38.963
2015   10        7     2  17    3.6718   437.1    7.965      39.060
2015   10        7     2  25    3.6777   437.3    7.971      39.155
2015   10        7     2  32    3.6835   437.5    7.978      39.247
2015   10        7     2  39    3.6892   437.7    7.983      39.337
2015   10        7     2  46    3.6949   437.9    7.989      39.425
2015   10        7     2  54    3.7005   438.1    7.994      39.511
2015   10        7     3   1    3.7060   438.3    7.999      39.594
2015   10        7     3   8    3.7115   438.5    8.003      39.675
2015   10        7     3  16    3.7170   438.7    8.007      39.755
2015   10        7     3  23    3.7224   438.9    8.011      39.832
2015   10        7     3  30    3.7277   439.1    8.015      39.908
2015   10        7     3  38    3.7330   439.3    8.019      39.982
2015   10        7     3  45    3.7382   439.5    8.022      40.055
2015   10        7     3  52    3.7435   439.7    8.026      40.127
2015   10        7     3  59    3.7487   439.9    8.029      40.197
2015   10        7     4   7    3.7538   440.1    8.033      40.267
2015   10        7     4  14    3.7590   440.3    8.036      40.336
2015   10        7     4  21    3.7641   440.5    8.040      40.405
2015   10        7     4  29    3.7693   440.7    8.043      40.473
2015   10        7     4  36    3.7745   440.9    8.048      40.541
2015   10        7     4  43    3.7797   441.1    8.052      40.608
2015   10        7     4  50    3.7849   441.3    8.057      40.676
2015   10        7     4  58    3.7901   441.5    8.062      40.744
2015   10        7     5   5    3.7954   441.7    8.067      40.813
2015   10        7     5  12    3.8007   441.9    8.073      40.881
2015   10        7     5  20    3.8061   442.1    8.080      40.951
2015   10        7     5  27    3.8116   442.3    8.088      41.022
2015   10        7     5  34    3.8172   442.5    8.097      41.093
2015   10        7     5  42    3.8229   442.7    8.106      41.166
2015   10        7     5  49    3.8287   442.9    8.117      41.242
2015   10        7     5  56    3.8346   443.1    8.128      41.321
2015   10        7     6   3    3.8407   443.3    8.141      41.403
2015   10        7     6  11    3.8468   443.6    8.154      41.488
2015   10        7     6  18    3.8531   443.8    8.169      41.577
2015   10        7     6  25    3.8595   444.0    8.183      41.671
2015   10        7     6  33    3.8659   444.3    8.199      41.772
2015   10        7     6  40    3.8724   444.6    8.214      41.878
2015   10        7     6  47    3.8788   444.9    8.229      41.992
2015   10        7     6  54    3.8853   445.2    8.243      42.112
2015   10        7     7   2    3.8915   445.5    8.257      42.237
2015   10        7     7   9    3.8976   445.8    8.270      42.361
2015   10        7     7  16    3.9035   446.1    8.282      42.483
2015   10        7     7  24    3.9093   446.4    8.294      42.605
2015   10        7     7  31    3.9149   446.7    8.306      42.726
2015   10        7     7  38    3.9205   447.0    8.317      42.847
2015   10        7     7  45    3.9259   447.3    8.328      42.969
2015   10        7     7  53    3.9314   447.6    8.339      43.090
2015   10        7     8   0    3.9367   447.9    8.350      43.212
2015   10        7     8   7    3.9421   448.3    8.361      43.335
2015   10        7     8  15    3.9475   448.6    8.373      43.461
2015   10        7     8  22    3.9529   448.9    8.384      43.590
2015   10        7     8  29    3.9583   449.2    8.396      43.720
2015   10        7     8  37    3.9636   449.5    8.408      43.851
2015   10        7     8  44    3.9691   449.9    8.420      43.984
2015   10        7     8  51    3.9745   450.2    8.432      44.120
2015   10        7     8  58    3.9799   450.6    8.444      44.261
2015   10        7     9   6    3.9852   450.9    8.454      44.402
2015   10        7     9  13    3.9905   451.3    8.464      44.546
2015   10        7     9  20    3.9958   451.6    8.473      44.692
2015   10        7     9  28    4.0008   452.0    8.480      44.836
2015   10        7     9  35    4.0057   452.3    8.486      44.975
2015   10        7     9  42    4.0104   452.7    8.491      45.110
2015   10        7     9  49    4.0149   453.1    8.495      45.241
2015   10        7     9  57    4.0193   453.4    8.497      45.368
2015   10        7    10   4    4.0235   453.8    8.499      45.491
2015   10        7    10  11    4.0275   454.1    8.499      45.611
2015   10        7    10  19    4.0315   454.5    8.499      45.728
2015   10        7    10  26    4.0352   454.9    8.497      45.841
2015   10        7    10  33    4.0389   455.2    8.495      45.952
2015   10        7    10  41    4.0424   455.6    8.491      46.059
2015   10        7    10  48    4.0459   456.0    8.487      46.164
2015   10        7    10  55    4.0492   456.3    8.482      46.265
2015   10        7    11   2    4.0523   456.7    8.476      46.363
2015   10        7    11  10    4.0554   457.1    8.470      46.459
2015   10        7    11  17    4.0584   457.4    8.463      46.552
2015   10        7    11  24    4.0613   457.8    8.455      46.643
2015   10        7    11  32    4.0641   458.2    8.447      46.731
2015   10        7    11  39    4.0668   458.6    8.438      46.818
2015   10        7    11  46    4.0694   458.9    8.429      46.902
2015   10        7    11  54    4.0720   459.3    8.420      46.985
2015   10        7    12   1    4.0745   459.7    8.410      47.066
2015   10        7    12   8    4.0770   460.1    8.401      47.146
2015   10        7    12  15    4.0794   460.5    8.391      47.225
2015   10        7    12  23    4.0819   460.9    8.381      47.303
2015   10        7    12  30    4.0843   461.2    8.371      47.380
2015   10        7    12  37    4.0867   461.6    8.361      47.457
2015   10        7    12  45    4.0891   462.0    8.351      47.534
2015   10        7    12  52    4.0916   462.4    8.341      47.611
2015   10        7    12  59    4.0940   462.8    8.331      47.688
2015   10        7    13   6    4.0965   463.2    8.322      47.765
2015   10        7    13  14    4.0989   463.5    8.313      47.843
2015   10        7    13  21    4.1014   463.9    8.304      47.922
2015   10        7    13  28    4.1038   464.3    8.296      48.002
2015   10        7    13  36    4.1062   464.7    8.288      48.084
2015   10        7    13  43    4.1086   465.1    8.280      48.165
2015   10        7    13  50    4.1109   465.5    8.272      48.247
2015   10        7    13  57    4.1131   466.0    8.265      48.328
2015   10        7    14   5    4.1152   466.4    8.257      48.406
2015   10        7    14  12    4.1173   466.8    8.249      48.482
2015   10        7    14  19    4.1193   467.2    8.241      48.555
2015   10        7    14  27    4.1213   467.6    8.233      48.624
2015   10        7    14  34    4.1232   468.0    8.225      48.692
2015   10        7    14  41    4.1250   468.4    8.217      48.757
2015   10        7    14  48    4.1268   468.8    8.210      48.821
2015   10        7    14  56    4.1286   469.1    8.203      48.885
2015   10        7    15   3    4.1304   469.5    8.197      48.949
2015   10        7    15  10    4.1321   469.8    8.192      49.014
2015   10        7    15  18    4.1338   470.2    8.188      49.079
2015   10        7    15  25    4.1356   470.5    8.184      49.148
2015   10        7    15  32    4.1373   470.9    8.182      49.220
2015   10        7    15  40    4.1391   471.2    8.180      49.296
2015   10        7    15  47    4.1408   471.6    8.179      49.375
2015   10        7    15  54    4.1426   471.9    8.179      49.456
2015   10        7    16   1    4.1444   472.3    8.179      49.540
2015   10        7    16   9    4.1463   472.6    8.180      49.630
2015   10        7    16  16    4.1482   473.0    8.180      49.725
2015   10        7    16  23    4.1501   473.3    8.181      49.823
2015   10        7    16  31    4.1519   473.7    8.181      49.926
2015   10        7    16  38    4.1538   474.1    8.180      50.033
2015   10        7    16  45    4.1554   474.5    8.178      50.140
2015   10        7    16  52    4.1570   474.9    8.175      50.244
2015   10        7    17   0    4.1584   475.3    8.172      50.347
2015   10        7    17   7    4.1597   475.7    8.167      50.447
2015   10        7    17  14    4.1609   476.1    8.162      50.545
2015   10        7    17  22    4.1620   476.5    8.156      50.641
2015   10        7    17  29    4.1629   476.9    8.149      50.737
2015   10        7    17  36    4.1637   477.3    8.142      50.830
2015   10        7    17  44    4.1644   477.7    8.134      50.922
2015   10        7    17  51    4.1650   478.1    8.124      51.013
2015   10        7    17  58    4.1655   478.5    8.115      51.102
2015   10        7    18   5    4.1659   478.9    8.104      51.189
2015   10        7    18  13    4.1662   479.4    8.093      51.274
2015   10        7    18  20    4.1665   479.8    8.081      51.356
2015   10        7    18  27    4.1665   480.2    8.069      51.437
2015   10        7    18  35    4.1665   480.6    8.056      51.516
2015   10        7    18  42    4.1664   481.1    8.042      51.592
2015   10        7    18  49    4.1662   481.5    8.028      51.666
2015   10        7    18  57    4.1659   481.9    8.014      51.739
2015   10        7    19   4    4.1656   482.4    7.999      51.810
2015   10        7    19  11    4.1651   482.8    7.984      51.879
2015   10        7    19  18    4.1647   483.3    7.969      51.947
2015   10        7    19  26    4.1641   483.7    7.953      52.013
2015   10        7    19  33    4.1635   484.1    7.937      52.078
2015   10        7    19  40    4.1629   484.6    7.922      52.142
2015   10        7    19  48    4.1623   485.0    7.906      52.205
2015   10        7    19  55    4.1617   485.5    7.890      52.267
2015   10        7    20   2    4.1610   485.9    7.874      52.328
2015   10        7    20   9    4.1603   486.3    7.858      52.389
2015   10        7    20  17    4.1597   486.8    7.842      52.450
2015   10        7    20  24    4.1589   487.2    7.827      52.511
2015   10        7    20  31    4.1582   487.7    7.811      52.572
2015   10        7    20  39    4.1574   488.1    7.796      52.632
2015   10        7    20  46    4.1566   488.6    7.780      52.694
2015   10        7    20  53    4.1556   489.0    7.765      52.755
2015   10        7    21   0    4.1545   489.5    7.750      52.816
2015   10        7    21   8    4.1533   490.0    7.734      52.877
2015   10        7    21  15    4.1519   490.5    7.718      52.936
2015   10        7    21  22    4.1504   491.0    7.700      52.992
2015   10        7    21  30    4.1487   491.6    7.682      53.044
2015   10        7    21  37    4.1468   492.1    7.663      53.092
2015   10        7    21  44    4.1447   492.6    7.643      53.137
2015   10        7    21  52    4.1424   493.1    7.622      53.179
2015   10        7    21  59    4.1398   493.7    7.599      53.217
2015   10        7    22   6    4.1369   494.2    7.575      53.252
2015   10        7    22  13    4.1337   494.8    7.550      53.281
2015   10        7    22  21    4.1299   495.3    7.523      53.304
2015   10        7    22  28    4.1258   495.8    7.494      53.318
2015   10        7    22  35    4.1211   496.3    7.464      53.325
2015   10        7    22  43    4.1161   496.8    7.432      53.325
2015   10        7    22  50    4.1105   497.3    7.399      53.318
2015   10        7    22  57    4.1044   497.7    7.364      53.297
2015   10        7    23   4    4.0979   498.2    7.328      53.267
2015   10        7    23  12    4.0913   498.6    7.292      53.230
2015   10        7    23  19    4.0844   499.0    7.256      53.188
2015   10        7    23  26    4.0777   499.4    7.221      53.138
2015   10        7    23  34    4.0710   499.7    7.188      53.094
2015   10        7    23  41    4.0648   500.1    7.156      53.057
2015   10        7    23  48    4.0586   500.4    7.125      53.024
2015   10        7    23  56    4.0527   500.8    7.095      52.995
2015   10        8     0   3    4.0468   501.1    7.066      52.971
2015   10        8     0  10    4.0412   501.5    7.038      52.949
2015   10        8     0  17    4.0356   501.9    7.011      52.931
2015   10        8     0  25    4.0302   502.2    6.985      52.915
2015   10        8     0  32    4.0248   502.6    6.960      52.902
2015   10        8     0  39    4.0195   502.9    6.935      52.890
2015   10        8     0  47    4.0142   503.3    6.911      52.880
2015   10        8     0  54    4.0090   503.6    6.887      52.871
2015   10        8     1   1    4.0038   503.9    6.864      52.864
2015   10        8     1   8    3.9988   504.3    6.841      52.857
2015   10        8     1  16    3.9937   504.6    6.819      52.851
2015   10        8     1  23    3.9888   504.9    6.798      52.846
2015   10        8     1  30    3.9838   505.3    6.777      52.842
2015   10        8     1  38    3.9789   505.6    6.756      52.838
2015   10        8     1  45    3.9739   505.9    6.736      52.835
2015   10        8     1  52    3.9691   506.2    6.716      52.832
2015   10        8     2   0    3.9642   506.5    6.697      52.829
2015   10        8     2   7    3.9594   506.9    6.677      52.825
2015   10        8     2  14    3.9545   507.2    6.658      52.822
2015   10        8     2  21    3.9496   507.5    6.639      52.818
2015   10        8     2  29    3.9447   507.8    6.620      52.814
2015   10        8     2  36    3.9398   508.1    6.600      52.809
2015   10        8     2  43    3.9348   508.4    6.581      52.804
2015   10        8     2  51    3.9298   508.8    6.562      52.798
2015   10        8     2  58    3.9248   509.1    6.543      52.790
2015   10        8     3   5    3.9197   509.4    6.524      52.782
2015   10        8     3  13    3.9146   509.7    6.504      52.772
2015   10        8     3  20    3.9094   510.1    6.485      52.760
2015   10        8     3  27    3.9041   510.4    6.465      52.746
2015   10        8     3  34    3.8988   510.7    6.445      52.730
2015   10        8     3  42    3.8933   511.0    6.425      52.711
2015   10        8     3  49    3.8878   511.3    6.404      52.688
2015   10        8     3  56    3.8821   511.6    6.384      52.662
2015   10        8     4   4    3.8764   511.9    6.364      52.633
2015   10        8     4  11    3.8705   512.2    6.344      52.603
2015   10        8     4  18    3.8646   512.5    6.324      52.573
2015   10        8     4  25    3.8585   512.8    6.304      52.541
2015   10        8     4  33    3.8524   513.1    6.284      52.511
2015   10        8     4  40    3.8461   513.4    6.264      52.480
2015   10        8     4  47    3.8398   513.7    6.244      52.449
2015   10        8     4  55    3.8333   514.0    6.224      52.418
2015   10        8     5   2    3.8268   514.3    6.203      52.389
2015   10        8     5   9    3.8201   514.7    6.182      52.360
2015   10        8     5  16    3.8133   515.0    6.160      52.329
2015   10        8     5  24    3.8063   515.4    6.137      52.298
2015   10        8     5  31    3.7990   515.8    6.113      52.263
2015   10        8     5  38    3.7913   516.2    6.087      52.220
2015   10        8     5  46    3.7834   516.6    6.061      52.169
2015   10        8     5  53    3.7751   516.9    6.032      52.106
2015   10        8     6   0    3.7666   517.3    6.003      52.036
2015   10        8     6   7    3.7576   517.7    5.972      51.955
2015   10        8     6  15    3.7483   518.0    5.939      51.858
2015   10        8     6  22    3.7388   518.3    5.906      51.748
2015   10        8     6  29    3.7291   518.6    5.873      51.629
2015   10        8     6  37    3.7195   518.9    5.840      51.503
2015   10        8     6  44    3.7100   519.0    5.810      51.368
2015   10        8     6  51    3.7009   519.2    5.780      51.240
2015   10        8     6  59    3.6921   519.4    5.753      51.120
2015   10        8     7   6    3.6835   519.6    5.727      51.007
2015   10        8     7  13    3.6752   519.8    5.702      50.901
2015   10        8     7  20    3.6672   519.9    5.679      50.802
2015   10        8     7  28    3.6593   520.1    5.657      50.709
2015   10        8     7  35    3.6517   520.3    5.636      50.621
2015   10        8     7  42    3.6442   520.4    5.616      50.538
2015   10        8     7  50    3.6369   520.6    5.597      50.461
2015   10        8     7  57    3.6297   520.8    5.578      50.389
2015   10        8     8   4    3.6226   520.9    5.561      50.319
2015   10        8     8  11    3.6156   521.1    5.544      50.253
2015   10        8     8  19    3.6087   521.2    5.527      50.190
2015   10        8     8  26    3.6020   521.3    5.511      50.129
2015   10        8     8  33    3.5953   521.5    5.495      50.068
2015   10        8     8  41    3.5887   521.6    5.479      50.008
2015   10        8     8  48    3.5822   521.7    5.464      49.948
2015   10        8     8  55    3.5758   521.8    5.450      49.890
2015   10        8     9   3    3.5694   521.9    5.436      49.833
2015   10        8     9  10    3.5631   522.0    5.422      49.777
2015   10        8     9  17    3.5568   522.1    5.408      49.722
2015   10        8     9  24    3.5507   522.2    5.395      49.668
2015   10        8     9  32    3.5445   522.4    5.382      49.614
2015   10        8     9  39    3.5383   522.5    5.368      49.561
2015   10        8     9  46    3.5322   522.6    5.355      49.508
2015   10        8     9  54    3.5260   522.7    5.343      49.455
2015   10        8    10   1    3.5199   522.8    5.330      49.401
2015   10        8    10   8    3.5138   522.9    5.317      49.348
2015   10        8    10  16    3.5076   523.0    5.304      49.294
2015   10        8    10  23    3.5014   523.1    5.291      49.239
2015   10        8    10  30    3.4952   523.2    5.278      49.184
2015   10        8    10  37    3.4889   523.3    5.264      49.127
2015   10        8    10  45    3.4826   523.4    5.251      49.068
2015   10        8    10  52    3.4763   523.5    5.238      49.009
2015   10        8    10  59    3.4698   523.7    5.224      48.947
2015   10        8    11   7    3.4633   523.8    5.210      48.881
2015   10        8    11  14    3.4567   523.8    5.197      48.813
2015   10        8    11  21    3.4500   523.9    5.183      48.743
2015   10        8    11  28    3.4433   524.0    5.170      48.669
2015   10        8    11  36    3.4365   524.0    5.156      48.596
2015   10        8    11  43    3.4297   524.1    5.143      48.523
2015   10        8    11  50    3.4229   524.1    5.131      48.452
2015   10        8    11  58    3.4161   524.2    5.118      48.381
2015   10        8    12   5    3.4092   524.2    5.106      48.312
2015   10        8    12  12    3.4024   524.2    5.094      48.243
2015   10        8    12  19    3.3956   524.3    5.083      48.175
2015   10        8    12  27    3.3888   524.3    5.071      48.108
2015   10        8    12  34    3.3820   524.3    5.060      48.041
2015   10        8    12  41    3.3752   524.4    5.048      47.975
2015   10        8    12  49    3.3685   524.4    5.037      47.909
2015   10        8    12  56    3.3619   524.4    5.026      47.843
2015   10        8    13   3    3.3552   524.4    5.015      47.777
2015   10        8    13  10    3.3486   524.4    5.005      47.711
2015   10        8    13  18    3.3421   524.5    4.994      47.645
2015   10        8    13  25    3.3356   524.5    4.983      47.578
2015   10        8    13  32    3.3292   524.5    4.973      47.511
2015   10        8    13  40    3.3229   524.5    4.962      47.445
2015   10        8    13  47    3.3167   524.5    4.952      47.379
2015   10        8    13  54    3.3106   524.5    4.942      47.312
2015   10        8    14   1    3.3045   524.4    4.932      47.246
2015   10        8    14   9    3.2986   524.4    4.922      47.179
2015   10        8    14  16    3.2927   524.4    4.913      47.112
2015   10        8    14  23    3.2869   524.4    4.904      47.046
2015   10        8    14  31    3.2812   524.4    4.895      46.981
2015   10        8    14  38    3.2756   524.4    4.886      46.918
2015   10        8    14  45    3.2700   524.4    4.878      46.856
2015   10        8    14  53    3.2645   524.3    4.870      46.796
2015   10        8    15   0    3.2591   524.3    4.862      46.737
2015   10        8    15   7    3.2537   524.3    4.854      46.681
2015   10        8    15  14    3.2483   524.3    4.847      46.627
2015   10        8    15  22    3.2430   524.3    4.839      46.575
2015   10        8    15  29    3.2377   524.3    4.831      46.523
2015   10        8    15  36    3.2324   524.3    4.824      46.473
2015   10        8    15  44    3.2272   524.3    4.816      46.423
2015   10        8    15  51    3.2220   524.3    4.808      46.371
2015   10        8    15  58    3.2168   524.3    4.800      46.319
2015   10        8    16   6    3.2116   524.3    4.792      46.265
2015   10        8    16  13    3.2065   524.3    4.784      46.210
2015   10        8    16  20    3.2014   524.2    4.775      46.155
2015   10        8    16  27    3.1964   524.2    4.767      46.100
2015   10        8    16  35    3.1913   524.2    4.759      46.044
2015   10        8    16  42    3.1863   524.2    4.751      45.989
2015   10        8    16  49    3.1813   524.2    4.743      45.933
2015   10        8    16  57    3.1764   524.2    4.734      45.877
2015   10        8    17   4    3.1715   524.2    4.726      45.821
2015   10        8    17  11    3.1665   524.1    4.718      45.765
2015   10        8    17  18    3.1617   524.1    4.710      45.709
2015   10        8    17  26    3.1568   524.1    4.702      45.652
2015   10        8    17  33    3.1520   524.1    4.693      45.596
2015   10        8    17  40    3.1472   524.1    4.685      45.540
2015   10        8    17  48    3.1424   524.1    4.677      45.484
2015   10        8    17  55    3.1377   524.0    4.669      45.428
2015   10        8    18   2    3.1329   524.0    4.661      45.372
2015   10        8    18   9    3.1282   524.0    4.653      45.317
2015   10        8    18  17    3.1235   524.0    4.645      45.261
2015   10        8    18  24    3.1189   524.0    4.638      45.206
2015   10        8    18  31    3.1143   523.9    4.630      45.151
2015   10        8    18  39    3.1097   523.9    4.622      45.097
2015   10        8    18  46    3.1051   523.9    4.615      45.043
2015   10        8    18  53    3.1006   523.9    4.608      44.990
2015   10        8    19   1    3.0962   523.8    4.600      44.937
2015   10        8    19   8    3.0917   523.8    4.594      44.884
2015   10        8    19  15    3.0873   523.8    4.587      44.832
2015   10        8    19  22    3.0830   523.8    4.580      44.781
2015   10        8    19  30    3.0787   523.7    4.573      44.731
2015   10        8    19  37    3.0744   523.7    4.567      44.681
2015   10        8    19  44    3.0702   523.7    4.561      44.632
2015   10        8    19  52    3.0660   523.6    4.555      44.583
2015   10        8    19  59    3.0619   523.6    4.549      44.535
2015   10        8    20   6    3.0578   523.6    4.543      44.487
2015   10        8    20  13    3.0537   523.5    4.537      44.440
2015   10        8    20  21    3.0497   523.5    4.532      44.394
2015   10        8    20  28    3.0457   523.5    4.526      44.347
2015   10        8    20  35    3.0417   523.4    4.521      44.301
2015   10        8    20  43    3.0378   523.4    4.516      44.255
2015   10        8    20  50    3.0340   523.4    4.511      44.210
2015   10        8    20  57    3.0301   523.3    4.506      44.164
2015   10        8    21   4    3.0263   523.3    4.501      44.119
2015   10        8    21  12    3.0225   523.3    4.496      44.073
2015   10        8    21  19    3.0188   523.2    4.491      44.027
2015   10        8    21  26    3.0150   523.2    4.486      43.981
2015   10        8    21  34    3.0113   523.1    4.481      43.935
2015   10        8    21  41    3.0075   523.1    4.477      43.888
2015   10        8    21  48    3.0038   523.1    4.472      43.841
2015   10        8    21  56    3.0000   523.0    4.468      43.793
2015   10        8    22   3    2.9962   523.0    4.463      43.745
2015   10        8    22  10    2.9924   522.9    4.459      43.696
2015   10        8    22  17    2.9886   522.9    4.454      43.647
2015   10        8    22  25    2.9848   522.8    4.450      43.597
2015   10        8    22  32    2.9810   522.8    4.445      43.546
2015   10        8    22  39    2.9772   522.7    4.441      43.495
2015   10        8    22  47    2.9734   522.7    4.437      43.443
2015   10        8    22  54    2.9696   522.6    4.433      43.390
2015   10        8    23   1    2.9657   522.6    4.428      43.336
2015   10        8    23   9    2.9619   522.5    4.424      43.280
2015   10        8    23  16    2.9581   522.5    4.420      43.224
2015   10        8    23  23    2.9543   522.4    4.416      43.167
2015   10        8    23  30    2.9505   522.4    4.412      43.109
2015   10        8    23  38    2.9466   522.3    4.408      43.050
2015   10        8    23  45    2.9428   522.3    4.404      42.991
2015   10        8    23  52    2.9390   522.2    4.400      42.930
2015   10        9     0   0    2.9352   522.1    4.396      42.870
2015   10        9     0   7    2.9314   522.1    4.392      42.808
2015   10        9     0  14    2.9276   522.0    4.388      42.746
2015   10        9     0  21    2.9238   521.9    4.384      42.684
2015   10        9     0  29    2.9200   521.9    4.380      42.622
2015   10        9     0  36    2.9162   521.8    4.376      42.559
2015   10        9     0  43    2.9125   521.7    4.372      42.496
2015   10        9     0  51    2.9087   521.7    4.369      42.434
2015   10        9     0  58    2.9050   521.6    4.365      42.371
2015   10        9     1   5    2.9013   521.5    4.361      42.308
2015   10        9     1  12    2.8976   521.4    4.357      42.246
2015   10        9     1  20    2.8939   521.3    4.353      42.183
2015   10        9     1  27    2.8903   521.3    4.350      42.121
2015   10        9     1  34    2.8867   521.2    4.346      42.060
2015   10        9     1  42    2.8831   521.1    4.343      41.999
2015   10        9     1  49    2.8795   521.0    4.339      41.939
2015   10        9     1  56    2.8760   520.9    4.336      41.879
2015   10        9     2   3    2.8725   520.9    4.332      41.820
2015   10        9     2  11    2.8690   520.8    4.329      41.762
2015   10        9     2  18    2.8656   520.7    4.325      41.705
2015   10        9     2  25    2.8622   520.6    4.322      41.648
2015   10        9     2  33    2.8588   520.5    4.319      41.593
2015   10        9     2  40    2.8554   520.4    4.316      41.538
2015   10        9     2  47    2.8521   520.3    4.313      41.484
2015   10        9     2  55    2.8488   520.2    4.310      41.431
2015   10        9     3   2    2.8455   520.1    4.307      41.379
2015   10        9     3   9    2.8423   520.0    4.305      41.327
2015   10        9     3  16    2.8391   520.0    4.302      41.277
2015   10        9     3  24    2.8359   519.9    4.299      41.227
2015   10        9     3  31    2.8327   519.8    4.297      41.178
2015   10        9     3  38    2.8295   519.7    4.294      41.130
2015   10        9     3  46    2.8264   519.6    4.292      41.082
2015   10        9     3  53    2.8232   519.5    4.290      41.035
2015   10        9     4   0    2.8201   519.4    4.287      40.988
2015   10        9     4   7    2.8170   519.3    4.285      40.942
2015   10        9     4  15    2.8139   519.2    4.283      40.896
2015   10        9     4  22    2.8108   519.1    4.281      40.851
2015   10        9     4  29    2.8077   519.0    4.279      40.806
2015   10        9     4  37    2.8046   518.9    4.277      40.762
2015   10        9     4  44    2.8014   518.8    4.275      40.717
2015   10        9     4  51    2.7984   518.7    4.273      40.673
2015   10        9     4  59    2.7952   518.6    4.271      40.629
2015   10        9     5   6    2.7921   518.5    4.268      40.586
2015   10        9     5  13    2.7890   518.4    4.266      40.542
2015   10        9     5  20    2.7859   518.3    4.264      40.498
2015   10        9     5  28    2.7828   518.2    4.262      40.455
2015   10        9     5  35    2.7797   518.1    4.260      40.411
2015   10        9     5  42    2.7766   518.0    4.258      40.368
2015   10        9     5  50    2.7735   517.9    4.256      40.324
2015   10        9     5  57    2.7704   517.8    4.254      40.280
2015   10        9     6   4    2.7673   517.7    4.252      40.236
2015   10        9     6  11    2.7642   517.6    4.249      40.193
2015   10        9     6  19    2.7612   517.5    4.247      40.149
2015   10        9     6  26    2.7581   517.4    4.245      40.105
2015   10        9     6  33    2.7550   517.3    4.243      40.061
2015   10        9     6  41    2.7520   517.2    4.240      40.016
2015   10        9     6  48    2.7490   517.0    4.238      39.972
2015   10        9     6  55    2.7460   516.9    4.236      39.928
2015   10        9     7   3    2.7430   516.8    4.233      39.883
2015   10        9     7  10    2.7400   516.7    4.231      39.838
2015   10        9     7  17    2.7371   516.6    4.228      39.794
2015   10        9     7  24    2.7342   516.5    4.226      39.749
2015   10        9     7  32    2.7313   516.4    4.223      39.704
2015   10        9     7  39    2.7284   516.2    4.220      39.658
2015   10        9     7  46    2.7256   516.1    4.218      39.613
2015   10        9     7  54    2.7227   516.0    4.215      39.568
2015   10        9     8   1    2.7199   515.9    4.213      39.522
2015   10        9     8   8    2.7172   515.7    4.210      39.476
2015   10        9     8  15    2.7144   515.6    4.207      39.431
2015   10        9     8  23    2.7117   515.5    4.205      39.385
2015   10        9     8  30    2.7090   515.3    4.202      39.340
2015   10        9     8  37    2.7064   515.2    4.200      39.294
2015   10        9     8  45    2.7038   515.1    4.197      39.249
2015   10        9     8  52    2.7012   515.0    4.195      39.204
2015   10        9     8  59    2.6986   514.8    4.192      39.159
2015   10        9     9   6    2.6961   514.7    4.190      39.114
2015   10        9     9  14    2.6936   514.5    4.187      39.070
2015   10        9     9  21    2.6911   514.4    4.185      39.026
2015   10        9     9  28    2.6887   514.3    4.183      38.983
2015   10        9     9  36    2.6862   514.1    4.181      38.940
2015   10        9     9  43    2.6838   514.0    4.179      38.897
2015   10        9     9  50    2.6814   513.8    4.177      38.855
2015   10        9     9  57    2.6789   513.7    4.175      38.813
2015   10        9    10   5    2.6765   513.6    4.173      38.772
2015   10        9    10  12    2.6741   513.4    4.172      38.731
2015   10        9    10  19    2.6717   513.3    4.170      38.690
2015   10        9    10  27    2.6692   513.1    4.168      38.650
2015   10        9    10  34    2.6668   513.0    4.167      38.610
2015   10        9    10  41    2.6643   512.8    4.165      38.570
2015   10        9    10  49    2.6619   512.7    4.164      38.530
2015   10        9    10  56    2.6595   512.6    4.162      38.491
2015   10        9    11   3    2.6570   512.4    4.161      38.451
2015   10        9    11  10    2.6546   512.3    4.159      38.411
2015   10        9    11  18    2.6521   512.1    4.158      38.371
2015   10        9    11  25    2.6497   512.0    4.156      38.331
2015   10        9    11  32    2.6473   511.8    4.155      38.291
2015   10        9    11  40    2.6448   511.7    4.153      38.251
2015   10        9    11  47    2.6424   511.5    4.152      38.211
2015   10        9    11  54    2.6400   511.4    4.150      38.170
2015   10        9    12   1    2.6376   511.2    4.149      38.130
2015   10        9    12   9    2.6352   511.1    4.147      38.089
2015   10        9    12  16    2.6328   510.9    4.146      38.047
2015   10        9    12  23    2.6304   510.8    4.144      38.006
2015   10        9    12  31    2.6280   510.6    4.143      37.964
2015   10        9    12  38    2.6257   510.5    4.141      37.923
2015   10        9    12  45    2.6233   510.3    4.140      37.881
2015   10        9    12  53    2.6210   510.2    4.138      37.839
2015   10        9    13   0    2.6186   510.0    4.137      37.796
2015   10        9    13   7    2.6163   509.9    4.135      37.754
2015   10        9    13  14    2.6140   509.7    4.133      37.711
2015   10        9    13  22    2.6117   509.5    4.132      37.669
2015   10        9    13  29    2.6094   509.4    4.130      37.626
2015   10        9    13  36    2.6071   509.2    4.129      37.583
2015   10        9    13  44    2.6048   509.1    4.127      37.540
2015   10        9    13  51    2.6026   508.9    4.126      37.497
2015   10        9    13  58    2.6003   508.8    4.124      37.454
2015   10        9    14   5    2.5981   508.6    4.123      37.411
2015   10        9    14  13    2.5958   508.5    4.121      37.367
2015   10        9    14  20    2.5936   508.3    4.120      37.324
2015   10        9    14  27    2.5914   508.2    4.118      37.281
2015   10        9    14  35    2.5892   508.0    4.117      37.237
2015   10        9    14  42    2.5870   507.8    4.115      37.193
2015   10        9    14  49    2.5848   507.7    4.114      37.149
2015   10        9    14  57    2.5827   507.5    4.112      37.105
2015   10        9    15   4    2.5805   507.4    4.111      37.061
2015   10        9    15  11    2.5784   507.2    4.110      37.017
2015   10        9    15  18    2.5763   507.0    4.108      36.972
2015   10        9    15  26    2.5741   506.9    4.107      36.928
2015   10        9    15  33    2.5720   506.7    4.105      36.884
2015   10        9    15  40    2.5699   506.6    4.104      36.839
2015   10        9    15  48    2.5679   506.4    4.103      36.795
2015   10        9    15  55    2.5658   506.2    4.101      36.750
2015   10        9    16   2    2.5638   506.1    4.100      36.706
2015   10        9    16   9    2.5617   505.9    4.099      36.662
2015   10        9    16  17    2.5597   505.7    4.098      36.618
2015   10        9    16  24    2.5577   505.6    4.097      36.574
2015   10        9    16  31    2.5557   505.4    4.096      36.531
2015   10        9    16  39    2.5537   505.2    4.095      36.488
2015   10        9    16  46    2.5518   505.1    4.094      36.445
2015   10        9    16  53    2.5498   504.9    4.093      36.403
2015   10        9    17   0    2.5479   504.7    4.092      36.361
2015   10        9    17   8    2.5460   504.6    4.092      36.319
2015   10        9    17  15    2.5441   504.4    4.091      36.278
2015   10        9    17  22    2.5422   504.2    4.091      36.237
2015   10        9    17  30    2.5403   504.0    4.090      36.196
2015   10        9    17  37    2.5384   503.9    4.090      36.156
2015   10        9    17  44    2.5365   503.7    4.089      36.117
2015   10        9    17  51    2.5347   503.5    4.089      36.077
2015   10        9    17  59    2.5328   503.4    4.089      36.038
2015   10        9    18   6    2.5309   503.2    4.088      35.999
2015   10        9    18  13    2.5291   503.0    4.088      35.961
2015   10        9    18  21    2.5272   502.8    4.088      35.923
2015   10        9    18  28    2.5253   502.7    4.088      35.885
2015   10        9    18  35    2.5235   502.5    4.088      35.847
2015   10        9    18  42    2.5217   502.3    4.087      35.809
2015   10        9    18  50    2.5198   502.1    4.087      35.772
2015   10        9    18  57    2.5180   502.0    4.087      35.735
2015   10        9    19   4    2.5162   501.8    4.087      35.698
2015   10        9    19  12    2.5144   501.6    4.087      35.661
2015   10        9    19  19    2.5126   501.4    4.087      35.624
2015   10        9    19  26    2.5109   501.3    4.086      35.588
2015   10        9    19  34    2.5091   501.1    4.086      35.551
2015   10        9    19  41    2.5074   500.9    4.086      35.515
2015   10        9    19  48    2.5057   500.7    4.086      35.478
2015   10        9    19  55    2.5040   500.5    4.086      35.443
2015   10        9    20   3    2.5024   500.3    4.086      35.406
2015   10        9    20  10    2.5007   500.2    4.086      35.371
2015   10        9    20  17    2.4991   500.0    4.086      35.335
2015   10        9    20  25    2.4976   499.8    4.086      35.299
2015   10        9    20  32    2.4960   499.6    4.086      35.264
2015   10        9    20  39    2.4945   499.4    4.086      35.228
2015   10        9    20  47    2.4930   499.2    4.086      35.193
2015   10        9    20  54    2.4916   499.0    4.086      35.157
2015   10        9    21   1    2.4901   498.9    4.086      35.122
2015   10        9    21   8    2.4887   498.7    4.086      35.087
2015   10        9    21  16    2.4873   498.5    4.086      35.051
2015   10        9    21  23    2.4859   498.3    4.086      35.016
2015   10        9    21  30    2.4846   498.1    4.086      34.980
2015   10        9    21  38    2.4832   497.9    4.086      34.945
2015   10        9    21  45    2.4819   497.7    4.086      34.910
2015   10        9    21  52    2.4805   497.5    4.086      34.874
2015   10        9    21  59    2.4791   497.4    4.086      34.838
2015   10        9    22   7    2.4777   497.2    4.086      34.803
2015   10        9    22  14    2.4764   497.0    4.086      34.767
2015   10        9    22  21    2.4750   496.8    4.086      34.731
2015   10        9    22  29    2.4736   496.6    4.086      34.694
2015   10        9    22  36    2.4722   496.4    4.085      34.658
2015   10        9    22  43    2.4709   496.2    4.085      34.621
2015   10        9    22  50    2.4695   496.0    4.085      34.584
2015   10        9    22  58    2.4681   495.8    4.084      34.548
2015   10        9    23   5    2.4668   495.6    4.084      34.511
2015   10        9    23  12    2.4654   495.4    4.084      34.474
2015   10        9    23  20    2.4641   495.2    4.083      34.437
2015   10        9    23  27    2.4627   495.0    4.083      34.399
2015   10        9    23  34    2.4614   494.8    4.082      34.362
2015   10        9    23  41    2.4600   494.6    4.082      34.324
2015   10        9    23  49    2.4587   494.4    4.081      34.287
2015   10        9    23  56    2.4574   494.2    4.081      34.249
2015   10       10     0   3    2.4560   494.0    4.080      34.211
2015   10       10     0  11    2.4547   493.8    4.080      34.172
2015   10       10     0  18    2.4534   493.6    4.079      34.134
2015   10       10     0  25    2.4521   493.4    4.079      34.095
2015   10       10     0  32    2.4508   493.2    4.078      34.057
2015   10       10     0  40    2.4495   493.0    4.078      34.017
2015   10       10     0  47    2.4482   492.8    4.077      33.978
2015   10       10     0  54    2.4469   492.6    4.077      33.939
2015   10       10     1   2    2.4456   492.4    4.076      33.900
2015   10       10     1   9    2.4443   492.2    4.076      33.860
2015   10       10     1  16    2.4430   492.0    4.076      33.821
2015   10       10     1  24    2.4418   491.8    4.075      33.781
2015   10       10     1  31    2.4405   491.6    4.075      33.742
2015   10       10     1  38    2.4393   491.3    4.075      33.702
2015   10       10     1  45    2.4380   491.1    4.074      33.663
2015   10       10     1  53    2.4368   490.9    4.074      33.623
2015   10       10     2   0    2.4356   490.7    4.074      33.584
2015   10       10     2   7    2.4344   490.5    4.074      33.544
2015   10       10     2  15    2.4332   490.3    4.074      33.505
2015   10       10     2  22    2.4320   490.1    4.074      33.466
2015   10       10     2  29    2.4309   489.8    4.074      33.427
2015   10       10     2  36    2.4297   489.6    4.075      33.389
2015   10       10     2  44    2.4286   489.4    4.075      33.350
2015   10       10     2  51    2.4276   489.2    4.075      33.312
2015   10       10     2  58    2.4265   489.0    4.076      33.275
2015   10       10     3   6    2.4255   488.7    4.076      33.237
2015   10       10     3  13    2.4245   488.5    4.077      33.200
2015   10       10     3  20    2.4235   488.3    4.078      33.164
2015   10       10     3  28    2.4226   488.1    4.079      33.128
2015   10       10     3  35    2.4217   487.8    4.080      33.093
2015   10       10     3  42    2.4209   487.6    4.081      33.058
2015   10       10     3  49    2.4200   487.4    4.083      33.024
2015   10       10     3  57    2.4193   487.2    4.084      32.991
2015   10       10     4   4    2.4185   486.9    4.086      32.958
2015   10       10     4  11    2.4179   486.7    4.087      32.926
2015   10       10     4  19    2.4172   486.5    4.089      32.895
2015   10       10     4  26    2.4166   486.3    4.091      32.864
2015   10       10     4  33    2.4160   486.0    4.094      32.834
2015   10       10     4  40    2.4154   485.8    4.096      32.805
2015   10       10     4  48    2.4149   485.6    4.098      32.776
2015   10       10     4  55    2.4144   485.4    4.101      32.748
2015   10       10     5   2    2.4138   485.1    4.103      32.720
2015   10       10     5  10    2.4133   484.9    4.106      32.692
2015   10       10     5  17    2.4128   484.7    4.108      32.665
2015   10       10     5  24    2.4123   484.5    4.111      32.638
2015   10       10     5  32    2.4118   484.2    4.114      32.611
2015   10       10     5  39    2.4114   484.0    4.117      32.585
2015   10       10     5  46    2.4109   483.8    4.119      32.559
2015   10       10     5  53    2.4104   483.5    4.122      32.532
2015   10       10     6   1    2.4100   483.3    4.125      32.506
2015   10       10     6   8    2.4095   483.1    4.127      32.480
2015   10       10     6  15    2.4090   482.9    4.130      32.454
2015   10       10     6  23    2.4086   482.6    4.133      32.428
2015   10       10     6  30    2.4081   482.4    4.135      32.401
2015   10       10     6  37    2.4077   482.2    4.138      32.375
2015   10       10     6  44    2.4072   481.9    4.140      32.349
2015   10       10     6  52    2.4068   481.7    4.143      32.323
2015   10       10     6  59    2.4064   481.5    4.145      32.296
2015   10       10     7   6    2.4060   481.2    4.148      32.270
2015   10       10     7  14    2.4056   481.0    4.150      32.243
2015   10       10     7  21    2.4052   480.8    4.153      32.217
2015   10       10     7  28    2.4048   480.5    4.155      32.190
2015   10       10     7  35    2.4044   480.3    4.157      32.164
2015   10       10     7  43    2.4041   480.1    4.160      32.137
2015   10       10     7  50    2.4038   479.8    4.162      32.111
2015   10       10     7  57    2.4035   479.6    4.164      32.084
2015   10       10     8   5    2.4032   479.4    4.167      32.058
2015   10       10     8  12    2.4030   479.1    4.169      32.032
2015   10       10     8  19    2.4027   478.9    4.171      32.006
2015   10       10     8  26    2.4026   478.6    4.174      31.980
2015   10       10     8  34    2.4024   478.4    4.176      31.955
2015   10       10     8  41    2.4023   478.1    4.179      31.929
2015   10       10     8  48    2.4022   477.9    4.182      31.904
2015   10       10     8  56    2.4021   477.6    4.185      31.879
2015   10       10     9   3    2.4021   477.4    4.188      31.855
2015   10       10     9  10    2.4022   477.1    4.191      31.831
2015   10       10     9  17    2.4022   476.9    4.194      31.807
2015   10       10     9  25    2.4024   476.6    4.198      31.784
2015   10       10     9  32    2.4026   476.4    4.201      31.761
2015   10       10     9  39    2.4028   476.1    4.205      31.738
2015   10       10     9  47    2.4031   475.9    4.209      31.716
2015   10       10     9  54    2.4034   475.6    4.214      31.695
2015   10       10    10   1    2.4038   475.4    4.218      31.674
2015   10       10    10   9    2.4043   475.1    4.223      31.654
2015   10       10    10  16    2.4048   474.9    4.228      31.634
2015   10       10    10  23    2.4053   474.6    4.233      31.615
2015   10       10    10  30    2.4059   474.4    4.239      31.597
2015   10       10    10  38    2.4066   474.1    4.244      31.579
2015   10       10    10  45    2.4074   473.9    4.250      31.562
2015   10       10    10  52    2.4082   473.6    4.257      31.546
2015   10       10    11   0    2.4090   473.3    4.263      31.531
2015   10       10    11   7    2.4099   473.1    4.270      31.516
2015   10       10    11  14    2.4109   472.8    4.277      31.503
2015   10       10    11  22    2.4120   472.6    4.285      31.490
2015   10       10    11  29    2.4130   472.4    4.292      31.478
2015   10       10    11  36    2.4141   472.1    4.300      31.466
2015   10       10    11  43    2.4153   471.9    4.308      31.456
2015   10       10    11  51    2.4165   471.6    4.316      31.446
2015   10       10    11  58    2.4178   471.4    4.324      31.437
2015   10       10    12   5    2.4191   471.2    4.332      31.429
2015   10       10    12  13    2.4204   470.9    4.340      31.421
2015   10       10    12  20    2.4217   470.7    4.349      31.415
2015   10       10    12  27    2.4231   470.5    4.357      31.409
2015   10       10    12  34    2.4245   470.2    4.366      31.404
2015   10       10    12  42    2.4259   470.0    4.374      31.399
2015   10       10    12  49    2.4273   469.8    4.382      31.396
2015   10       10    12  56    2.4288   469.6    4.390      31.393
2015   10       10    13   4    2.4302   469.4    4.398      31.390
2015   10       10    13  11    2.4317   469.1    4.406      31.387
2015   10       10    13  18    2.4332   468.9    4.415      31.384
2015   10       10    13  25    2.4347   468.7    4.422      31.380
2015   10       10    13  33    2.4362   468.5    4.430      31.377
2015   10       10    13  40    2.4377   468.3    4.438      31.374
2015   10       10    13  47    2.4393   468.1    4.446      31.370
2015   10       10    13  55    2.4409   467.9    4.454      31.366
2015   10       10    14   2    2.4425   467.6    4.462      31.362
2015   10       10    14   9    2.4441   467.4    4.469      31.358
2015   10       10    14  16    2.4458   467.2    4.477      31.354
2015   10       10    14  24    2.4474   467.0    4.485      31.350
2015   10       10    14  31    2.4491   466.8    4.492      31.346
2015   10       10    14  38    2.4509   466.6    4.500      31.342
2015   10       10    14  46    2.4526   466.4    4.508      31.339
2015   10       10    14  53    2.4544   466.2    4.515      31.335
2015   10       10    15   0    2.4563   466.0    4.523      31.332
2015   10       10    15   7    2.4581   465.8    4.530      31.329
2015   10       10    15  15    2.4600   465.6    4.538      31.327
2015   10       10    15  22    2.4620   465.4    4.546      31.325
2015   10       10    15  29    2.4640   465.2    4.554      31.323
2015   10       10    15  37    2.4660   465.0    4.562      31.323
2015   10       10    15  44    2.4681   464.8    4.570      31.323
2015   10       10    15  51    2.4702   464.7    4.578      31.324
2015   10       10    15  58    2.4724   464.5    4.586      31.325
2015   10       10    16   6    2.4746   464.3    4.595      31.328
2015   10       10    16  13    2.4769   464.1    4.603      31.331
2015   10       10    16  20    2.4792   463.9    4.612      31.335
2015   10       10    16  28    2.4816   463.7    4.621      31.340
2015   10       10    16  35    2.4841   463.6    4.630      31.346
2015   10       10    16  42    2.4866   463.4    4.640      31.353
2015   10       10    16  50    2.4891   463.2    4.649      31.361
2015   10       10    16  57    2.4917   463.0    4.659      31.370
2015   10       10    17   4    2.4943   462.9    4.669      31.381
2015   10       10    17  11    2.4971   462.7    4.680      31.392
2015   10       10    17  19    2.4998   462.5    4.690      31.403
2015   10       10    17  26    2.5026   462.4    4.701      31.416
2015   10       10    17  33    2.5054   462.2    4.712      31.430
2015   10       10    17  41    2.5083   462.1    4.723      31.444
2015   10       10    17  48    2.5112   461.9    4.734      31.459
2015   10       10    17  55    2.5142   461.7    4.746      31.475
2015   10       10    18   2    2.5172   461.6    4.757      31.491
2015   10       10    18  10    2.5203   461.4    4.769      31.509
2015   10       10    18  17    2.5234   461.3    4.781      31.526
2015   10       10    18  24    2.5265   461.1    4.794      31.545
2015   10       10    18  32    2.5296   461.0    4.806      31.564
2015   10       10    18  39    2.5328   460.9    4.819      31.583
2015   10       10    18  46    2.5360   460.7    4.831      31.602
2015   10       10    18  54    2.5392   460.6    4.844      31.623
2015   10       10    19   1    2.5425   460.4    4.857      31.643
2015   10       10    19   8    2.5458   460.3    4.870      31.665
2015   10       10    19  15    2.5490   460.2    4.883      31.686
2015   10       10    19  23    2.5524   460.0    4.897      31.708
2015   10       10    19  30    2.5557   459.9    4.910      31.730
2015   10       10    19  37    2.5590   459.8    4.923      31.754
2015   10       10    19  45    2.5623   459.6    4.936      31.777
2015   10       10    19  52    2.5657   459.5    4.949      31.802
2015   10       10    19  59    2.5690   459.4    4.962      31.828
2015   10       10    20   6    2.5724   459.3    4.975      31.855
2015   10       10    20  14    2.5758   459.1    4.987      31.883
2015   10       10    20  21    2.5792   459.0    5.000      31.912
2015   10       10    20  28    2.5825   458.9    5.012      31.941
2015   10       10    20  36    2.5859   458.8    5.024      31.972
2015   10       10    20  43    2.5893   458.7    5.036      32.003
2015   10       10    20  50    2.5927   458.6    5.048      32.035
2015   10       10    20  57    2.5960   458.5    5.060      32.067
2015   10       10    21   5    2.5994   458.4    5.071      32.100
2015   10       10    21  12    2.6028   458.3    5.082      32.133
2015   10       10    21  19    2.6062   458.2    5.093      32.165
2015   10       10    21  27    2.6096   458.1    5.104      32.197
2015   10       10    21  34    2.6130   458.0    5.115      32.229
2015   10       10    21  41    2.6163   457.9    5.126      32.259
2015   10       10    21  48    2.6197   457.8    5.136      32.289
2015   10       10    21  56    2.6231   457.7    5.146      32.318
2015   10       10    22   3    2.6265   457.6    5.157      32.346
2015   10       10    22  10    2.6299   457.5    5.167      32.374
2015   10       10    22  18    2.6334   457.5    5.177      32.401
2015   10       10    22  25    2.6368   457.4    5.187      32.428
2015   10       10    22  32    2.6402   457.3    5.196      32.455
2015   10       10    22  39    2.6437   457.2    5.206      32.481
2015   10       10    22  47    2.6471   457.2    5.216      32.507
2015   10       10    22  54    2.6505   457.1    5.225      32.532
2015   10       10    23   1    2.6540   457.0    5.235      32.558
2015   10       10    23   9    2.6575   457.0    5.244      32.583
2015   10       10    23  16    2.6609   456.9    5.254      32.608
2015   10       10    23  23    2.6644   456.8    5.263      32.633
2015   10       10    23  31    2.6679   456.8    5.272      32.658
2015   10       10    23  38    2.6714   456.7    5.282      32.684
2015   10       10    23  45    2.6749   456.7    5.291      32.709
2015   10       10    23  52    2.6783   456.6    5.300      32.734
2015   10       11     0   0    2.6818   456.6    5.310      32.759
2015   10       11     0   7    2.6853   456.5    5.319      32.785
2015   10       11     0  14    2.6888   456.5    5.328      32.810
2015   10       11     0  22    2.6923   456.4    5.338      32.836
2015   10       11     0  29    2.6959   456.4    5.347      32.861
2015   10       11     0  36    2.6993   456.3    5.356      32.887
2015   10       11     0  43    2.7029   456.3    5.366      32.913
2015   10       11     0  51    2.7064   456.3    5.375      32.940
2015   10       11     0  58    2.7098   456.2    5.384      32.966
2015   10       11     1   5    2.7133   456.2    5.394      32.993
2015   10       11     1  13    2.7168   456.2    5.403      33.020
2015   10       11     1  20    2.7203   456.1    5.413      33.046
2015   10       11     1  27    2.7238   456.1    5.422      33.073
2015   10       11     1  35    2.7273   456.1    5.431      33.100
2015   10       11     1  42    2.7307   456.1    5.441      33.128
2015   10       11     1  49    2.7342   456.0    5.450      33.155
2015   10       11     1  56    2.7376   456.0    5.460      33.183
2015   10       11     2   4    2.7410   456.0    5.469      33.211
2015   10       11     2  11    2.7444   456.0    5.479      33.239
2015   10       11     2  18    2.7479   455.9    5.488      33.268
2015   10       11     2  26    2.7513   455.9    5.498      33.297
2015   10       11     2  33    2.7547   455.9    5.507      33.326
2015   10       11     2  40    2.7580   455.9    5.517      33.355
2015   10       11     2  47    2.7614   455.8    5.527      33.386
2015   10       11     2  55    2.7648   455.8    5.536      33.416
2015   10       11     3   2    2.7682   455.8    5.546      33.448
2015   10       11     3   9    2.7715   455.8    5.556      33.480
2015   10       11     3  17    2.7749   455.8    5.565      33.513
2015   10       11     3  24    2.7782   455.7    5.575      33.547
2015   10       11     3  31    2.7816   455.7    5.585      33.583
2015   10       11     3  38    2.7849   455.7    5.594      33.619
2015   10       11     3  46    2.7882   455.7    5.603      33.657
2015   10       11     3  53    2.7914   455.7    5.613      33.696
2015   10       11     4   0    2.7947   455.7    5.622      33.736
2015   10       11     4   8    2.7979   455.7    5.631      33.777
2015   10       11     4  15    2.8011   455.7    5.640      33.819
2015   10       11     4  22    2.8043   455.7    5.649      33.861
2015   10       11     4  29    2.8074   455.7    5.658      33.904
2015   10       11     4  37    2.8106   455.7    5.666      33.948
2015   10       11     4  44    2.8137   455.7    5.674      33.992
2015   10       11     4  51    2.8168   455.7    5.683      34.036
2015   10       11     4  59    2.8198   455.7    5.691      34.081
2015   10       11     5   6    2.8229   455.7    5.698      34.124
2015   10       11     5  13    2.8259   455.7    5.706      34.168
2015   10       11     5  21    2.8289   455.7    5.713      34.210
2015   10       11     5  28    2.8318   455.7    5.720      34.252
2015   10       11     5  35    2.8348   455.7    5.727      34.292
2015   10       11     5  42    2.8377   455.7    5.734      34.331
2015   10       11     5  50    2.8406   455.7    5.741      34.370
2015   10       11     5  57    2.8434   455.7    5.747      34.407
2015   10       11     6   4    2.8463   455.8    5.754      34.444
2015   10       11     6  12    2.8491   455.8    5.760      34.480
2015   10       11     6  19    2.8520   455.8    5.766      34.515
2015   10       11     6  26    2.8548   455.8    5.772      34.549
2015   10       11     6  33    2.8576   455.8    5.778      34.583
2015   10       11     6  41    2.8603   455.8    5.784      34.616
2015   10       11     6  48    2.8631   455.9    5.789      34.648
2015   10       11     6  55    2.8658   455.9    5.795      34.680
2015   10       11     7   3    2.8685   455.9    5.800      34.711
2015   10       11     7  10    2.8712   455.9    5.805      34.742
2015   10       11     7  17    2.8739   455.9    5.810      34.772
2015   10       11     7  24    2.8765   456.0    5.815      34.801
2015   10       11     7  32    2.8792   456.0    5.820      34.830
2015   10       11     7  39    2.8818   456.0    5.825      34.858
2015   10       11     7  46    2.8844   456.0    5.830      34.886
2015   10       11     7  54    2.8870   456.1    5.835      34.914
2015   10       11     8   1    2.8895   456.1    5.839      34.941
2015   10       11     8   8    2.8921   456.1    5.844      34.968
2015   10       11     8  16    2.8946   456.2    5.848      34.994
2015   10       11     8  23    2.8971   456.2    5.853      35.020
2015   10       11     8  30    2.8997   456.2    5.857      35.046
2015   10       11     8  37    2.9022   456.2    5.862      35.071
2015   10       11     8  45    2.9047   456.3    5.866      35.096
2015   10       11     8  52    2.9071   456.3    5.870      35.122
2015   10       11     8  59    2.9096   456.3    5.874      35.147
2015   10       11     9   7    2.9121   456.4    5.878      35.172
2015   10       11     9  14    2.9146   456.4    5.883      35.197
2015   10       11     9  21    2.9170   456.4    5.887      35.222
2015   10       11     9  28    2.9194   456.5    5.891      35.247
2015   10       11     9  36    2.9218   456.5    5.895      35.273
2015   10       11     9  43    2.9242   456.5    5.899      35.298
2015   10       11     9  50    2.9266   456.6    5.903      35.324
2015   10       11     9  58    2.9290   456.6    5.907      35.350
2015   10       11    10   5    2.9313   456.6    5.911      35.377
2015   10       11    10  12    2.9336   456.7    5.916      35.404
2015   10       11    10  20    2.9359   456.7    5.920      35.431
2015   10       11    10  27    2.9382   456.7    5.924      35.459
2015   10       11    10  34    2.9405   456.8    5.928      35.487
2015   10       11    10  41    2.9427   456.8    5.932      35.515
2015   10       11    10  49    2.9449   456.9    5.937      35.544
2015   10       11    10  56    2.9471   456.9    5.941      35.574
2015   10       11    11   3    2.9493   456.9    5.945      35.604
2015   10       11    11  11    2.9514   457.0    5.949      35.634
2015   10       11    11  18    2.9536   457.0    5.953      35.666
2015   10       11    11  25    2.9556   457.1    5.957      35.697
2015   10       11    11  32    2.9577   457.1    5.961      35.730
2015   10       11    11  40    2.9597   457.2    5.965      35.762
2015   10       11    11  47    2.9617   457.2    5.969      35.795
2015   10       11    11  54    2.9637   457.3    5.973      35.827
2015   10       11    12   2    2.9657   457.3    5.976      35.860
2015   10       11    12   9    2.9676   457.4    5.980      35.892
2015   10       11    12  16    2.9695   457.4    5.983      35.925
2015   10       11    12  23    2.9714   457.5    5.986      35.958
2015   10       11    12  31    2.9732   457.5    5.989      35.990
2015   10       11    12  38    2.9750   457.6    5.992      36.022
2015   10       11    12  45    2.9768   457.6    5.995      36.053
2015   10       11    12  53    2.9786   457.7    5.997      36.083
2015   10       11    13   0    2.9804   457.7    6.000      36.112
2015   10       11    13   7    2.9821   457.8    6.002      36.141
2015   10       11    13  14    2.9838   457.8    6.004      36.169
2015   10       11    13  22    2.9855   457.9    6.007      36.196
2015   10       11    13  29    2.9872   457.9    6.009      36.222
2015   10       11    13  36    2.9889   457.9    6.011      36.248
2015   10       11    13  44    2.9905   458.0    6.013      36.273
2015   10       11    13  51    2.9922   458.0    6.015      36.298
2015   10       11    13  58    2.9938   458.1    6.016      36.321
2015   10       11    14   5    2.9954   458.1    6.018      36.344
2015   10       11    14  13    2.9970   458.2    6.020      36.367
2015   10       11    14  20    2.9985   458.2    6.021      36.389
2015   10       11    14  27    3.0001   458.3    6.023      36.410
2015   10       11    14  35    3.0016   458.3    6.025      36.431
2015   10       11    14  42    3.0032   458.4    6.026      36.451
2015   10       11    14  49    3.0047   458.4    6.028      36.471
2015   10       11    14  56    3.0062   458.4    6.029      36.490
2015   10       11    15   4    3.0078   458.5    6.031      36.510
2015   10       11    15  11    3.0093   458.5    6.033      36.529
2015   10       11    15  18    3.0108   458.5    6.035      36.548
2015   10       11    15  26    3.0124   458.6    6.036      36.568
2015   10       11    15  33    3.0139   458.6    6.038      36.587
2015   10       11    15  40    3.0155   458.7    6.041      36.607
2015   10       11    15  48    3.0171   458.7    6.043      36.627
2015   10       11    15  55    3.0188   458.7    6.045      36.649
2015   10       11    16   2    3.0204   458.8    6.048      36.671
2015   10       11    16   9    3.0221   458.8    6.051      36.693
2015   10       11    16  17    3.0238   458.8    6.054      36.716
2015   10       11    16  24    3.0255   458.9    6.057      36.740
2015   10       11    16  31    3.0273   458.9    6.060      36.765
2015   10       11    16  39    3.0290   459.0    6.063      36.790
2015   10       11    16  46    3.0307   459.0    6.066      36.816
2015   10       11    16  53    3.0324   459.1    6.069      36.842
2015   10       11    17   1    3.0340   459.1    6.071      36.868
2015   10       11    17   8    3.0356   459.2    6.074      36.894
2015   10       11    17  15    3.0372   459.2    6.076      36.918
2015   10       11    17  22    3.0387   459.3    6.078      36.941
2015   10       11    17  30    3.0401   459.3    6.080      36.964
2015   10       11    17  37    3.0415   459.4    6.082      36.985
2015   10       11    17  44    3.0429   459.4    6.083      37.006
2015   10       11    17  52    3.0442   459.5    6.085      37.026
2015   10       11    17  59    3.0455   459.5    6.086      37.046
2015   10       11    18   6    3.0467   459.6    6.087      37.065
2015   10       11    18  13    3.0479   459.6    6.088      37.084
2015   10       11    18  21    3.0491   459.7    6.089      37.103
2015   10       11    18  28    3.0502   459.8    6.089      37.121
2015   10       11    18  35    3.0513   459.8    6.090      37.139
2015   10       11    18  43    3.0524   459.9    6.090      37.157
2015   10       11    18  50    3.0535   459.9    6.090      37.174
2015   10       11    18  57    3.0545   460.0    6.090      37.190
2015   10       11    19   4    3.0555   460.0    6.090      37.206
2015   10       11    19  12    3.0565   460.1    6.090      37.221
2015   10       11    19  19    3.0574   460.2    6.090      37.234
2015   10       11    19  26    3.0584   460.2    6.089      37.248
2015   10       11    19  34    3.0593   460.3    6.089      37.260
2015   10       11    19  41    3.0602   460.3    6.088      37.272
2015   10       11    19  48    3.0611   460.4    6.088      37.283
2015   10       11    19  55    3.0620   460.4    6.087      37.294
2015   10       11    20   3    3.0628   460.5    6.086      37.304
2015   10       11    20  10    3.0637   460.5    6.085      37.314
2015   10       11    20  17    3.0645   460.6    6.084      37.323
2015   10       11    20  25    3.0653   460.6    6.083      37.331
2015   10       11    20  32    3.0661   460.7    6.082      37.339
2015   10       11    20  39    3.0669   460.7    6.081      37.347
2015   10       11    20  46    3.0677   460.8    6.080      37.354
2015   10       11    20  54    3.0685   460.8    6.079      37.361
2015   10       11    21   1    3.0692   460.9    6.078      37.367
2015   10       11    21   8    3.0700   460.9    6.076      37.373
2015   10       11    21  16    3.0707   461.0    6.075      37.378
2015   10       11    21  23    3.0714   461.0    6.074      37.383
2015   10       11    21  30    3.0721   461.1    6.073      37.387
2015   10       11    21  38    3.0728   461.1    6.071      37.391
2015   10       11    21  45    3.0735   461.2    6.070      37.395
2015   10       11    21  52    3.0742   461.2    6.069      37.398
2015   10       11    21  59    3.0749   461.3    6.067      37.401
2015   10       11    22   7    3.0756   461.3    6.066      37.404
2015   10       11    22  14    3.0763   461.3    6.065      37.407
2015   10       11    22  21    3.0770   461.4    6.064      37.410
2015   10       11    22  29    3.0777   461.4    6.063      37.413
2015   10       11    22  36    3.0785   461.4    6.063      37.416
2015   10       11    22  43    3.0792   461.5    6.062      37.420
2015   10       11    22  50    3.0800   461.5    6.062      37.424
2015   10       11    22  58    3.0808   461.5    6.062      37.429
2015   10       11    23   5    3.0816   461.5    6.062      37.435
2015   10       11    23  12    3.0825   461.6    6.062      37.442
2015   10       11    23  20    3.0833   461.6    6.063      37.449
2015   10       11    23  27    3.0842   461.6    6.064      37.457
2015   10       11    23  34    3.0852   461.7    6.065      37.466
2015   10       11    23  41    3.0861   461.7    6.066      37.477
2015   10       11    23  49    3.0871   461.7    6.067      37.488
2015   10       11    23  56    3.0881   461.8    6.068      37.500
2015   10       12     0   3    3.0890   461.8    6.069      37.513
2015   10       12     0  11    3.0900   461.9    6.070      37.526
2015   10       12     0  18    3.0909   461.9    6.070      37.540
2015   10       12     0  25    3.0918   461.9    6.071      37.552
2015   10       12     0  33    3.0926   462.0    6.071      37.564
2015   10       12     0  40    3.0934   462.0    6.071      37.575
2015   10       12     0  47    3.0942   462.1    6.071      37.584
2015   10       12     0  54    3.0949   462.1    6.071      37.594
2015   10       12     1   2    3.0956   462.2    6.071      37.602
2015   10       12     1   9    3.0963   462.2    6.070      37.610
2015   10       12     1  16    3.0969   462.3    6.070      37.617
2015   10       12     1  24    3.0976   462.3    6.069      37.623
2015   10       12     1  31    3.0981   462.4    6.068      37.629
2015   10       12     1  38    3.0987   462.4    6.067      37.635
2015   10       12     1  45    3.0993   462.4    6.066      37.639
2015   10       12     1  53    3.0998   462.5    6.065      37.644
2015   10       12     2   0    3.1004   462.5    6.064      37.648
2015   10       12     2   7    3.1009   462.6    6.062      37.651
2015   10       12     2  15    3.1014   462.6    6.061      37.654
2015   10       12     2  22    3.1019   462.6    6.059      37.656
2015   10       12     2  29    3.1024   462.7    6.058      37.658
2015   10       12     2  36    3.1029   462.7    6.056      37.660
2015   10       12     2  44    3.1034   462.8    6.054      37.661
2015   10       12     2  51    3.1039   462.8    6.053      37.662
2015   10       12     2  58    3.1044   462.8    6.051      37.662
2015   10       12     3   6    3.1049   462.9    6.049      37.662
2015   10       12     3  13    3.1054   462.9    6.047      37.662
2015   10       12     3  20    3.1059   463.0    6.045      37.661
2015   10       12     3  27    3.1064   463.0    6.043      37.660
2015   10       12     3  35    3.1069   463.0    6.041      37.659
2015   10       12     3  42    3.1074   463.1    6.039      37.657
2015   10       12     3  49    3.1078   463.1    6.037      37.655
2015   10       12     3  57    3.1082   463.1    6.035      37.652
2015   10       12     4   4    3.1087   463.1    6.032      37.649
2015   10       12     4  11    3.1091   463.2    6.030      37.646
2015   10       12     4  18    3.1095   463.2    6.028      37.642
2015   10       12     4  26    3.1099   463.2    6.025      37.638
2015   10       12     4  33    3.1103   463.3    6.023      37.633
2015   10       12     4  40    3.1107   463.3    6.020      37.628
2015   10       12     4  48    3.1110   463.3    6.018      37.622
2015   10       12     4  55    3.1114   463.3    6.015      37.616
2015   10       12     5   2    3.1118   463.4    6.013      37.610
2015   10       12     5  10    3.1121   463.4    6.010      37.603
2015   10       12     5  17    3.1124   463.4    6.008      37.597
2015   10       12     5  24    3.1128   463.4    6.005      37.589
2015   10       12     5  31    3.1131   463.5    6.003      37.582
2015   10       12     5  39    3.1134   463.5    6.000      37.574
2015   10       12     5  46    3.1138   463.5    5.998      37.566
2015   10       12     5  53    3.1141   463.5    5.995      37.559
2015   10       12     6   1    3.1144   463.5    5.993      37.550
2015   10       12     6   8    3.1147   463.6    5.990      37.542
2015   10       12     6  15    3.1151   463.6    5.988      37.534
2015   10       12     6  22    3.1154   463.6    5.985      37.526
2015   10       12     6  30    3.1158   463.6    5.983      37.518
2015   10       12     6  37    3.1161   463.6    5.981      37.509
2015   10       12     6  44    3.1165   463.7    5.979      37.501
2015   10       12     6  52    3.1168   463.7    5.977      37.493
2015   10       12     6  59    3.1172   463.7    5.975      37.485
2015   10       12     7   6    3.1175   463.7    5.973      37.477
2015   10       12     7  14    3.1179   463.7    5.971      37.469
2015   10       12     7  21    3.1183   463.7    5.969      37.461
2015   10       12     7  28    3.1187   463.7    5.967      37.453
2015   10       12     7  35    3.1191   463.7    5.965      37.446
2015   10       12     7  43    3.1195   463.8    5.964      37.439
2015   10       12     7  50    3.1199   463.8    5.962      37.432
2015   10       12     7  57    3.1203   463.8    5.961      37.425
2015   10       12     8   5    3.1207   463.8    5.959      37.419
2015   10       12     8  12    3.1211   463.8    5.958      37.413
2015   10       12     8  19    3.1216   463.8    5.957      37.407
2015   10       12     8  26    3.1221   463.8    5.956      37.402
2015   10       12     8  34    3.1225   463.8    5.955      37.397
2015   10       12     8  41    3.1231   463.8    5.954      37.392
2015   10       12     8  48    3.1236   463.8    5.954      37.388
2015   10       12     8  56    3.1242   463.8    5.953      37.385
2015   10       12     9   3    3.1248   463.8    5.953      37.382
2015   10       12     9  10    3.1254   463.8    5.953      37.379
2015   10       12     9  17    3.1260   463.8    5.953      37.377
2015   10       12     9  25    3.1267   463.8    5.953      37.376
2015   10       12     9  32    3.1275   463.8    5.953      37.375
2015   10       12     9  39    3.1282   463.8    5.954      37.374
2015   10       12     9  47    3.1290   463.8    5.954      37.374
2015   10       12     9  54    3.1299   463.8    5.955      37.375
2015   10       12    10   1    3.1308   463.8    5.956      37.376
2015   10       12    10   8    3.1317   463.8    5.957      37.377
2015   10       12    10  16    3.1327   463.8    5.958      37.379
2015   10       12    10  23    3.1337   463.8    5.960      37.381
2015   10       12    10  30    3.1347   463.8    5.961      37.384
2015   10       12    10  38    3.1358   463.8    5.963      37.387
2015   10       12    10  45    3.1369   463.8    5.964      37.391
2015   10       12    10  52    3.1380   463.8    5.966      37.395
2015   10       12    10  59    3.1391   463.8    5.968      37.399
2015   10       12    11   7    3.1402   463.8    5.969      37.404
2015   10       12    11  14    3.1413   463.8    5.971      37.410
2015   10       12    11  21    3.1424   463.8    5.972      37.415
2015   10       12    11  29    3.1435   463.8    5.974      37.421
2015   10       12    11  36    3.1446   463.8    5.975      37.427
2015   10       12    11  43    3.1456   463.8    5.976      37.433
2015   10       12    11  51    3.1466   463.8    5.977      37.439
2015   10       12    11  58    3.1477   463.8    5.978      37.443
2015   10       12    12   5    3.1487   463.8    5.979      37.447
2015   10       12    12  12    3.1497   463.7    5.979      37.450
2015   10       12    12  20    3.1507   463.7    5.980      37.452
2015   10       12    12  27    3.1517   463.7    5.980      37.454
2015   10       12    12  34    3.1526   463.7    5.981      37.455
2015   10       12    12  42    3.1536   463.7    5.981      37.455
2015   10       12    12  49    3.1546   463.7    5.981      37.454
2015   10       12    12  56    3.1556   463.7    5.981      37.453
2015   10       12    13   3    3.1566   463.7    5.981      37.452
2015   10       12    13  11    3.1576   463.7    5.981      37.450
2015   10       12    13  18    3.1586   463.7    5.981      37.447
2015   10       12    13  25    3.1596   463.6    5.981      37.445
2015   10       12    13  33    3.1606   463.6    5.981      37.441
2015   10       12    13  40    3.1617   463.6    5.980      37.437
2015   10       12    13  47    3.1627   463.6    5.980      37.433
2015   10       12    13  55    3.1638   463.6    5.980      37.429
2015   10       12    14   2    3.1648   463.6    5.979      37.423
2015   10       12    14   9    3.1659   463.5    5.979      37.418
2015   10       12    14  16    3.1670   463.5    5.979      37.412
2015   10       12    14  24    3.1681   463.5    5.979      37.406
2015   10       12    14  31    3.1693   463.5    5.978      37.400
2015   10       12    14  38    3.1704   463.5    5.978      37.393
2015   10       12    14  46    3.1716   463.4    5.978      37.386
2015   10       12    14  53    3.1728   463.4    5.978      37.380
2015   10       12    15   0    3.1740   463.4    5.978      37.373
2015   10       12    15   7    3.1753   463.3    5.978      37.366
2015   10       12    15  15    3.1765   463.3    5.978      37.360
2015   10       12    15  22    3.1778   463.3    5.979      37.354
2015   10       12    15  29    3.1792   463.2    5.980      37.348
2015   10       12    15  37    3.1806   463.2    5.981      37.343
2015   10       12    15  44    3.1820   463.2    5.982      37.339
2015   10       12    15  51    3.1835   463.1    5.983      37.336
2015   10       12    15  58    3.1850   463.1    5.985      37.334
2015   10       12    16   6    3.1866   463.1    5.987      37.333
2015   10       12    16  13    3.1883   463.0    5.990      37.333
2015   10       12    16  20    3.1900   463.0    5.993      37.334
2015   10       12    16  28    3.1918   463.0    5.996      37.337
2015   10       12    16  35    3.1936   462.9    5.999      37.341
2015   10       12    16  42    3.1955   462.9    6.003      37.346
2015   10       12    16  50    3.1976   462.9    6.008      37.352
2015   10       12    16  57    3.1996   462.9    6.012      37.361
2015   10       12    17   4    3.2018   462.8    6.017      37.370
2015   10       12    17  11    3.2040   462.8    6.023      37.381
2015   10       12    17  19    3.2063   462.8    6.029      37.393
2015   10       12    17  26    3.2087   462.8    6.035      37.407
2015   10       12    17  33    3.2111   462.8    6.041      37.422
2015   10       12    17  41    3.2136   462.7    6.048      37.438
2015   10       12    17  48    3.2162   462.7    6.054      37.455
2015   10       12    17  55    3.2188   462.7    6.061      37.474
2015   10       12    18   2    3.2214   462.7    6.068      37.493
2015   10       12    18  10    3.2241   462.7    6.076      37.514
2015   10       12    18  17    3.2269   462.7    6.083      37.535
2015   10       12    18  24    3.2296   462.7    6.090      37.558
2015   10       12    18  32    3.2325   462.7    6.097      37.581
2015   10       12    18  39    3.2352   462.6    6.104      37.605
2015   10       12    18  46    3.2380   462.6    6.111      37.630
2015   10       12    18  53    3.2408   462.6    6.117      37.654
2015   10       12    19   1    3.2436   462.6    6.124      37.679
2015   10       12    19   8    3.2464   462.6    6.130      37.703
2015   10       12    19  15    3.2493   462.6    6.136      37.725
2015   10       12    19  23    3.2521   462.6    6.143      37.747
2015   10       12    19  30    3.2551   462.6    6.149      37.768
2015   10       12    19  37    3.2580   462.6    6.155      37.789
2015   10       12    19  44    3.2610   462.6    6.161      37.809
2015   10       12    19  52    3.2640   462.6    6.167      37.828
2015   10       12    19  59    3.2671   462.6    6.173      37.847
2015   10       12    20   6    3.2702   462.5    6.180      37.867
2015   10       12    20  14    3.2735   462.5    6.187      37.885
2015   10       12    20  21    3.2767   462.5    6.193      37.904
2015   10       12    20  28    3.2801   462.5    6.200      37.925
2015   10       12    20  36    3.2835   462.5    6.208      37.946
2015   10       12    20  43    3.2871   462.5    6.215      37.969
2015   10       12    20  50    3.2906   462.5    6.223      37.993
2015   10       12    20  57    3.2943   462.6    6.230      38.018
2015   10       12    21   5    3.2978   462.6    6.238      38.046
2015   10       12    21  12    3.3015   462.6    6.246      38.077
2015   10       12    21  19    3.3050   462.6    6.253      38.110
2015   10       12    21  27    3.3085   462.7    6.260      38.145
2015   10       12    21  34    3.3120   462.7    6.267      38.183
2015   10       12    21  41    3.3154   462.8    6.273      38.220
2015   10       12    21  48    3.3188   462.8    6.279      38.255
2015   10       12    21  56    3.3222   462.9    6.284      38.288
2015   10       12    22   3    3.3254   462.9    6.289      38.319
2015   10       12    22  10    3.3287   462.9    6.293      38.349
2015   10       12    22  18    3.3319   463.0    6.298      38.378
2015   10       12    22  25    3.3352   463.0    6.302      38.405
2015   10       12    22  32    3.3384   463.1    6.305      38.432
2015   10       12    22  40    3.3416   463.1    6.309      38.457
2015   10       12    22  47    3.3449   463.1    6.313      38.482
2015   10       12    22  54    3.3481   463.1    6.316      38.506
2015   10       12    23   1    3.3514   463.2    6.320      38.530
2015   10       12    23   9    3.3547   463.2    6.323      38.554
2015   10       12    23  16    3.3581   463.2    6.327      38.578
2015   10       12    23  23    3.3615   463.3    6.331      38.601
2015   10       12    23  31    3.3649   463.3    6.335      38.625
2015   10       12    23  38    3.3684   463.3    6.339      38.649
2015   10       12    23  45    3.3719   463.4    6.343      38.673
2015   10       12    23  52    3.3754   463.4    6.347      38.697
2015   10       13     0   0    3.3790   463.4    6.352      38.722
2015   10       13     0   7    3.3827   463.4    6.356      38.747
2015   10       13     0  14    3.3864   463.5    6.361      38.773
2015   10       13     0  22    3.3901   463.5    6.366      38.798
2015   10       13     0  29    3.3939   463.5    6.372      38.825
2015   10       13     0  36    3.3977   463.6    6.377      38.852
2015   10       13     0  43    3.4016   463.6    6.383      38.880
2015   10       13     0  51    3.4055   463.6    6.388      38.908
2015   10       13     0  58    3.4094   463.7    6.394      38.937
2015   10       13     1   5    3.4134   463.7    6.400      38.967
2015   10       13     1  13    3.4174   463.7    6.406      38.997
2015   10       13     1  20    3.4215   463.8    6.413      39.028
2015   10       13     1  27    3.4256   463.8    6.419      39.060
2015   10       13     1  34    3.4297   463.9    6.426      39.093
2015   10       13     1  42    3.4338   463.9    6.433      39.126
2015   10       13     1  49    3.4380   464.0    6.440      39.161
2015   10       13     1  56    3.4423   464.0    6.447      39.196
2015   10       13     2   4    3.4466   464.1    6.454      39.233
2015   10       13     2  11    3.4509   464.1    6.462      39.270
2015   10       13     2  18    3.4553   464.2    6.470      39.309
2015   10       13     2  25    3.4597   464.2    6.478      39.348
2015   10       13     2  33    3.4642   464.3    6.487      39.388
2015   10       13     2  40    3.4688   464.3    6.497      39.430
2015   10       13     2  47    3.4734   464.4    6.506      39.473
2015   10       13     2  55    3.4782   464.4    6.517      39.517
2015   10       13     3   2    3.4830   464.5    6.528      39.565
2015   10       13     3   9    3.4880   464.5    6.540      39.615
2015   10       13     3  17    3.4930   464.6    6.552      39.669
2015   10       13     3  24    3.4982   464.7    6.565      39.725
2015   10       13     3  31    3.5035   464.8    6.579      39.783
2015   10       13     3  38    3.5089   464.8    6.593      39.846
2015   10       13     3  46    3.5143   465.0    6.607      39.916
2015   10       13     3  53    3.5198   465.1    6.622      39.989
2015   10       13     4   0    3.5254   465.2    6.636      40.068
2015   10       13     4   8    3.5309   465.3    6.650      40.150
2015   10       13     4  15    3.5363   465.5    6.663      40.234
2015   10       13     4  22    3.5415   465.6    6.676      40.317
2015   10       13     4  29    3.5467   465.8    6.688      40.401
2015   10       13     4  37    3.5517   466.0    6.699      40.485
2015   10       13     4  44    3.5565   466.1    6.709      40.569
2015   10       13     4  51    3.5612   466.3    6.719      40.652
2015   10       13     4  59    3.5659   466.5    6.727      40.731
2015   10       13     5   6    3.5704   466.7    6.734      40.808
2015   10       13     5  13    3.5748   466.8    6.741      40.881
2015   10       13     5  21    3.5791   467.0    6.747      40.952
2015   10       13     5  28    3.5834   467.2    6.753      41.021
2015   10       13     5  35    3.5876   467.3    6.758      41.088
2015   10       13     5  42    3.5918   467.5    6.762      41.153
2015   10       13     5  50    3.5959   467.7    6.766      41.216
2015   10       13     5  57    3.6000   467.8    6.770      41.279
2015   10       13     6   4    3.6041   468.0    6.774      41.340
2015   10       13     6  12    3.6082   468.1    6.777      41.400
2015   10       13     6  19    3.6122   468.3    6.780      41.459
2015   10       13     6  26    3.6163   468.5    6.783      41.517
2015   10       13     6  33    3.6204   468.6    6.786      41.575
2015   10       13     6  41    3.6244   468.8    6.789      41.632
2015   10       13     6  48    3.6284   469.0    6.791      41.688
2015   10       13     6  55    3.6324   469.1    6.793      41.744
2015   10       13     7   3    3.6364   469.3    6.795      41.799
2015   10       13     7  10    3.6404   469.5    6.797      41.853
2015   10       13     7  17    3.6444   469.6    6.798      41.907
2015   10       13     7  24    3.6484   469.8    6.800      41.961
2015   10       13     7  32    3.6523   470.0    6.801      42.013
2015   10       13     7  39    3.6563   470.2    6.802      42.065
2015   10       13     7  46    3.6602   470.3    6.804      42.117
2015   10       13     7  54    3.6641   470.5    6.805      42.168
2015   10       13     8   1    3.6681   470.7    6.805      42.219
2015   10       13     8   8    3.6720   470.8    6.806      42.269
2015   10       13     8  15    3.6759   471.0    6.807      42.318
2015   10       13     8  23    3.6798   471.2    6.808      42.368
2015   10       13     8  30    3.6837   471.3    6.809      42.417
2015   10       13     8  37    3.6877   471.5    6.809      42.466
2015   10       13     8  45    3.6916   471.7    6.810      42.515
2015   10       13     8  52    3.6956   471.8    6.811      42.564
2015   10       13     8  59    3.6995   472.0    6.813      42.612
2015   10       13     9   6    3.7035   472.2    6.814      42.662
2015   10       13     9  14    3.7075   472.3    6.815      42.711
2015   10       13     9  21    3.7116   472.5    6.817      42.761
2015   10       13     9  28    3.7156   472.6    6.819      42.812
2015   10       13     9  36    3.7197   472.8    6.822      42.863
2015   10       13     9  43    3.7238   473.0    6.824      42.914
2015   10       13     9  50    3.7279   473.1    6.827      42.967
2015   10       13     9  57    3.7320   473.3    6.831      43.021
2015   10       13    10   5    3.7362   473.5    6.835      43.075
2015   10       13    10  12    3.7404   473.6    6.839      43.131
2015   10       13    10  19    3.7446   473.8    6.844      43.190
2015   10       13    10  27    3.7489   474.0    6.849      43.251
2015   10       13    10  34    3.7532   474.2    6.855      43.314
2015   10       13    10  41    3.7575   474.3    6.861      43.379
2015   10       13    10  49    3.7618   474.5    6.867      43.446
2015   10       13    10  56    3.7661   474.7    6.874      43.517
2015   10       13    11   3    3.7704   474.9    6.880      43.592
2015   10       13    11  10    3.7747   475.1    6.886      43.670
2015   10       13    11  18    3.7788   475.3    6.891      43.751
2015   10       13    11  25    3.7829   475.5    6.896      43.833
2015   10       13    11  32    3.7868   475.8    6.900      43.913
2015   10       13    11  40    3.7906   476.0    6.903      43.991
2015   10       13    11  47    3.7943   476.2    6.906      44.066
2015   10       13    11  54    3.7979   476.4    6.908      44.139
2015   10       13    12   2    3.8014   476.6    6.909      44.209
2015   10       13    12   9    3.8049   476.8    6.911      44.278
2015   10       13    12  16    3.8082   477.0    6.911      44.345
2015   10       13    12  23    3.8116   477.2    6.912      44.411
2015   10       13    12  31    3.8149   477.5    6.913      44.475
2015   10       13    12  38    3.8182   477.7    6.913      44.539
2015   10       13    12  45    3.8215   477.9    6.913      44.602
2015   10       13    12  53    3.8248   478.1    6.914      44.664
2015   10       13    13   0    3.8280   478.3    6.914      44.727
2015   10       13    13   7    3.8314   478.5    6.915      44.790
2015   10       13    13  14    3.8347   478.7    6.916      44.853
2015   10       13    13  22    3.8380   478.9    6.917      44.916
2015   10       13    13  29    3.8414   479.1    6.918      44.980
2015   10       13    13  36    3.8448   479.3    6.919      45.045
2015   10       13    13  44    3.8482   479.5    6.921      45.111
2015   10       13    13  51    3.8517   479.7    6.924      45.178
2015   10       13    13  58    3.8552   479.9    6.926      45.246
2015   10       13    14   5    3.8588   480.2    6.929      45.315
2015   10       13    14  13    3.8625   480.4    6.933      45.386
2015   10       13    14  20    3.8662   480.6    6.937      45.459
2015   10       13    14  27    3.8700   480.8    6.942      45.532
2015   10       13    14  35    3.8738   481.1    6.947      45.608
2015   10       13    14  42    3.8778   481.3    6.953      45.688
2015   10       13    14  49    3.8818   481.6    6.959      45.770
2015   10       13    14  56    3.8859   481.8    6.966      45.855
2015   10       13    15   4    3.8901   482.0    6.973      45.941
2015   10       13    15  11    3.8944   482.3    6.981      46.031
2015   10       13    15  18    3.8988   482.6    6.989      46.127
2015   10       13    15  26    3.9031   482.9    6.996      46.225
2015   10       13    15  33    3.9074   483.2    7.003      46.328
2015   10       13    15  40    3.9116   483.5    7.009      46.435
2015   10       13    15  47    3.9156   483.8    7.015      46.539
2015   10       13    15  55    3.9195   484.2    7.019      46.641
2015   10       13    16   2    3.9232   484.5    7.022      46.740
2015   10       13    16   9    3.9268   484.8    7.024      46.837
2015   10       13    16  17    3.9303   485.1    7.025      46.930
2015   10       13    16  24    3.9335   485.4    7.026      47.021
2015   10       13    16  31    3.9367   485.7    7.025      47.110
2015   10       13    16  38    3.9398   486.1    7.024      47.197
2015   10       13    16  46    3.9427   486.4    7.023      47.282
2015   10       13    16  53    3.9456   486.7    7.020      47.366
2015   10       13    17   0    3.9484   487.0    7.018      47.448
2015   10       13    17   8    3.9511   487.3    7.014      47.529
2015   10       13    17  15    3.9538   487.6    7.011      47.608
2015   10       13    17  22    3.9564   487.9    7.007      47.687
2015   10       13    17  30    3.9590   488.2    7.003      47.763
2015   10       13    17  37    3.9615   488.5    6.998      47.839
2015   10       13    17  44    3.9640   488.8    6.993      47.913
2015   10       13    17  51    3.9664   489.1    6.988      47.987
2015   10       13    17  59    3.9688   489.4    6.983      48.059
2015   10       13    18   6    3.9711   489.8    6.978      48.130
2015   10       13    18  13    3.9734   490.1    6.972      48.199
2015   10       13    18  21    3.9756   490.4    6.966      48.268
2015   10       13    18  28    3.9778   490.7    6.960      48.334
2015   10       13    18  35    3.9799   491.0    6.955      48.400
2015   10       13    18  42    3.9820   491.3    6.948      48.464
2015   10       13    18  50    3.9840   491.6    6.942      48.527
2015   10       13    18  57    3.9860   491.9    6.936      48.589
2015   10       13    19   4    3.9880   492.2    6.930      48.649
2015   10       13    19  12    3.9898   492.5    6.923      48.708
2015   10       13    19  19    3.9917   492.8    6.917      48.765
2015   10       13    19  26    3.9935   493.1    6.910      48.821
2015   10       13    19  34    3.9952   493.4    6.903      48.876
2015   10       13    19  41    3.9969   493.7    6.897      48.930
2015   10       13    19  48    3.9986   494.0    6.890      48.983
2015   10       13    19  55    4.0003   494.3    6.884      49.036
2015   10       13    20   3    4.0020   494.6    6.877      49.088
2015   10       13    20  10    4.0037   494.9    6.871      49.139
2015   10       13    20  17    4.0053   495.2    6.865      49.190
2015   10       13    20  25    4.0070   495.4    6.859      49.241
2015   10       13    20  32    4.0087   495.7    6.853      49.293
2015   10       13    20  39    4.0104   496.0    6.847      49.344
2015   10       13    20  46    4.0122   496.3    6.842      49.396
2015   10       13    20  54    4.0140   496.6    6.837      49.448
2015   10       13    21   1    4.0158   496.9    6.832      49.501
2015   10       13    21   8    4.0176   497.2    6.828      49.554
2015   10       13    21  16    4.0195   497.5    6.824      49.608
2015   10       13    21  23    4.0214   497.8    6.820      49.663
2015   10       13    21  30    4.0234   498.1    6.817      49.719
2015   10       13    21  37    4.0254   498.4    6.815      49.776
2015   10       13    21  45    4.0275   498.7    6.813      49.834
2015   10       13    21  52    4.0297   498.9    6.812      49.893
2015   10       13    21  59    4.0321   499.2    6.811      49.955
2015   10       13    22   7    4.0346   499.5    6.812      50.020
2015   10       13    22  14    4.0373   499.8    6.813      50.090
2015   10       13    22  21    4.0400   500.2    6.815      50.163
2015   10       13    22  28    4.0430   500.5    6.818      50.241
2015   10       13    22  36    4.0460   500.8    6.822      50.322
2015   10       13    22  43    4.0492   501.1    6.825      50.411
2015   10       13    22  50    4.0523   501.5    6.828      50.507
2015   10       13    22  58    4.0554   501.9    6.831      50.606
2015   10       13    23   5    4.0583   502.3    6.832      50.708
2015   10       13    23  12    4.0609   502.7    6.832      50.811
2015   10       13    23  19    4.0632   503.1    6.830      50.908
2015   10       13    23  27    4.0652   503.5    6.827      51.002
2015   10       13    23  34    4.0669   503.9    6.823      51.090
2015   10       13    23  41    4.0682   504.3    6.818      51.173
2015   10       13    23  49    4.0694   504.7    6.812      51.253
2015   10       13    23  56    4.0704   505.1    6.804      51.329
2015   10       14     0   3    4.0712   505.5    6.796      51.402
2015   10       14     0  11    4.0718   505.8    6.788      51.473
2015   10       14     0  18    4.0723   506.2    6.779      51.542
2015   10       14     0  25    4.0727   506.6    6.769      51.609
2015   10       14     0  32    4.0730   506.9    6.759      51.675
2015   10       14     0  40    4.0732   507.3    6.748      51.740
2015   10       14     0  47    4.0734   507.7    6.737      51.803
2015   10       14     0  54    4.0734   508.0    6.726      51.864
2015   10       14     1   2    4.0734   508.4    6.714      51.924
2015   10       14     1   9    4.0733   508.8    6.702      51.983
2015   10       14     1  16    4.0731   509.1    6.690      52.039
2015   10       14     1  23    4.0728   509.5    6.678      52.094
2015   10       14     1  31    4.0725   509.9    6.665      52.147
2015   10       14     1  38    4.0721   510.2    6.652      52.198
2015   10       14     1  45    4.0717   510.6    6.639      52.246
2015   10       14     1  53    4.0711   511.0    6.626      52.292
2015   10       14     2   0    4.0705   511.3    6.612      52.336
2015   10       14     2   7    4.0699   511.7    6.599      52.378
2015   10       14     2  15    4.0692   512.1    6.585      52.417
2015   10       14     2  22    4.0684   512.5    6.571      52.453
2015   10       14     2  29    4.0676   512.8    6.557      52.487
2015   10       14     2  36    4.0667   513.2    6.543      52.519
2015   10       14     2  44    4.0658   513.6    6.528      52.548
2015   10       14     2  51    4.0648   514.0    6.513      52.575
2015   10       14     2  58    4.0638   514.4    6.499      52.600
2015   10       14     3   6    4.0627   514.8    6.484      52.624
2015   10       14     3  13    4.0616   515.2    6.469      52.647
2015   10       14     3  20    4.0604   515.6    6.453      52.667
2015   10       14     3  27    4.0591   516.0    6.437      52.687
2015   10       14     3  35    4.0576   516.4    6.421      52.707
2015   10       14     3  42    4.0561   516.8    6.405      52.725
2015   10       14     3  49    4.0543   517.3    6.388      52.742
2015   10       14     3  57    4.0525   517.7    6.370      52.757
2015   10       14     4   4    4.0504   518.1    6.352      52.772
2015   10       14     4  11    4.0482   518.6    6.334      52.785
2015   10       14     4  18    4.0457   519.0    6.315      52.791
2015   10       14     4  26    4.0431   519.4    6.296      52.794
2015   10       14     4  33    4.0404   519.8    6.277      52.794
2015   10       14     4  40    4.0377   520.2    6.258      52.791
2015   10       14     4  48    4.0349   520.5    6.239      52.784
2015   10       14     4  55    4.0323   520.9    6.222      52.779
2015   10       14     5   2    4.0298   521.2    6.205      52.776
2015   10       14     5   9    4.0274   521.5    6.189      52.777
2015   10       14     5  17    4.0251   521.9    6.174      52.780
2015   10       14     5  24    4.0230   522.2    6.159      52.787
2015   10       14     5  31    4.0209   522.5    6.145      52.796
2015   10       14     5  39    4.0190   522.8    6.132      52.809
2015   10       14     5  46    4.0172   523.2    6.120      52.826
2015   10       14     5  53    4.0154   523.5    6.108      52.849
2015   10       14     6   1    4.0137   523.8    6.096      52.876
2015   10       14     6   8    4.0120   524.2    6.084      52.909
2015   10       14     6  15    4.0102   524.5    6.072      52.945
2015   10       14     6  22    4.0083   524.9    6.059      52.982
2015   10       14     6  30    4.0061   525.3    6.046      53.021
2015   10       14     6  37    4.0039   525.7    6.033      53.060
2015   10       14     6  44    4.0014   526.1    6.019      53.097
2015   10       14     6  52    3.9988   526.5    6.004      53.131
2015   10       14     6  59    3.9960   526.9    5.990      53.159
2015   10       14     7   6    3.9931   527.2    5.975      53.179
2015   10       14     7  13    3.9900   527.6    5.959      53.193
2015   10       14     7  21    3.9868   527.9    5.944      53.202
2015   10       14     7  28    3.9834   528.2    5.928      53.207
2015   10       14     7  35    3.9800   528.6    5.912      53.210
2015   10       14     7  43    3.9763   528.9    5.896      53.211
2015   10       14     7  50    3.9726   529.2    5.879      53.211
2015   10       14     7  57    3.9687   529.6    5.862      53.209
2015   10       14     8   4    3.9647   529.9    5.845      53.206
2015   10       14     8  12    3.9606   530.3    5.828      53.203
2015   10       14     8  19    3.9564   530.7    5.810      53.200
2015   10       14     8  26    3.9520   531.0    5.792      53.193
2015   10       14     8  34    3.9476   531.4    5.774      53.182
2015   10       14     8  41    3.9430   531.7    5.756      53.169
2015   10       14     8  48    3.9385   532.0    5.739      53.151
2015   10       14     8  56    3.9339   532.3    5.721      53.128
2015   10       14     9   3    3.9295   532.5    5.704      53.104
2015   10       14     9  10    3.9251   532.8    5.687      53.082
2015   10       14     9  17    3.9209   533.1    5.670      53.060
2015   10       14     9  25    3.9166   533.4    5.654      53.038
2015   10       14     9  32    3.9125   533.6    5.638      53.016
2015   10       14     9  39    3.9083   533.9    5.623      52.995
2015   10       14     9  47    3.9042   534.2    5.607      52.975
2015   10       14     9  54    3.9000   534.5    5.592      52.956
2015   10       14    10   1    3.8959   534.8    5.577      52.938
2015   10       14    10   8    3.8916   535.1    5.562      52.922
2015   10       14    10  16    3.8874   535.5    5.547      52.907
2015   10       14    10  23    3.8831   535.8    5.532      52.892
2015   10       14    10  30    3.8788   536.2    5.516      52.876
2015   10       14    10  38    3.8743   536.5    5.501      52.859
2015   10       14    10  45    3.8698   536.9    5.485      52.840
2015   10       14    10  52    3.8650   537.3    5.469      52.818
2015   10       14    10  59    3.8600   537.6    5.452      52.795
2015   10       14    11   7    3.8549   538.0    5.434      52.769
2015   10       14    11  14    3.8496   538.4    5.417      52.740
2015   10       14    11  21    3.8441   538.8    5.398      52.712
2015   10       14    11  29    3.8386   539.2    5.379      52.679
2015   10       14    11  36    3.8328   539.5    5.360      52.640
2015   10       14    11  43    3.8270   539.8    5.341      52.596
2015   10       14    11  51    3.8211   540.2    5.321      52.549
2015   10       14    11  58    3.8153   540.4    5.302      52.498
2015   10       14    12   5    3.8096   540.7    5.284      52.444
2015   10       14    12  12    3.8040   540.9    5.267      52.393
2015   10       14    12  20    3.7986   541.2    5.250      52.346
2015   10       14    12  27    3.7933   541.4    5.235      52.303
2015   10       14    12  34    3.7881   541.6    5.220      52.262
2015   10       14    12  42    3.7830   541.8    5.206      52.224
2015   10       14    12  49    3.7780   542.0    5.192      52.188
2015   10       14    12  56    3.7731   542.2    5.179      52.158
2015   10       14    13   3    3.7683   542.4    5.167      52.129
2015   10       14    13  11    3.7635   542.5    5.155      52.104
2015   10       14    13  18    3.7587   542.7    5.143      52.082
2015   10       14    13  25    3.7540   542.9    5.132      52.064
2015   10       14    13  33    3.7493   543.1    5.121      52.048
2015   10       14    13  40    3.7446   543.3    5.109      52.036
2015   10       14    13  47    3.7398   543.6    5.098      52.029
2015   10       14    13  54    3.7350   543.8    5.086      52.024
2015   10       14    14   2    3.7302   544.1    5.075      52.018
2015   10       14    14   9    3.7253   544.3    5.063      52.011
2015   10       14    14  16    3.7203   544.6    5.051      51.998
2015   10       14    14  24    3.7153   544.8    5.039      51.977
2015   10       14    14  31    3.7102   545.0    5.027      51.952
2015   10       14    14  38    3.7050   545.3    5.015      51.923
2015   10       14    14  45    3.6997   545.5    5.002      51.890
2015   10       14    14  53    3.6943   545.7    4.989      51.856
2015   10       14    15   0    3.6887   545.9    4.976      51.821
2015   10       14    15   7    3.6831   546.2    4.963      51.784
2015   10       14    15  15    3.6775   546.4    4.950      51.745
2015   10       14    15  22    3.6717   546.7    4.936      51.706
2015   10       14    15  29    3.6659   547.0    4.922      51.667
2015   10       14    15  36    3.6601   547.2    4.908      51.627
2015   10       14    15  44    3.6541   547.5    4.895      51.582
2015   10       14    15  51    3.6482   547.7    4.881      51.535
2015   10       14    15  58    3.6423   548.0    4.867      51.485
2015   10       14    16   6    3.6364   548.1    4.853      51.430
2015   10       14    16  13    3.6307   548.3    4.840      51.371
2015   10       14    16  20    3.6250   548.4    4.827      51.315
2015   10       14    16  28    3.6195   548.6    4.815      51.261
2015   10       14    16  35    3.6141   548.7    4.803      51.210
2015   10       14    16  42    3.6088   548.9    4.792      51.160
2015   10       14    16  49    3.6037   549.0    4.781      51.113
2015   10       14    16  57    3.5985   549.2    4.771      51.070
2015   10       14    17   4    3.5934   549.3    4.760      51.030
2015   10       14    17  11    3.5883   549.5    4.751      50.992
2015   10       14    17  19    3.5833   549.7    4.741      50.960
2015   10       14    17  26    3.5782   549.9    4.732      50.932
2015   10       14    17  33    3.5731   550.1    4.722      50.906
2015   10       14    17  41    3.5680   550.3    4.713      50.882
2015   10       14    17  48    3.5629   550.5    4.704      50.859
2015   10       14    17  55    3.5578   550.7    4.695      50.834
2015   10       14    18   2    3.5526   550.9    4.686      50.808
2015   10       14    18  10    3.5474   551.0    4.676      50.780
2015   10       14    18  17    3.5421   551.2    4.667      50.752
2015   10       14    18  24    3.5368   551.4    4.657      50.723
2015   10       14    18  32    3.5314   551.5    4.647      50.693
2015   10       14    18  39    3.5261   551.7    4.638      50.662
2015   10       14    18  46    3.5209   551.8    4.628      50.631
2015   10       14    18  53    3.5157   552.0    4.618      50.599
2015   10       14    19   1    3.5106   552.1    4.608      50.565
2015   10       14    19   8    3.5055   552.3    4.599      50.531
2015   10       14    19  15    3.5006   552.4    4.589      50.497
2015   10       14    19  23    3.4956   552.5    4.580      50.462
2015   10       14    19  30    3.4908   552.6    4.571      50.428
2015   10       14    19  37    3.4860   552.7    4.562      50.395
2015   10       14    19  44    3.4812   552.9    4.554      50.363
2015   10       14    19  52    3.4765   553.0    4.545      50.331
2015   10       14    19  59    3.4718   553.1    4.537      50.300
2015   10       14    20   6    3.4671   553.2    4.529      50.270
2015   10       14    20  14    3.4625   553.3    4.521      50.242
2015   10       14    20  21    3.4578   553.4    4.513      50.213
2015   10       14    20  28    3.4531   553.5    4.506      50.184
2015   10       14    20  35    3.4484   553.6    4.498      50.155
2015   10       14    20  43    3.4437   553.8    4.490      50.125
2015   10       14    20  50    3.4390   553.9    4.481      50.092
2015   10       14    20  57    3.4343   554.0    4.473      50.059
2015   10       14    21   5    3.4295   554.1    4.464      50.023
2015   10       14    21  12    3.4248   554.3    4.456      49.985
2015   10       14    21  19    3.4200   554.4    4.447      49.946
2015   10       14    21  26    3.4152   554.5    4.438      49.906
2015   10       14    21  34    3.4103   554.6    4.429      49.864
2015   10       14    21  41    3.4055   554.7    4.421      49.822
2015   10       14    21  48    3.4006   554.9    4.412      49.778
2015   10       14    21  56    3.3957   555.0    4.403      49.734
2015   10       14    22   3    3.3908   555.1    4.394      49.688
2015   10       14    22  10    3.3859   555.2    4.385      49.643
2015   10       14    22  17    3.3810   555.3    4.376      49.596
2015   10       14    22  25    3.3761   555.4    4.368      49.550
2015   10       14    22  32    3.3713   555.5    4.359      49.502
2015   10       14    22  39    3.3664   555.6    4.351      49.455
2015   10       14    22  47    3.3617   555.7    4.342      49.407
2015   10       14    22  54    3.3569   555.8    4.334      49.359
2015   10       14    23   1    3.3522   555.9    4.326      49.311
2015   10       14    23   9    3.3476   556.0    4.319      49.264
2015   10       14    23  16    3.3430   556.1    4.311      49.216
2015   10       14    23  23    3.3384   556.2    4.304      49.169
2015   10       14    23  30    3.3340   556.3    4.297      49.123
2015   10       14    23  38    3.3295   556.4    4.290      49.078
2015   10       14    23  45    3.3252   556.5    4.284      49.034
2015   10       14    23  52    3.3209   556.5    4.278      48.990
2015   10       15     0   0    3.3167   556.6    4.272      48.950
