year    month   day   hour  minute  B_enl V_enl   n_enl       T_enl
[year] [month] [day] [hour][minute] [nT]  [km/s]  [cm-3]      [kK]
2015   10        3     0   5    3.0577   364.9    8.115      25.989
2015   10        3     0  12    3.0587   364.9    8.117      25.989
2015   10        3     0  19    3.0598   364.8    8.118      25.989
2015   10        3     0  26    3.0608   364.8    8.120      25.990
2015   10        3     0  34    3.0619   364.8    8.121      25.990
2015   10        3     0  41    3.0629   364.7    8.123      25.990
2015   10        3     0  48    3.0639   364.7    8.124      25.990
2015   10        3     0  56    3.0649   364.7    8.126      25.990
2015   10        3     1   3    3.0659   364.6    8.127      25.991
2015   10        3     1  10    3.0669   364.6    8.129      25.991
2015   10        3     1  17    3.0679   364.6    8.131      25.991
2015   10        3     1  25    3.0688   364.5    8.132      25.991
2015   10        3     1  32    3.0698   364.5    8.134      25.991
2015   10        3     1  39    3.0707   364.4    8.135      25.991
2015   10        3     1  46    3.0717   364.4    8.137      25.991
2015   10        3     1  54    3.0726   364.4    8.138      25.991
2015   10        3     2   1    3.0736   364.3    8.140      25.991
2015   10        3     2   8    3.0745   364.3    8.142      25.991
2015   10        3     2  15    3.0754   364.3    8.143      25.991
2015   10        3     2  23    3.0763   364.2    8.145      25.991
2015   10        3     2  30    3.0772   364.2    8.146      25.991
2015   10        3     2  37    3.0781   364.2    8.148      25.991
2015   10        3     2  44    3.0789   364.1    8.149      25.991
2015   10        3     2  52    3.0798   364.1    8.151      25.990
2015   10        3     2  59    3.0807   364.1    8.152      25.990
2015   10        3     3   6    3.0815   364.0    8.154      25.989
2015   10        3     3  14    3.0824   364.0    8.155      25.989
2015   10        3     3  21    3.0832   363.9    8.157      25.988
2015   10        3     3  28    3.0840   363.9    8.158      25.988
2015   10        3     3  35    3.0848   363.9    8.160      25.987
2015   10        3     3  43    3.0856   363.8    8.161      25.986
2015   10        3     3  50    3.0865   363.8    8.162      25.985
2015   10        3     3  57    3.0873   363.8    8.164      25.983
2015   10        3     4   4    3.0880   363.7    8.165      25.982
2015   10        3     4  12    3.0888   363.7    8.166      25.980
2015   10        3     4  19    3.0896   363.7    8.167      25.979
2015   10        3     4  26    3.0904   363.6    8.168      25.977
2015   10        3     4  34    3.0911   363.6    8.169      25.975
2015   10        3     4  41    3.0919   363.5    8.170      25.973
2015   10        3     4  48    3.0926   363.5    8.171      25.971
2015   10        3     4  55    3.0934   363.5    8.172      25.968
2015   10        3     5   3    3.0941   363.4    8.173      25.966
2015   10        3     5  10    3.0948   363.4    8.174      25.963
2015   10        3     5  17    3.0956   363.3    8.174      25.960
2015   10        3     5  25    3.0963   363.3    8.175      25.957
2015   10        3     5  32    3.0970   363.3    8.176      25.954
2015   10        3     5  39    3.0977   363.2    8.177      25.951
2015   10        3     5  46    3.0984   363.2    8.177      25.948
2015   10        3     5  54    3.0991   363.2    8.178      25.944
2015   10        3     6   1    3.0999   363.1    8.179      25.941
2015   10        3     6   8    3.1006   363.1    8.179      25.937
2015   10        3     6  15    3.1013   363.0    8.180      25.933
2015   10        3     6  23    3.1020   363.0    8.180      25.929
2015   10        3     6  30    3.1027   363.0    8.181      25.925
2015   10        3     6  37    3.1033   362.9    8.182      25.921
2015   10        3     6  44    3.1040   362.9    8.182      25.917
2015   10        3     6  52    3.1047   362.8    8.183      25.912
2015   10        3     6  59    3.1054   362.8    8.183      25.908
2015   10        3     7   6    3.1061   362.8    8.184      25.904
2015   10        3     7  14    3.1068   362.7    8.185      25.899
2015   10        3     7  21    3.1075   362.7    8.185      25.895
2015   10        3     7  28    3.1081   362.7    8.186      25.890
2015   10        3     7  35    3.1088   362.6    8.187      25.886
2015   10        3     7  43    3.1095   362.6    8.187      25.881
2015   10        3     7  50    3.1101   362.5    8.188      25.877
2015   10        3     7  57    3.1108   362.5    8.189      25.872
2015   10        3     8   4    3.1115   362.5    8.189      25.868
2015   10        3     8  12    3.1121   362.4    8.190      25.864
2015   10        3     8  19    3.1128   362.4    8.191      25.859
2015   10        3     8  26    3.1134   362.3    8.192      25.855
2015   10        3     8  33    3.1141   362.3    8.193      25.850
2015   10        3     8  41    3.1147   362.3    8.194      25.846
2015   10        3     8  48    3.1154   362.2    8.194      25.842
2015   10        3     8  55    3.1160   362.2    8.195      25.837
2015   10        3     9   2    3.1166   362.1    8.196      25.833
2015   10        3     9  10    3.1173   362.1    8.197      25.829
2015   10        3     9  17    3.1179   362.1    8.198      25.825
2015   10        3     9  24    3.1185   362.0    8.199      25.820
2015   10        3     9  31    3.1191   362.0    8.200      25.816
2015   10        3     9  39    3.1197   362.0    8.201      25.812
2015   10        3     9  46    3.1204   361.9    8.202      25.808
2015   10        3     9  53    3.1210   361.9    8.203      25.803
2015   10        3    10   1    3.1216   361.8    8.204      25.799
2015   10        3    10   8    3.1222   361.8    8.205      25.795
2015   10        3    10  15    3.1228   361.8    8.206      25.791
2015   10        3    10  22    3.1234   361.7    8.207      25.786
2015   10        3    10  30    3.1240   361.7    8.208      25.782
2015   10        3    10  37    3.1246   361.6    8.208      25.778
2015   10        3    10  44    3.1251   361.6    8.209      25.773
2015   10        3    10  52    3.1257   361.6    8.210      25.769
2015   10        3    10  59    3.1263   361.5    8.211      25.764
2015   10        3    11   6    3.1269   361.5    8.212      25.760
2015   10        3    11  13    3.1275   361.4    8.212      25.755
2015   10        3    11  21    3.1280   361.4    8.213      25.750
2015   10        3    11  28    3.1286   361.3    8.214      25.745
2015   10        3    11  35    3.1292   361.3    8.214      25.740
2015   10        3    11  42    3.1298   361.3    8.215      25.735
2015   10        3    11  50    3.1303   361.2    8.215      25.730
2015   10        3    11  57    3.1309   361.2    8.216      25.725
2015   10        3    12   4    3.1315   361.1    8.216      25.719
2015   10        3    12  12    3.1321   361.1    8.216      25.714
2015   10        3    12  19    3.1327   361.0    8.217      25.708
2015   10        3    12  26    3.1332   361.0    8.217      25.702
2015   10        3    12  33    3.1338   361.0    8.217      25.696
2015   10        3    12  41    3.1344   360.9    8.217      25.690
2015   10        3    12  48    3.1350   360.9    8.217      25.683
2015   10        3    12  55    3.1356   360.8    8.217      25.677
2015   10        3    13   2    3.1362   360.8    8.217      25.670
2015   10        3    13  10    3.1368   360.7    8.217      25.663
2015   10        3    13  17    3.1374   360.7    8.217      25.657
2015   10        3    13  24    3.1380   360.6    8.217      25.649
2015   10        3    13  32    3.1386   360.6    8.217      25.642
2015   10        3    13  39    3.1392   360.5    8.217      25.635
2015   10        3    13  46    3.1398   360.5    8.217      25.627
2015   10        3    13  53    3.1404   360.4    8.217      25.619
2015   10        3    14   1    3.1410   360.4    8.217      25.611
2015   10        3    14   8    3.1416   360.3    8.217      25.604
2015   10        3    14  15    3.1423   360.3    8.216      25.595
2015   10        3    14  22    3.1429   360.2    8.216      25.587
2015   10        3    14  30    3.1435   360.2    8.216      25.579
2015   10        3    14  37    3.1442   360.1    8.216      25.570
2015   10        3    14  44    3.1448   360.1    8.216      25.562
2015   10        3    14  52    3.1454   360.0    8.216      25.553
2015   10        3    14  59    3.1461   360.0    8.216      25.544
2015   10        3    15   6    3.1467   359.9    8.215      25.535
2015   10        3    15  13    3.1473   359.9    8.215      25.526
2015   10        3    15  21    3.1480   359.8    8.215      25.517
2015   10        3    15  28    3.1486   359.8    8.215      25.508
2015   10        3    15  35    3.1493   359.7    8.215      25.499
2015   10        3    15  42    3.1500   359.7    8.216      25.490
2015   10        3    15  50    3.1506   359.6    8.216      25.480
2015   10        3    15  57    3.1513   359.6    8.216      25.471
2015   10        3    16   4    3.1520   359.5    8.216      25.462
2015   10        3    16  11    3.1527   359.5    8.216      25.453
2015   10        3    16  19    3.1534   359.4    8.217      25.444
2015   10        3    16  26    3.1541   359.4    8.217      25.434
2015   10        3    16  33    3.1548   359.3    8.218      25.425
2015   10        3    16  40    3.1555   359.3    8.218      25.416
2015   10        3    16  48    3.1562   359.2    8.219      25.407
2015   10        3    16  55    3.1570   359.2    8.219      25.398
2015   10        3    17   2    3.1577   359.1    8.220      25.389
2015   10        3    17   9    3.1585   359.1    8.221      25.380
2015   10        3    17  17    3.1593   359.0    8.222      25.370
2015   10        3    17  24    3.1601   358.9    8.223      25.362
2015   10        3    17  31    3.1609   358.9    8.224      25.353
2015   10        3    17  39    3.1617   358.8    8.225      25.344
2015   10        3    17  46    3.1626   358.8    8.227      25.335
2015   10        3    17  53    3.1635   358.7    8.228      25.327
2015   10        3    18   0    3.1644   358.7    8.229      25.318
2015   10        3    18   8    3.1653   358.6    8.231      25.310
2015   10        3    18  15    3.1662   358.6    8.233      25.302
2015   10        3    18  22    3.1672   358.5    8.234      25.294
2015   10        3    18  30    3.1682   358.4    8.236      25.286
2015   10        3    18  37    3.1692   358.4    8.238      25.278
2015   10        3    18  44    3.1702   358.3    8.240      25.270
2015   10        3    18  51    3.1713   358.3    8.242      25.263
2015   10        3    18  59    3.1724   358.2    8.244      25.255
2015   10        3    19   6    3.1735   358.2    8.247      25.248
2015   10        3    19  13    3.1746   358.1    8.249      25.241
2015   10        3    19  20    3.1757   358.1    8.252      25.234
2015   10        3    19  28    3.1769   358.0    8.254      25.227
2015   10        3    19  35    3.1781   357.9    8.257      25.220
2015   10        3    19  42    3.1794   357.9    8.259      25.213
2015   10        3    19  50    3.1806   357.8    8.262      25.207
2015   10        3    19  57    3.1819   357.8    8.265      25.201
2015   10        3    20   4    3.1832   357.7    8.268      25.194
2015   10        3    20  11    3.1845   357.6    8.271      25.188
2015   10        3    20  19    3.1858   357.6    8.274      25.182
2015   10        3    20  26    3.1872   357.5    8.277      25.176
2015   10        3    20  33    3.1886   357.5    8.281      25.171
2015   10        3    20  41    3.1900   357.4    8.284      25.165
2015   10        3    20  48    3.1914   357.3    8.287      25.159
2015   10        3    20  55    3.1928   357.3    8.291      25.154
2015   10        3    21   2    3.1943   357.2    8.294      25.148
2015   10        3    21  10    3.1957   357.1    8.298      25.143
2015   10        3    21  17    3.1972   357.1    8.302      25.138
2015   10        3    21  24    3.1987   357.0    8.305      25.132
2015   10        3    21  31    3.2002   357.0    8.309      25.127
2015   10        3    21  39    3.2018   356.9    8.313      25.122
2015   10        3    21  46    3.2033   356.8    8.317      25.117
2015   10        3    21  53    3.2049   356.8    8.321      25.112
2015   10        3    22   0    3.2065   356.7    8.325      25.107
2015   10        3    22   8    3.2081   356.6    8.329      25.102
2015   10        3    22  15    3.2098   356.6    8.333      25.098
2015   10        3    22  22    3.2115   356.5    8.337      25.093
2015   10        3    22  29    3.2132   356.4    8.342      25.088
2015   10        3    22  37    3.2149   356.4    8.346      25.083
2015   10        3    22  44    3.2166   356.3    8.351      25.078
2015   10        3    22  51    3.2184   356.2    8.355      25.074
2015   10        3    22  59    3.2203   356.1    8.360      25.069
2015   10        3    23   6    3.2222   356.1    8.365      25.065
2015   10        3    23  13    3.2241   356.0    8.370      25.061
2015   10        3    23  20    3.2260   355.9    8.375      25.056
2015   10        3    23  28    3.2280   355.9    8.380      25.052
2015   10        3    23  35    3.2301   355.8    8.385      25.048
2015   10        3    23  42    3.2322   355.7    8.391      25.044
2015   10        3    23  49    3.2344   355.6    8.396      25.040
2015   10        3    23  57    3.2366   355.6    8.402      25.037
2015   10        4     0   4    3.2390   355.5    8.408      25.034
2015   10        4     0  11    3.2414   355.4    8.415      25.030
2015   10        4     0  18    3.2439   355.3    8.421      25.027
2015   10        4     0  26    3.2464   355.3    8.428      25.025
2015   10        4     0  33    3.2491   355.2    8.435      25.023
2015   10        4     0  40    3.2518   355.1    8.442      25.020
2015   10        4     0  47    3.2546   355.0    8.449      25.019
2015   10        4     0  55    3.2575   355.0    8.457      25.017
2015   10        4     1   2    3.2606   354.9    8.465      25.016
2015   10        4     1   9    3.2637   354.8    8.473      25.015
2015   10        4     1  17    3.2669   354.7    8.481      25.015
2015   10        4     1  24    3.2702   354.7    8.490      25.015
2015   10        4     1  31    3.2736   354.6    8.499      25.015
2015   10        4     1  38    3.2770   354.5    8.508      25.016
2015   10        4     1  46    3.2806   354.5    8.517      25.017
2015   10        4     1  53    3.2841   354.4    8.527      25.019
2015   10        4     2   0    3.2878   354.3    8.537      25.021
2015   10        4     2   8    3.2915   354.2    8.547      25.024
2015   10        4     2  15    3.2952   354.2    8.558      25.026
2015   10        4     2  22    3.2989   354.1    8.569      25.030
2015   10        4     2  29    3.3027   354.0    8.580      25.034
2015   10        4     2  37    3.3064   353.9    8.591      25.038
2015   10        4     2  44    3.3103   353.9    8.602      25.042
2015   10        4     2  51    3.3141   353.8    8.614      25.047
2015   10        4     2  59    3.3179   353.7    8.626      25.052
2015   10        4     3   6    3.3218   353.6    8.638      25.058
2015   10        4     3  13    3.3257   353.6    8.650      25.064
2015   10        4     3  20    3.3296   353.5    8.662      25.070
2015   10        4     3  28    3.3336   353.4    8.675      25.077
2015   10        4     3  35    3.3375   353.3    8.687      25.084
2015   10        4     3  42    3.3415   353.3    8.700      25.091
2015   10        4     3  49    3.3455   353.2    8.713      25.098
2015   10        4     3  57    3.3496   353.1    8.727      25.105
2015   10        4     4   4    3.3536   353.0    8.740      25.113
2015   10        4     4  11    3.3578   353.0    8.753      25.121
2015   10        4     4  18    3.3619   352.9    8.767      25.129
2015   10        4     4  26    3.3661   352.8    8.781      25.137
2015   10        4     4  33    3.3702   352.8    8.795      25.146
2015   10        4     4  40    3.3745   352.7    8.809      25.154
2015   10        4     4  48    3.3788   352.6    8.823      25.163
2015   10        4     4  55    3.3831   352.5    8.837      25.171
2015   10        4     5   2    3.3875   352.4    8.851      25.180
2015   10        4     5   9    3.3919   352.4    8.866      25.189
2015   10        4     5  17    3.3963   352.3    8.881      25.198
2015   10        4     5  24    3.4009   352.2    8.896      25.207
2015   10        4     5  31    3.4055   352.1    8.911      25.216
2015   10        4     5  38    3.4102   352.1    8.926      25.225
2015   10        4     5  46    3.4149   352.0    8.942      25.234
2015   10        4     5  53    3.4198   351.9    8.958      25.244
2015   10        4     6   0    3.4247   351.8    8.975      25.253
2015   10        4     6   7    3.4298   351.7    8.992      25.263
2015   10        4     6  15    3.4350   351.6    9.009      25.273
2015   10        4     6  22    3.4404   351.5    9.028      25.284
2015   10        4     6  29    3.4459   351.5    9.046      25.296
2015   10        4     6  36    3.4516   351.4    9.066      25.308
2015   10        4     6  44    3.4575   351.3    9.086      25.321
2015   10        4     6  51    3.4636   351.2    9.107      25.334
2015   10        4     6  58    3.4699   351.1    9.129      25.349
2015   10        4     7   5    3.4765   351.0    9.152      25.365
2015   10        4     7  13    3.4833   350.9    9.177      25.382
2015   10        4     7  20    3.4906   350.9    9.202      25.401
2015   10        4     7  27    3.4980   350.8    9.229      25.421
2015   10        4     7  35    3.5058   350.7    9.258      25.443
2015   10        4     7  42    3.5139   350.6    9.287      25.466
2015   10        4     7  49    3.5224   350.6    9.319      25.491
2015   10        4     7  56    3.5311   350.5    9.351      25.519
2015   10        4     8   4    3.5402   350.4    9.385      25.549
2015   10        4     8  11    3.5495   350.4    9.420      25.584
2015   10        4     8  18    3.5593   350.3    9.457      25.620
2015   10        4     8  26    3.5692   350.3    9.495      25.659
2015   10        4     8  33    3.5795   350.2    9.534      25.701
2015   10        4     8  40    3.5899   350.2    9.574      25.747
2015   10        4     8  47    3.6005   350.2    9.614      25.796
2015   10        4     8  55    3.6111   350.2    9.654      25.849
2015   10        4     9   2    3.6218   350.2    9.695      25.907
2015   10        4     9   9    3.6322   350.2    9.735      25.970
2015   10        4     9  17    3.6428   350.2    9.774      26.038
2015   10        4     9  24    3.6531   350.2    9.813      26.109
2015   10        4     9  31    3.6635   350.2    9.851      26.183
2015   10        4     9  38    3.6735   350.2    9.888      26.259
2015   10        4     9  46    3.6837   350.2    9.924      26.337
2015   10        4     9  53    3.6935   350.2    9.959      26.413
2015   10        4    10   0    3.7033   350.2    9.994      26.489
2015   10        4    10   7    3.7129   350.3   10.027      26.563
2015   10        4    10  15    3.7225   350.3   10.060      26.637
2015   10        4    10  22    3.7318   350.3   10.092      26.710
2015   10        4    10  29    3.7412   350.3   10.123      26.781
2015   10        4    10  37    3.7504   350.3   10.154      26.852
2015   10        4    10  44    3.7596   350.3   10.184      26.921
2015   10        4    10  51    3.7686   350.4   10.214      26.989
2015   10        4    10  58    3.7777   350.4   10.243      27.057
2015   10        4    11   6    3.7866   350.4   10.272      27.123
2015   10        4    11  13    3.7957   350.4   10.301      27.190
2015   10        4    11  20    3.8045   350.5   10.329      27.255
2015   10        4    11  27    3.8135   350.5   10.357      27.320
2015   10        4    11  35    3.8224   350.5   10.385      27.384
2015   10        4    11  42    3.8313   350.6   10.413      27.447
2015   10        4    11  49    3.8401   350.6   10.441      27.510
2015   10        4    11  57    3.8491   350.6   10.469      27.573
2015   10        4    12   4    3.8579   350.7   10.496      27.635
2015   10        4    12  11    3.8669   350.7   10.524      27.696
2015   10        4    12  18    3.8758   350.7   10.551      27.757
2015   10        4    12  26    3.8848   350.8   10.579      27.818
2015   10        4    12  33    3.8938   350.8   10.606      27.879
2015   10        4    12  40    3.9029   350.8   10.635      27.939
2015   10        4    12  47    3.9119   350.9   10.663      27.999
2015   10        4    12  55    3.9212   350.9   10.691      28.059
2015   10        4    13   2    3.9304   350.9   10.720      28.119
2015   10        4    13   9    3.9398   351.0   10.749      28.179
2015   10        4    13  16    3.9492   351.0   10.779      28.239
2015   10        4    13  24    3.9588   351.1   10.809      28.300
2015   10        4    13  31    3.9684   351.1   10.840      28.361
2015   10        4    13  38    3.9783   351.2   10.873      28.424
2015   10        4    13  45    3.9883   351.2   10.906      28.487
2015   10        4    13  53    3.9985   351.3   10.940      28.552
2015   10        4    14   0    4.0089   351.3   10.976      28.618
2015   10        4    14   7    4.0197   351.4   11.013      28.687
2015   10        4    14  14    4.0305   351.4   11.052      28.757
2015   10        4    14  22    4.0418   351.5   11.094      28.830
2015   10        4    14  29    4.0533   351.6   11.137      28.904
2015   10        4    14  36    4.0653   351.7   11.183      28.983
2015   10        4    14  43    4.0775   351.7   11.231      29.064
2015   10        4    14  51    4.0903   351.8   11.282      29.148
2015   10        4    14  58    4.1033   351.9   11.336      29.235
2015   10        4    15   5    4.1169   352.0   11.394      29.326
2015   10        4    15  12    4.1308   352.1   11.454      29.422
2015   10        4    15  20    4.1453   352.3   11.517      29.526
2015   10        4    15  27    4.1601   352.4   11.583      29.637
2015   10        4    15  34    4.1755   352.5   11.652      29.755
2015   10        4    15  41    4.1912   352.7   11.725      29.877
2015   10        4    15  48    4.2074   352.8   11.800      30.006
2015   10        4    15  56    4.2239   353.0   11.876      30.142
2015   10        4    16   3    4.2407   353.2   11.953      30.288
2015   10        4    16  10    4.2576   353.4   12.031      30.444
2015   10        4    16  17    4.2746   353.6   12.108      30.610
2015   10        4    16  25    4.2914   353.9   12.183      30.787
2015   10        4    16  32    4.3082   354.1   12.256      30.974
2015   10        4    16  39    4.3245   354.4   12.326      31.167
2015   10        4    16  46    4.3407   354.6   12.392      31.367
2015   10        4    16  54    4.3564   354.9   12.456      31.563
2015   10        4    17   1    4.3718   355.1   12.516      31.759
2015   10        4    17   8    4.3866   355.3   12.572      31.948
2015   10        4    17  15    4.4012   355.6   12.625      32.133
2015   10        4    17  22    4.4153   355.8   12.674      32.313
2015   10        4    17  30    4.4290   356.0   12.721      32.489
2015   10        4    17  37    4.4422   356.2   12.764      32.657
2015   10        4    17  44    4.4552   356.5   12.804      32.821
2015   10        4    17  51    4.4677   356.7   12.842      32.979
2015   10        4    17  59    4.4801   356.9   12.877      33.133
2015   10        4    18   6    4.4919   357.1   12.910      33.280
2015   10        4    18  13    4.5036   357.3   12.941      33.424
2015   10        4    18  20    4.5149   357.5   12.969      33.562
2015   10        4    18  28    4.5260   357.8   12.996      33.697
2015   10        4    18  35    4.5368   358.0   13.021      33.827
2015   10        4    18  42    4.5474   358.2   13.044      33.954
2015   10        4    18  49    4.5577   358.4   13.066      34.076
2015   10        4    18  57    4.5679   358.6   13.086      34.196
2015   10        4    19   4    4.5778   358.8   13.105      34.312
2015   10        4    19  11    4.5876   359.0   13.122      34.425
2015   10        4    19  19    4.5972   359.3   13.139      34.535
2015   10        4    19  26    4.6066   359.5   13.154      34.643
2015   10        4    19  33    4.6159   359.7   13.169      34.748
2015   10        4    19  40    4.6250   359.9   13.183      34.851
2015   10        4    19  48    4.6340   360.1   13.196      34.952
2015   10        4    19  55    4.6429   360.4   13.209      35.051
2015   10        4    20   2    4.6517   360.6   13.220      35.148
2015   10        4    20  10    4.6605   360.8   13.232      35.243
2015   10        4    20  17    4.6691   361.1   13.243      35.337
2015   10        4    20  24    4.6777   361.3   13.254      35.430
2015   10        4    20  32    4.6863   361.5   13.265      35.521
2015   10        4    20  39    4.6948   361.8   13.277      35.613
2015   10        4    20  46    4.7033   362.0   13.288      35.703
2015   10        4    20  54    4.7118   362.2   13.299      35.794
2015   10        4    21   1    4.7203   362.5   13.311      35.883
2015   10        4    21   8    4.7289   362.7   13.324      35.974
2015   10        4    21  15    4.7374   363.0   13.337      36.064
2015   10        4    21  23    4.7461   363.2   13.351      36.156
2015   10        4    21  30    4.7549   363.5   13.367      36.247
2015   10        4    21  37    4.7637   363.7   13.383      36.340
2015   10        4    21  45    4.7727   364.0   13.402      36.434
2015   10        4    21  52    4.7818   364.2   13.421      36.530
2015   10        4    21  59    4.7911   364.5   13.443      36.627
2015   10        4    22   7    4.8006   364.7   13.467      36.727
2015   10        4    22  14    4.8102   365.0   13.494      36.827
2015   10        4    22  21    4.8202   365.2   13.523      36.930
2015   10        4    22  29    4.8304   365.5   13.555      37.036
2015   10        4    22  36    4.8410   365.8   13.591      37.149
2015   10        4    22  43    4.8520   366.1   13.629      37.267
2015   10        4    22  51    4.8633   366.3   13.672      37.389
2015   10        4    22  58    4.8750   366.6   13.718      37.515
2015   10        4    23   5    4.8872   366.9   13.768      37.649
2015   10        4    23  13    4.9000   367.3   13.820      37.791
2015   10        4    23  20    4.9131   367.6   13.876      37.946
2015   10        4    23  27    4.9266   368.0   13.933      38.112
2015   10        4    23  35    4.9405   368.3   13.993      38.287
2015   10        4    23  42    4.9546   368.7   14.053      38.472
2015   10        4    23  49    4.9691   369.1   14.113      38.671
2015   10        4    23  56    4.9835   369.5   14.172      38.883
2015   10        5     0   4    4.9978   370.0   14.229      39.105
2015   10        5     0  11    5.0118   370.4   14.283      39.328
2015   10        5     0  18    5.0255   370.9   14.332      39.558
2015   10        5     0  26    5.0387   371.4   14.377      39.788
2015   10        5     0  33    5.0513   371.9   14.417      40.019
2015   10        5     0  40    5.0631   372.3   14.451      40.242
2015   10        5     0  47    5.0743   372.8   14.481      40.459
2015   10        5     0  55    5.0847   373.3   14.505      40.668
2015   10        5     1   2    5.0944   373.7   14.525      40.872
2015   10        5     1   9    5.1034   374.2   14.540      41.068
2015   10        5     1  16    5.1118   374.6   14.551      41.259
2015   10        5     1  24    5.1196   375.0   14.558      41.442
2015   10        5     1  31    5.1269   375.5   14.561      41.621
2015   10        5     1  38    5.1338   375.9   14.562      41.793
2015   10        5     1  45    5.1402   376.3   14.559      41.961
2015   10        5     1  53    5.1463   376.7   14.555      42.124
2015   10        5     2   0    5.1520   377.1   14.548      42.284
2015   10        5     2   7    5.1575   377.5   14.539      42.440
2015   10        5     2  14    5.1627   377.8   14.529      42.593
2015   10        5     2  22    5.1677   378.2   14.517      42.742
2015   10        5     2  29    5.1725   378.6   14.504      42.889
2015   10        5     2  36    5.1770   379.0   14.489      43.033
2015   10        5     2  44    5.1815   379.4   14.473      43.176
2015   10        5     2  51    5.1857   379.8   14.456      43.316
2015   10        5     2  58    5.1898   380.1   14.438      43.454
2015   10        5     3   5    5.1937   380.5   14.419      43.589
2015   10        5     3  13    5.1975   380.9   14.398      43.722
2015   10        5     3  20    5.2011   381.3   14.377      43.852
2015   10        5     3  27    5.2046   381.7   14.356      43.980
2015   10        5     3  35    5.2080   382.1   14.333      44.105
2015   10        5     3  42    5.2113   382.6   14.310      44.228
2015   10        5     3  49    5.2144   383.0   14.287      44.347
2015   10        5     3  57    5.2175   383.4   14.262      44.464
2015   10        5     4   4    5.2204   383.8   14.238      44.577
2015   10        5     4  11    5.2233   384.2   14.213      44.688
2015   10        5     4  18    5.2261   384.6   14.187      44.796
2015   10        5     4  26    5.2288   385.0   14.162      44.901
2015   10        5     4  33    5.2315   385.5   14.136      45.002
2015   10        5     4  40    5.2342   385.9   14.110      45.102
2015   10        5     4  48    5.2367   386.3   14.083      45.198
2015   10        5     4  55    5.2392   386.8   14.057      45.293
2015   10        5     5   2    5.2416   387.2   14.030      45.385
2015   10        5     5  10    5.2439   387.7   14.003      45.476
2015   10        5     5  17    5.2460   388.1   13.977      45.564
2015   10        5     5  24    5.2480   388.6   13.949      45.651
2015   10        5     5  32    5.2497   389.1   13.921      45.737
2015   10        5     5  39    5.2510   389.6   13.893      45.822
2015   10        5     5  46    5.2521   390.1   13.865      45.904
2015   10        5     5  54    5.2528   390.6   13.836      45.986
2015   10        5     6   1    5.2533   391.1   13.808      46.067
2015   10        5     6   8    5.2534   391.6   13.780      46.145
2015   10        5     6  16    5.2534   392.1   13.752      46.224
2015   10        5     6  23    5.2527   392.6   13.724      46.306
2015   10        5     6  30    5.2519   393.2   13.696      46.384
2015   10        5     6  38    5.2505   393.7   13.668      46.459
2015   10        5     6  45    5.2492   394.2   13.642      46.530
2015   10        5     6  52    5.2476   394.6   13.617      46.596
2015   10        5     6  59    5.2464   395.1   13.595      46.660
2015   10        5     7   7    5.2453   395.6   13.576      46.724
2015   10        5     7  14    5.2449   396.0   13.560      46.789
2015   10        5     7  21    5.2447   396.4   13.546      46.867
2015   10        5     7  28    5.2450   396.9   13.535      46.953
2015   10        5     7  36    5.2454   397.3   13.523      47.051
2015   10        5     7  43    5.2460   397.8   13.511      47.159
2015   10        5     7  50    5.2463   398.3   13.498      47.271
2015   10        5     7  58    5.2468   398.7   13.485      47.385
2015   10        5     8   5    5.2470   399.2   13.472      47.501
2015   10        5     8  12    5.2473   399.7   13.457      47.616
2015   10        5     8  19    5.2472   400.1   13.441      47.735
2015   10        5     8  27    5.2472   400.6   13.425      47.855
2015   10        5     8  34    5.2469   401.0   13.407      47.980
2015   10        5     8  41    5.2465   401.4   13.388      48.106
2015   10        5     8  48    5.2459   401.9   13.368      48.236
2015   10        5     8  56    5.2454   402.3   13.347      48.366
2015   10        5     9   3    5.2447   402.8   13.325      48.506
2015   10        5     9  10    5.2440   403.2   13.304      48.652
2015   10        5     9  17    5.2433   403.7   13.281      48.804
2015   10        5     9  25    5.2426   404.2   13.258      48.958
2015   10        5     9  32    5.2420   404.7   13.235      49.115
2015   10        5     9  39    5.2416   405.1   13.211      49.272
2015   10        5     9  46    5.2412   405.6   13.187      49.431
2015   10        5     9  54    5.2409   406.0   13.163      49.585
2015   10        5    10   1    5.2404   406.5   13.137      49.733
2015   10        5    10   8    5.2400   406.9   13.111      49.876
2015   10        5    10  16    5.2395   407.4   13.084      50.014
2015   10        5    10  23    5.2388   407.8   13.056      50.148
2015   10        5    10  30    5.2379   408.3   13.027      50.279
2015   10        5    10  37    5.2370   408.7   12.998      50.406
2015   10        5    10  45    5.2358   409.2   12.967      50.528
2015   10        5    10  52    5.2345   409.6   12.935      50.646
2015   10        5    10  59    5.2330   410.1   12.902      50.762
2015   10        5    11   7    5.2313   410.6   12.868      50.873
2015   10        5    11  14    5.2294   411.2   12.832      50.982
2015   10        5    11  21    5.2272   411.7   12.795      51.086
2015   10        5    11  29    5.2246   412.3   12.755      51.187
2015   10        5    11  36    5.2217   412.8   12.713      51.286
2015   10        5    11  43    5.2184   413.4   12.668      51.381
2015   10        5    11  50    5.2147   414.1   12.620      51.471
2015   10        5    11  58    5.2103   414.7   12.567      51.559
2015   10        5    12   5    5.2053   415.4   12.510      51.637
2015   10        5    12  12    5.1993   416.0   12.448      51.706
2015   10        5    12  20    5.1925   416.7   12.381      51.758
2015   10        5    12  27    5.1844   417.3   12.309      51.796
2015   10        5    12  34    5.1754   418.0   12.232      51.818
2015   10        5    12  42    5.1651   418.7   12.148      51.830
2015   10        5    12  49    5.1535   419.3   12.058      51.825
2015   10        5    12  56    5.1402   420.0   11.962      51.792
2015   10        5    13   4    5.1258   420.7   11.863      51.737
2015   10        5    13  11    5.1100   421.3   11.760      51.661
2015   10        5    13  18    5.0937   421.9   11.656      51.571
2015   10        5    13  26    5.0764   422.5   11.551      51.463
2015   10        5    13  33    5.0587   423.0   11.449      51.338
2015   10        5    13  40    5.0407   423.6   11.346      51.219
2015   10        5    13  47    5.0227   424.2   11.246      51.100
2015   10        5    13  55    5.0045   424.8   11.147      50.976
2015   10        5    14   2    4.9865   425.3   11.050      50.851
2015   10        5    14   9    4.9684   425.8   10.956      50.720
2015   10        5    14  17    4.9508   426.3   10.866      50.589
2015   10        5    14  24    4.9335   426.7   10.779      50.451
2015   10        5    14  31    4.9171   427.1   10.699      50.313
2015   10        5    14  39    4.9012   427.5   10.622      50.184
2015   10        5    14  46    4.8863   427.9   10.550      50.065
2015   10        5    14  53    4.8717   428.2   10.482      49.952
2015   10        5    15   0    4.8579   428.5   10.419      49.847
2015   10        5    15   8    4.8445   428.9   10.359      49.748
2015   10        5    15  15    4.8319   429.1   10.303      49.657
2015   10        5    15  22    4.8196   429.4   10.251      49.574
2015   10        5    15  29    4.8080   429.7   10.202      49.497
2015   10        5    15  37    4.7967   429.9   10.155      49.428
2015   10        5    15  44    4.7860   430.1   10.112      49.368
2015   10        5    15  51    4.7755   430.4   10.071      49.318
2015   10        5    15  58    4.7655   430.6   10.032      49.277
2015   10        5    16   6    4.7556   430.8    9.994      49.244
2015   10        5    16  13    4.7461   431.1    9.958      49.219
2015   10        5    16  20    4.7367   431.3    9.924      49.210
2015   10        5    16  27    4.7276   431.6    9.890      49.213
2015   10        5    16  35    4.7185   431.9    9.857      49.227
2015   10        5    16  42    4.7097   432.2    9.825      49.247
2015   10        5    16  49    4.7010   432.5    9.794      49.273
2015   10        5    16  56    4.6926   432.8    9.763      49.304
2015   10        5    17   4    4.6842   433.1    9.733      49.337
2015   10        5    17  11    4.6760   433.3    9.703      49.364
2015   10        5    17  18    4.6677   433.6    9.673      49.385
2015   10        5    17  26    4.6595   433.8    9.643      49.400
2015   10        5    17  33    4.6512   434.1    9.613      49.410
2015   10        5    17  40    4.6428   434.3    9.583      49.416
2015   10        5    17  47    4.6341   434.6    9.553      49.420
2015   10        5    17  55    4.6254   434.8    9.522      49.419
2015   10        5    18   2    4.6165   435.1    9.491      49.415
2015   10        5    18   9    4.6076   435.4    9.460      49.408
2015   10        5    18  17    4.5983   435.7    9.428      49.398
2015   10        5    18  24    4.5889   436.0    9.396      49.387
2015   10        5    18  31    4.5792   436.3    9.362      49.374
2015   10        5    18  38    4.5694   436.7    9.327      49.358
2015   10        5    18  46    4.5590   437.1    9.291      49.340
2015   10        5    18  53    4.5485   437.5    9.253      49.322
2015   10        5    19   0    4.5374   437.9    9.213      49.302
2015   10        5    19   8    4.5260   438.4    9.170      49.278
2015   10        5    19  15    4.5140   438.9    9.123      49.253
2015   10        5    19  22    4.5014   439.4    9.072      49.216
2015   10        5    19  30    4.4878   439.9    9.017      49.165
2015   10        5    19  37    4.4735   440.5    8.958      49.095
2015   10        5    19  44    4.4581   441.0    8.895      49.003
2015   10        5    19  52    4.4421   441.5    8.829      48.891
2015   10        5    19  59    4.4250   442.0    8.756      48.764
2015   10        5    20   6    4.4070   442.5    8.679      48.610
2015   10        5    20  13    4.3879   443.0    8.598      48.416
2015   10        5    20  21    4.3681   443.5    8.515      48.191
2015   10        5    20  28    4.3478   443.9    8.430      47.939
2015   10        5    20  35    4.3274   444.2    8.346      47.669
2015   10        5    20  43    4.3067   444.5    8.263      47.374
2015   10        5    20  50    4.2863   444.8    8.184      47.057
2015   10        5    20  57    4.2665   445.0    8.109      46.749
2015   10        5    21   5    4.2474   445.2    8.038      46.455
2015   10        5    21  12    4.2289   445.4    7.969      46.171
2015   10        5    21  19    4.2111   445.7    7.904      45.898
2015   10        5    21  26    4.1937   445.8    7.842      45.632
2015   10        5    21  34    4.1770   446.0    7.784      45.376
2015   10        5    21  41    4.1608   446.2    7.728      45.130
2015   10        5    21  48    4.1453   446.3    7.676      44.898
2015   10        5    21  56    4.1302   446.5    7.627      44.674
2015   10        5    22   3    4.1157   446.6    7.580      44.461
2015   10        5    22  10    4.1016   446.7    7.536      44.255
2015   10        5    22  17    4.0879   446.8    7.494      44.056
2015   10        5    22  25    4.0746   446.9    7.454      43.863
2015   10        5    22  32    4.0617   447.0    7.416      43.676
2015   10        5    22  39    4.0491   447.0    7.381      43.493
2015   10        5    22  46    4.0368   447.1    7.347      43.316
2015   10        5    22  54    4.0247   447.1    7.315      43.141
2015   10        5    23   1    4.0130   447.2    7.284      42.972
2015   10        5    23   8    4.0014   447.2    7.255      42.806
2015   10        5    23  15    3.9902   447.2    7.228      42.645
2015   10        5    23  23    3.9790   447.2    7.202      42.484
2015   10        5    23  30    3.9681   447.2    7.178      42.329
2015   10        5    23  37    3.9573   447.3    7.154      42.176
2015   10        5    23  44    3.9467   447.3    7.132      42.030
2015   10        5    23  52    3.9361   447.3    7.110      41.886
2015   10        5    23  59    3.9257   447.3    7.088      41.746
2015   10        6     0   6    3.9153   447.3    7.067      41.610
2015   10        6     0  13    3.9050   447.3    7.047      41.479
2015   10        6     0  21    3.8948   447.3    7.026      41.349
2015   10        6     0  28    3.8846   447.2    7.006      41.222
2015   10        6     0  35    3.8744   447.2    6.986      41.094
2015   10        6     0  43    3.8643   447.2    6.967      40.968
2015   10        6     0  50    3.8542   447.2    6.947      40.842
2015   10        6     0  57    3.8442   447.1    6.929      40.717
2015   10        6     1   4    3.8341   447.1    6.910      40.592
2015   10        6     1  12    3.8241   447.1    6.892      40.468
2015   10        6     1  19    3.8140   447.0    6.873      40.344
2015   10        6     1  26    3.8041   447.0    6.856      40.221
2015   10        6     1  34    3.7940   446.9    6.838      40.097
2015   10        6     1  41    3.7841   446.9    6.821      39.975
2015   10        6     1  48    3.7740   446.8    6.803      39.851
2015   10        6     1  55    3.7641   446.7    6.787      39.729
2015   10        6     2   3    3.7540   446.7    6.770      39.606
2015   10        6     2  10    3.7441   446.6    6.754      39.485
2015   10        6     2  17    3.7341   446.5    6.738      39.363
2015   10        6     2  25    3.7242   446.4    6.723      39.242
2015   10        6     2  32    3.7143   446.4    6.708      39.121
2015   10        6     2  39    3.7044   446.3    6.693      39.002
2015   10        6     2  47    3.6946   446.2    6.679      38.882
2015   10        6     2  54    3.6848   446.1    6.665      38.764
2015   10        6     3   1    3.6750   446.0    6.651      38.646
2015   10        6     3   8    3.6653   445.9    6.637      38.531
2015   10        6     3  16    3.6558   445.8    6.624      38.416
2015   10        6     3  23    3.6463   445.7    6.612      38.303
2015   10        6     3  30    3.6370   445.6    6.599      38.192
2015   10        6     3  38    3.6279   445.5    6.588      38.083
2015   10        6     3  45    3.6190   445.4    6.576      37.977
2015   10        6     3  52    3.6103   445.3    6.565      37.874
2015   10        6     4   0    3.6019   445.2    6.554      37.773
2015   10        6     4   7    3.5937   445.1    6.543      37.676
2015   10        6     4  14    3.5858   444.9    6.533      37.581
2015   10        6     4  21    3.5781   444.8    6.524      37.490
2015   10        6     4  29    3.5707   444.7    6.514      37.402
2015   10        6     4  36    3.5634   444.6    6.505      37.318
2015   10        6     4  43    3.5565   444.5    6.496      37.236
2015   10        6     4  51    3.5497   444.4    6.487      37.158
2015   10        6     4  58    3.5431   444.3    6.479      37.082
2015   10        6     5   5    3.5367   444.2    6.471      37.008
2015   10        6     5  12    3.5306   444.1    6.463      36.936
2015   10        6     5  20    3.5245   444.0    6.456      36.866
2015   10        6     5  27    3.5187   443.9    6.449      36.797
2015   10        6     5  34    3.5130   443.8    6.443      36.729
2015   10        6     5  42    3.5075   443.7    6.437      36.661
2015   10        6     5  49    3.5020   443.5    6.431      36.594
2015   10        6     5  56    3.4968   443.4    6.426      36.527
2015   10        6     6   3    3.4916   443.3    6.422      36.460
2015   10        6     6  11    3.4865   443.1    6.418      36.393
2015   10        6     6  18    3.4815   443.0    6.415      36.328
2015   10        6     6  25    3.4767   442.9    6.412      36.263
2015   10        6     6  32    3.4719   442.7    6.409      36.198
2015   10        6     6  40    3.4672   442.6    6.407      36.133
2015   10        6     6  47    3.4626   442.5    6.406      36.071
2015   10        6     6  54    3.4581   442.3    6.404      36.009
2015   10        6     7   1    3.4536   442.2    6.403      35.952
2015   10        6     7   9    3.4492   442.1    6.402      35.896
2015   10        6     7  16    3.4449   442.0    6.401      35.842
2015   10        6     7  23    3.4407   441.9    6.400      35.791
2015   10        6     7  30    3.4365   441.7    6.398      35.743
2015   10        6     7  38    3.4324   441.6    6.396      35.697
2015   10        6     7  45    3.4283   441.5    6.395      35.651
2015   10        6     7  52    3.4244   441.4    6.393      35.605
2015   10        6     7  59    3.4205   441.3    6.391      35.559
2015   10        6     8   7    3.4167   441.2    6.389      35.513
2015   10        6     8  14    3.4129   441.1    6.387      35.467
2015   10        6     8  21    3.4092   440.9    6.384      35.421
2015   10        6     8  29    3.4057   440.8    6.382      35.377
2015   10        6     8  36    3.4022   440.7    6.380      35.332
2015   10        6     8  43    3.3987   440.6    6.378      35.288
2015   10        6     8  50    3.3954   440.5    6.376      35.243
2015   10        6     8  58    3.3921   440.4    6.374      35.200
2015   10        6     9   5    3.3890   440.3    6.372      35.156
2015   10        6     9  12    3.3859   440.1    6.370      35.113
2015   10        6     9  20    3.3829   440.0    6.368      35.070
2015   10        6     9  27    3.3800   439.9    6.366      35.028
2015   10        6     9  34    3.3771   439.8    6.364      34.986
2015   10        6     9  41    3.3744   439.7    6.362      34.944
2015   10        6     9  49    3.3717   439.6    6.361      34.902
2015   10        6     9  56    3.3691   439.5    6.359      34.861
2015   10        6    10   3    3.3666   439.4    6.358      34.821
2015   10        6    10  11    3.3641   439.3    6.356      34.781
2015   10        6    10  18    3.3617   439.2    6.355      34.741
2015   10        6    10  25    3.3594   439.1    6.354      34.702
2015   10        6    10  33    3.3571   439.0    6.352      34.663
2015   10        6    10  40    3.3550   438.9    6.351      34.624
2015   10        6    10  47    3.3529   438.8    6.351      34.587
2015   10        6    10  54    3.3508   438.7    6.350      34.550
2015   10        6    11   2    3.3489   438.6    6.349      34.514
2015   10        6    11   9    3.3470   438.5    6.349      34.478
2015   10        6    11  16    3.3452   438.4    6.349      34.443
2015   10        6    11  24    3.3435   438.3    6.349      34.410
2015   10        6    11  31    3.3419   438.2    6.349      34.377
2015   10        6    11  38    3.3403   438.1    6.349      34.345
2015   10        6    11  46    3.3389   438.0    6.350      34.314
2015   10        6    11  53    3.3375   437.9    6.350      34.284
2015   10        6    12   0    3.3362   437.8    6.351      34.254
2015   10        6    12   7    3.3350   437.7    6.353      34.226
2015   10        6    12  15    3.3339   437.6    6.354      34.199
2015   10        6    12  22    3.3329   437.5    6.356      34.172
2015   10        6    12  29    3.3319   437.4    6.358      34.146
2015   10        6    12  36    3.3310   437.3    6.360      34.122
2015   10        6    12  44    3.3303   437.2    6.362      34.097
2015   10        6    12  51    3.3295   437.1    6.365      34.074
2015   10        6    12  58    3.3290   436.9    6.368      34.051
2015   10        6    13   5    3.3284   436.8    6.371      34.030
2015   10        6    13  13    3.3280   436.7    6.375      34.008
2015   10        6    13  20    3.3277   436.6    6.379      33.988
2015   10        6    13  27    3.3275   436.5    6.383      33.968
2015   10        6    13  34    3.3274   436.4    6.388      33.950
2015   10        6    13  42    3.3275   436.3    6.393      33.931
2015   10        6    13  49    3.3277   436.1    6.399      33.915
2015   10        6    13  56    3.3280   436.0    6.405      33.899
2015   10        6    14   3    3.3285   435.9    6.411      33.886
2015   10        6    14  11    3.3292   435.8    6.418      33.874
2015   10        6    14  18    3.3299   435.7    6.426      33.866
2015   10        6    14  25    3.3309   435.6    6.434      33.859
2015   10        6    14  32    3.3320   435.5    6.442      33.855
2015   10        6    14  40    3.3332   435.4    6.451      33.853
2015   10        6    14  47    3.3345   435.3    6.460      33.856
2015   10        6    14  54    3.3359   435.2    6.469      33.861
2015   10        6    15   2    3.3372   435.1    6.478      33.871
2015   10        6    15   9    3.3386   435.0    6.486      33.885
2015   10        6    15  16    3.3400   435.0    6.495      33.901
2015   10        6    15  23    3.3415   434.9    6.503      33.919
2015   10        6    15  31    3.3429   434.8    6.511      33.938
2015   10        6    15  38    3.3444   434.8    6.518      33.956
2015   10        6    15  45    3.3458   434.7    6.525      33.974
2015   10        6    15  52    3.3474   434.6    6.533      33.992
2015   10        6    16   0    3.3489   434.6    6.540      34.009
2015   10        6    16   7    3.3505   434.5    6.546      34.026
2015   10        6    16  14    3.3520   434.4    6.553      34.044
2015   10        6    16  22    3.3537   434.4    6.559      34.060
2015   10        6    16  29    3.3553   434.3    6.566      34.077
2015   10        6    16  36    3.3569   434.3    6.572      34.094
2015   10        6    16  43    3.3586   434.2    6.579      34.110
2015   10        6    16  51    3.3603   434.2    6.585      34.126
2015   10        6    16  58    3.3621   434.1    6.591      34.141
2015   10        6    17   5    3.3639   434.1    6.597      34.157
2015   10        6    17  13    3.3657   434.0    6.604      34.172
2015   10        6    17  20    3.3676   434.0    6.610      34.188
2015   10        6    17  27    3.3694   434.0    6.616      34.203
2015   10        6    17  35    3.3714   433.9    6.623      34.218
2015   10        6    17  42    3.3733   433.9    6.629      34.234
2015   10        6    17  49    3.3753   433.8    6.636      34.249
2015   10        6    17  56    3.3774   433.8    6.643      34.265
2015   10        6    18   4    3.3795   433.8    6.649      34.281
2015   10        6    18  11    3.3816   433.7    6.656      34.297
2015   10        6    18  18    3.3838   433.7    6.664      34.314
2015   10        6    18  26    3.3860   433.7    6.671      34.331
2015   10        6    18  33    3.3883   433.6    6.679      34.348
2015   10        6    18  40    3.3906   433.6    6.687      34.367
2015   10        6    18  47    3.3930   433.6    6.695      34.386
2015   10        6    18  55    3.3954   433.5    6.703      34.405
2015   10        6    19   2    3.3979   433.5    6.712      34.426
2015   10        6    19   9    3.4004   433.5    6.722      34.448
2015   10        6    19  17    3.4030   433.5    6.732      34.471
2015   10        6    19  24    3.4057   433.5    6.742      34.495
2015   10        6    19  31    3.4085   433.4    6.753      34.520
2015   10        6    19  38    3.4113   433.4    6.765      34.546
2015   10        6    19  46    3.4143   433.4    6.777      34.575
2015   10        6    19  53    3.4173   433.4    6.790      34.604
2015   10        6    20   0    3.4204   433.4    6.804      34.636
2015   10        6    20   7    3.4236   433.4    6.818      34.669
2015   10        6    20  15    3.4270   433.4    6.834      34.704
2015   10        6    20  22    3.4305   433.4    6.850      34.740
2015   10        6    20  29    3.4341   433.4    6.868      34.780
2015   10        6    20  36    3.4379   433.4    6.886      34.822
2015   10        6    20  44    3.4419   433.4    6.905      34.870
2015   10        6    20  51    3.4460   433.4    6.925      34.920
2015   10        6    20  58    3.4503   433.4    6.947      34.973
2015   10        6    21   5    3.4548   433.4    6.969      35.030
2015   10        6    21  13    3.4595   433.4    6.992      35.091
2015   10        6    21  20    3.4643   433.4    7.015      35.159
2015   10        6    21  27    3.4693   433.5    7.039      35.233
2015   10        6    21  34    3.4744   433.6    7.063      35.314
2015   10        6    21  42    3.4797   433.6    7.087      35.401
2015   10        6    21  49    3.4848   433.7    7.110      35.493
2015   10        6    21  56    3.4901   433.8    7.134      35.589
2015   10        6    22   3    3.4952   433.9    7.156      35.685
2015   10        6    22  11    3.5004   434.0    7.179      35.782
2015   10        6    22  18    3.5053   434.1    7.200      35.881
2015   10        6    22  25    3.5103   434.2    7.220      35.981
2015   10        6    22  32    3.5150   434.3    7.240      36.082
2015   10        6    22  40    3.5197   434.4    7.258      36.184
2015   10        6    22  47    3.5243   434.6    7.276      36.285
2015   10        6    22  54    3.5289   434.7    7.292      36.384
2015   10        6    23   2    3.5333   434.8    7.308      36.481
2015   10        6    23   9    3.5378   434.9    7.324      36.576
2015   10        6    23  16    3.5421   435.1    7.338      36.669
2015   10        6    23  23    3.5464   435.2    7.352      36.761
2015   10        6    23  31    3.5506   435.3    7.365      36.850
2015   10        6    23  38    3.5549   435.5    7.377      36.939
2015   10        6    23  45    3.5590   435.6    7.389      37.025
2015   10        6    23  53    3.5631   435.8    7.400      37.110
2015   10        7     0   0    3.5672   435.9    7.411      37.193
2015   10        7     0   7    3.5713   436.0    7.421      37.274
2015   10        7     0  14    3.5752   436.2    7.431      37.354
2015   10        7     0  22    3.5793   436.3    7.440      37.433
2015   10        7     0  29    3.5832   436.4    7.449      37.509
2015   10        7     0  36    3.5872   436.6    7.458      37.585
2015   10        7     0  44    3.5911   436.7    7.467      37.659
2015   10        7     0  51    3.5951   436.8    7.475      37.732
2015   10        7     0  58    3.5990   437.0    7.482      37.803
2015   10        7     1   5    3.6029   437.1    7.490      37.874
2015   10        7     1  13    3.6068   437.3    7.497      37.943
2015   10        7     1  20    3.6107   437.4    7.505      38.011
2015   10        7     1  27    3.6146   437.5    7.512      38.078
2015   10        7     1  35    3.6185   437.7    7.519      38.144
2015   10        7     1  42    3.6224   437.8    7.525      38.209
2015   10        7     1  49    3.6263   438.0    7.532      38.274
2015   10        7     1  56    3.6301   438.1    7.539      38.338
2015   10        7     2   4    3.6340   438.3    7.546      38.402
2015   10        7     2  11    3.6379   438.4    7.552      38.465
2015   10        7     2  18    3.6418   438.6    7.559      38.528
2015   10        7     2  26    3.6457   438.7    7.566      38.590
2015   10        7     2  33    3.6496   438.9    7.573      38.653
2015   10        7     2  40    3.6535   439.0    7.580      38.715
2015   10        7     2  47    3.6574   439.2    7.588      38.779
2015   10        7     2  55    3.6613   439.3    7.596      38.842
2015   10        7     3   2    3.6653   439.5    7.604      38.906
2015   10        7     3   9    3.6693   439.6    7.613      38.969
2015   10        7     3  16    3.6733   439.8    7.622      39.034
2015   10        7     3  24    3.6773   440.0    7.631      39.099
2015   10        7     3  31    3.6814   440.1    7.641      39.164
2015   10        7     3  38    3.6855   440.3    7.652      39.230
2015   10        7     3  45    3.6897   440.5    7.663      39.297
2015   10        7     3  53    3.6939   440.6    7.675      39.366
2015   10        7     4   0    3.6982   440.8    7.687      39.438
2015   10        7     4   7    3.7025   441.0    7.700      39.511
2015   10        7     4  14    3.7069   441.2    7.714      39.586
2015   10        7     4  22    3.7113   441.3    7.728      39.663
2015   10        7     4  29    3.7158   441.5    7.742      39.743
2015   10        7     4  36    3.7203   441.7    7.756      39.827
2015   10        7     4  43    3.7249   441.9    7.771      39.916
2015   10        7     4  51    3.7294   442.2    7.784      40.008
2015   10        7     4  58    3.7339   442.4    7.798      40.106
2015   10        7     5   5    3.7383   442.6    7.811      40.206
2015   10        7     5  12    3.7427   442.8    7.823      40.309
2015   10        7     5  20    3.7469   443.1    7.835      40.409
2015   10        7     5  27    3.7511   443.3    7.847      40.509
2015   10        7     5  34    3.7552   443.5    7.858      40.607
2015   10        7     5  41    3.7593   443.8    7.868      40.705
2015   10        7     5  49    3.7633   444.0    7.879      40.802
2015   10        7     5  56    3.7673   444.2    7.889      40.900
2015   10        7     6   3    3.7713   444.5    7.899      40.997
2015   10        7     6  11    3.7752   444.7    7.909      41.094
2015   10        7     6  18    3.7792   445.0    7.919      41.191
2015   10        7     6  25    3.7831   445.2    7.929      41.289
2015   10        7     6  32    3.7871   445.5    7.939      41.387
2015   10        7     6  40    3.7911   445.7    7.949      41.487
2015   10        7     6  47    3.7951   446.0    7.959      41.587
2015   10        7     6  54    3.7992   446.2    7.969      41.688
2015   10        7     7   2    3.8032   446.5    7.979      41.789
2015   10        7     7   9    3.8073   446.8    7.989      41.893
2015   10        7     7  16    3.8113   447.1    7.998      41.999
2015   10        7     7  23    3.8153   447.4    8.008      42.106
2015   10        7     7  31    3.8192   447.7    8.016      42.214
2015   10        7     7  38    3.8230   448.0    8.023      42.325
2015   10        7     7  45    3.8267   448.3    8.030      42.434
2015   10        7     7  52    3.8302   448.6    8.036      42.541
2015   10        7     8   0    3.8337   448.9    8.041      42.644
2015   10        7     8   7    3.8370   449.2    8.045      42.747
2015   10        7     8  14    3.8402   449.5    8.049      42.846
2015   10        7     8  22    3.8433   449.8    8.051      42.945
2015   10        7     8  29    3.8464   450.1    8.054      43.041
2015   10        7     8  36    3.8494   450.4    8.055      43.136
2015   10        7     8  43    3.8523   450.7    8.057      43.229
2015   10        7     8  51    3.8552   451.0    8.057      43.322
2015   10        7     8  58    3.8580   451.3    8.058      43.413
2015   10        7     9   5    3.8608   451.6    8.058      43.503
2015   10        7     9  13    3.8636   451.9    8.058      43.592
2015   10        7     9  20    3.8663   452.2    8.057      43.680
2015   10        7     9  27    3.8689   452.5    8.056      43.766
2015   10        7     9  34    3.8715   452.8    8.055      43.852
2015   10        7     9  42    3.8741   453.1    8.053      43.937
2015   10        7     9  49    3.8766   453.4    8.052      44.022
2015   10        7     9  56    3.8790   453.7    8.049      44.106
2015   10        7    10   3    3.8813   454.0    8.047      44.189
2015   10        7    10  11    3.8836   454.4    8.044      44.271
2015   10        7    10  18    3.8857   454.7    8.041      44.353
2015   10        7    10  25    3.8878   455.0    8.037      44.432
2015   10        7    10  32    3.8898   455.3    8.033      44.512
2015   10        7    10  40    3.8918   455.6    8.029      44.589
2015   10        7    10  47    3.8937   456.0    8.025      44.667
2015   10        7    10  54    3.8955   456.3    8.020      44.743
2015   10        7    11   1    3.8973   456.6    8.016      44.819
2015   10        7    11   9    3.8991   456.9    8.011      44.894
2015   10        7    11  16    3.9008   457.2    8.007      44.969
2015   10        7    11  23    3.9026   457.6    8.003      45.045
2015   10        7    11  30    3.9043   457.9    7.998      45.122
2015   10        7    11  38    3.9060   458.2    7.994      45.198
2015   10        7    11  45    3.9077   458.5    7.990      45.276
2015   10        7    11  52    3.9094   458.9    7.987      45.356
2015   10        7    11  59    3.9111   459.2    7.983      45.437
2015   10        7    12   7    3.9127   459.6    7.979      45.519
2015   10        7    12  14    3.9142   459.9    7.975      45.602
2015   10        7    12  21    3.9157   460.3    7.971      45.684
2015   10        7    12  28    3.9171   460.7    7.966      45.763
2015   10        7    12  36    3.9185   461.1    7.961      45.839
2015   10        7    12  43    3.9197   461.4    7.955      45.912
2015   10        7    12  50    3.9209   461.8    7.948      45.981
2015   10        7    12  58    3.9220   462.2    7.941      46.046
2015   10        7    13   5    3.9230   462.5    7.934      46.107
2015   10        7    13  12    3.9240   462.9    7.926      46.165
2015   10        7    13  19    3.9249   463.2    7.918      46.221
2015   10        7    13  27    3.9258   463.5    7.910      46.274
2015   10        7    13  34    3.9266   463.9    7.903      46.324
2015   10        7    13  41    3.9274   464.2    7.895      46.374
2015   10        7    13  48    3.9281   464.5    7.888      46.423
2015   10        7    13  56    3.9288   464.8    7.882      46.473
2015   10        7    14   3    3.9294   465.1    7.875      46.523
2015   10        7    14  10    3.9300   465.4    7.869      46.572
2015   10        7    14  18    3.9307   465.7    7.864      46.623
2015   10        7    14  25    3.9313   466.1    7.858      46.676
2015   10        7    14  32    3.9319   466.4    7.853      46.731
2015   10        7    14  39    3.9325   466.7    7.847      46.788
2015   10        7    14  47    3.9331   467.0    7.842      46.846
2015   10        7    14  54    3.9336   467.4    7.835      46.908
2015   10        7    15   1    3.9341   467.7    7.829      46.970
2015   10        7    15   8    3.9344   468.1    7.821      47.032
2015   10        7    15  16    3.9347   468.4    7.813      47.092
2015   10        7    15  23    3.9348   468.8    7.805      47.151
2015   10        7    15  30    3.9349   469.1    7.796      47.209
2015   10        7    15  38    3.9348   469.4    7.787      47.267
2015   10        7    15  45    3.9348   469.8    7.777      47.324
2015   10        7    15  52    3.9346   470.1    7.767      47.380
2015   10        7    15  59    3.9345   470.5    7.757      47.436
2015   10        7    16   7    3.9342   470.8    7.747      47.491
2015   10        7    16  14    3.9340   471.1    7.736      47.546
2015   10        7    16  21    3.9337   471.5    7.725      47.601
2015   10        7    16  28    3.9334   471.8    7.714      47.656
2015   10        7    16  36    3.9330   472.2    7.703      47.710
2015   10        7    16  43    3.9326   472.5    7.692      47.764
2015   10        7    16  50    3.9322   472.8    7.680      47.818
2015   10        7    16  57    3.9317   473.2    7.669      47.871
2015   10        7    17   5    3.9312   473.5    7.657      47.924
2015   10        7    17  12    3.9306   473.9    7.646      47.977
2015   10        7    17  19    3.9299   474.2    7.634      48.029
2015   10        7    17  27    3.9292   474.6    7.622      48.081
2015   10        7    17  34    3.9284   474.9    7.609      48.132
2015   10        7    17  41    3.9275   475.3    7.597      48.182
2015   10        7    17  48    3.9266   475.6    7.584      48.231
2015   10        7    17  56    3.9256   476.0    7.572      48.279
2015   10        7    18   3    3.9245   476.3    7.559      48.326
2015   10        7    18  10    3.9235   476.7    7.546      48.373
2015   10        7    18  17    3.9223   477.0    7.533      48.418
2015   10        7    18  25    3.9212   477.4    7.520      48.463
2015   10        7    18  32    3.9200   477.7    7.508      48.508
2015   10        7    18  39    3.9188   478.1    7.495      48.552
2015   10        7    18  46    3.9176   478.4    7.483      48.597
2015   10        7    18  54    3.9164   478.8    7.470      48.643
2015   10        7    19   1    3.9151   479.1    7.458      48.690
2015   10        7    19   8    3.9139   479.5    7.447      48.738
2015   10        7    19  15    3.9125   479.9    7.435      48.788
2015   10        7    19  23    3.9112   480.2    7.424      48.841
2015   10        7    19  30    3.9097   480.6    7.413      48.895
2015   10        7    19  37    3.9081   481.0    7.401      48.949
2015   10        7    19  44    3.9063   481.5    7.388      49.005
2015   10        7    19  52    3.9044   481.9    7.375      49.057
2015   10        7    19  59    3.9023   482.4    7.361      49.106
2015   10        7    20   6    3.8999   482.8    7.345      49.150
2015   10        7    20  13    3.8971   483.3    7.327      49.187
2015   10        7    20  21    3.8941   483.7    7.308      49.217
2015   10        7    20  28    3.8907   484.2    7.287      49.238
2015   10        7    20  35    3.8871   484.6    7.265      49.251
2015   10        7    20  42    3.8831   485.0    7.242      49.259
2015   10        7    20  50    3.8788   485.5    7.217      49.256
2015   10        7    20  57    3.8741   485.8    7.191      49.245
2015   10        7    21   4    3.8692   486.2    7.165      49.227
2015   10        7    21  12    3.8640   486.6    7.138      49.204
2015   10        7    21  19    3.8587   486.9    7.112      49.176
2015   10        7    21  26    3.8532   487.2    7.087      49.145
2015   10        7    21  33    3.8478   487.5    7.062      49.116
2015   10        7    21  41    3.8424   487.8    7.037      49.088
2015   10        7    21  48    3.8370   488.2    7.014      49.062
2015   10        7    21  55    3.8316   488.5    6.990      49.036
2015   10        7    22   2    3.8262   488.8    6.967      49.011
2015   10        7    22  10    3.8208   489.1    6.944      48.987
2015   10        7    22  17    3.8155   489.4    6.921      48.963
2015   10        7    22  24    3.8102   489.7    6.898      48.939
2015   10        7    22  31    3.8049   490.0    6.876      48.915
2015   10        7    22  39    3.7996   490.3    6.854      48.891
2015   10        7    22  46    3.7944   490.5    6.832      48.866
2015   10        7    22  53    3.7891   490.8    6.810      48.842
2015   10        7    23   0    3.7839   491.1    6.789      48.817
2015   10        7    23   8    3.7787   491.4    6.767      48.791
2015   10        7    23  15    3.7736   491.7    6.746      48.766
2015   10        7    23  22    3.7683   491.9    6.725      48.740
2015   10        7    23  30    3.7632   492.2    6.704      48.714
2015   10        7    23  37    3.7580   492.5    6.683      48.688
2015   10        7    23  44    3.7530   492.7    6.662      48.661
2015   10        7    23  51    3.7478   493.0    6.642      48.634
2015   10        7    23  59    3.7428   493.2    6.621      48.608
2015   10        8     0   6    3.7377   493.5    6.601      48.581
2015   10        8     0  13    3.7328   493.7    6.582      48.554
2015   10        8     0  20    3.7278   494.0    6.562      48.527
2015   10        8     0  28    3.7229   494.2    6.543      48.501
2015   10        8     0  35    3.7180   494.4    6.525      48.475
2015   10        8     0  42    3.7132   494.7    6.506      48.449
2015   10        8     0  49    3.7083   494.9    6.488      48.423
2015   10        8     0  57    3.7036   495.1    6.470      48.398
2015   10        8     1   4    3.6988   495.3    6.452      48.373
2015   10        8     1  11    3.6941   495.5    6.435      48.347
2015   10        8     1  18    3.6894   495.8    6.417      48.322
2015   10        8     1  26    3.6847   496.0    6.400      48.296
2015   10        8     1  33    3.6800   496.2    6.383      48.271
2015   10        8     1  40    3.6753   496.4    6.366      48.245
2015   10        8     1  47    3.6706   496.6    6.349      48.218
2015   10        8     1  55    3.6659   496.8    6.332      48.191
2015   10        8     2   2    3.6612   497.1    6.315      48.163
2015   10        8     2   9    3.6565   497.3    6.299      48.135
2015   10        8     2  16    3.6517   497.5    6.282      48.106
2015   10        8     2  24    3.6469   497.8    6.266      48.076
2015   10        8     2  31    3.6420   498.0    6.249      48.045
2015   10        8     2  38    3.6370   498.3    6.232      48.012
2015   10        8     2  45    3.6319   498.5    6.215      47.977
2015   10        8     2  53    3.6267   498.8    6.198      47.941
2015   10        8     3   0    3.6213   499.1    6.180      47.904
2015   10        8     3   7    3.6159   499.4    6.161      47.866
2015   10        8     3  14    3.6101   499.7    6.142      47.827
2015   10        8     3  22    3.6042   500.0    6.122      47.785
2015   10        8     3  29    3.5980   500.3    6.101      47.737
2015   10        8     3  36    3.5917   500.6    6.079      47.684
2015   10        8     3  43    3.5850   500.8    6.056      47.625
2015   10        8     3  51    3.5781   501.1    6.032      47.563
2015   10        8     3  58    3.5710   501.4    6.007      47.492
2015   10        8     4   5    3.5637   501.7    5.981      47.411
2015   10        8     4  13    3.5562   501.9    5.955      47.323
2015   10        8     4  20    3.5486   502.1    5.930      47.232
2015   10        8     4  27    3.5410   502.3    5.904      47.136
2015   10        8     4  34    3.5336   502.4    5.881      47.038
2015   10        8     4  42    3.5263   502.5    5.858      46.945
2015   10        8     4  49    3.5194   502.6    5.837      46.861
2015   10        8     4  56    3.5126   502.7    5.818      46.782
2015   10        8     5   3    3.5060   502.9    5.799      46.709
2015   10        8     5  11    3.4996   503.0    5.781      46.641
2015   10        8     5  18    3.4933   503.1    5.765      46.579
2015   10        8     5  25    3.4872   503.2    5.749      46.519
2015   10        8     5  32    3.4811   503.4    5.733      46.464
2015   10        8     5  40    3.4751   503.5    5.718      46.412
2015   10        8     5  47    3.4692   503.6    5.704      46.363
2015   10        8     5  54    3.4632   503.7    5.689      46.313
2015   10        8     6   2    3.4573   503.9    5.675      46.266
2015   10        8     6   9    3.4514   504.0    5.660      46.218
2015   10        8     6  16    3.4455   504.1    5.645      46.167
2015   10        8     6  23    3.4395   504.2    5.630      46.114
2015   10        8     6  31    3.4336   504.3    5.616      46.059
2015   10        8     6  38    3.4276   504.4    5.601      46.003
2015   10        8     6  45    3.4216   504.5    5.586      45.945
2015   10        8     6  52    3.4156   504.6    5.571      45.885
2015   10        8     7   0    3.4096   504.7    5.556      45.824
2015   10        8     7   7    3.4035   504.8    5.541      45.761
2015   10        8     7  14    3.3975   504.9    5.526      45.699
2015   10        8     7  21    3.3915   505.0    5.512      45.636
2015   10        8     7  29    3.3856   505.0    5.498      45.573
2015   10        8     7  36    3.3796   505.1    5.484      45.510
2015   10        8     7  43    3.3738   505.1    5.470      45.449
2015   10        8     7  50    3.3679   505.2    5.457      45.387
2015   10        8     7  58    3.3621   505.2    5.444      45.327
2015   10        8     8   5    3.3563   505.3    5.431      45.267
2015   10        8     8  12    3.3507   505.3    5.418      45.208
2015   10        8     8  19    3.3450   505.4    5.406      45.150
2015   10        8     8  27    3.3394   505.4    5.393      45.093
2015   10        8     8  34    3.3338   505.4    5.381      45.036
2015   10        8     8  41    3.3283   505.5    5.370      44.980
2015   10        8     8  48    3.3228   505.5    5.358      44.925
2015   10        8     8  56    3.3173   505.5    5.347      44.871
2015   10        8     9   3    3.3118   505.5    5.335      44.816
2015   10        8     9  10    3.3064   505.6    5.324      44.763
2015   10        8     9  17    3.3009   505.6    5.313      44.709
2015   10        8     9  25    3.2955   505.6    5.302      44.656
2015   10        8     9  32    3.2901   505.7    5.291      44.603
2015   10        8     9  39    3.2847   505.7    5.281      44.551
2015   10        8     9  46    3.2793   505.8    5.271      44.498
2015   10        8     9  54    3.2738   505.8    5.260      44.445
2015   10        8    10   1    3.2683   505.9    5.250      44.390
2015   10        8    10   8    3.2628   505.9    5.240      44.335
2015   10        8    10  15    3.2572   506.0    5.230      44.277
2015   10        8    10  23    3.2517   506.0    5.220      44.219
2015   10        8    10  30    3.2460   506.0    5.210      44.160
2015   10        8    10  37    3.2404   506.1    5.201      44.102
2015   10        8    10  44    3.2346   506.1    5.191      44.042
2015   10        8    10  52    3.2290   506.1    5.181      43.984
2015   10        8    10  59    3.2233   506.1    5.172      43.926
2015   10        8    11   6    3.2176   506.2    5.162      43.868
2015   10        8    11  13    3.2119   506.2    5.153      43.811
2015   10        8    11  21    3.2064   506.2    5.143      43.755
2015   10        8    11  28    3.2009   506.2    5.134      43.698
2015   10        8    11  35    3.1955   506.2    5.126      43.644
2015   10        8    11  42    3.1901   506.2    5.117      43.590
2015   10        8    11  50    3.1848   506.2    5.109      43.538
2015   10        8    11  57    3.1796   506.2    5.101      43.486
2015   10        8    12   4    3.1745   506.2    5.093      43.438
2015   10        8    12  12    3.1695   506.1    5.086      43.391
2015   10        8    12  19    3.1645   506.1    5.079      43.347
2015   10        8    12  26    3.1596   506.1    5.072      43.305
2015   10        8    12  33    3.1547   506.1    5.066      43.264
2015   10        8    12  41    3.1499   506.1    5.060      43.226
2015   10        8    12  48    3.1451   506.1    5.054      43.190
2015   10        8    12  55    3.1403   506.0    5.048      43.156
2015   10        8    13   2    3.1356   506.0    5.042      43.123
2015   10        8    13  10    3.1309   506.0    5.036      43.090
2015   10        8    13  17    3.1262   506.0    5.031      43.057
2015   10        8    13  24    3.1215   506.0    5.024      43.023
2015   10        8    13  31    3.1169   506.0    5.018      42.988
2015   10        8    13  39    3.1122   506.0    5.012      42.950
2015   10        8    13  46    3.1075   506.0    5.005      42.911
2015   10        8    13  53    3.1029   505.9    4.998      42.871
2015   10        8    14   0    3.0982   505.9    4.992      42.830
2015   10        8    14   8    3.0935   505.9    4.985      42.787
2015   10        8    14  15    3.0888   505.9    4.978      42.744
2015   10        8    14  22    3.0841   505.8    4.971      42.700
2015   10        8    14  29    3.0794   505.8    4.964      42.655
2015   10        8    14  37    3.0747   505.8    4.957      42.610
2015   10        8    14  44    3.0701   505.8    4.951      42.564
2015   10        8    14  51    3.0654   505.7    4.944      42.518
2015   10        8    14  58    3.0607   505.7    4.937      42.472
2015   10        8    15   6    3.0561   505.7    4.930      42.425
2015   10        8    15  13    3.0515   505.6    4.923      42.378
2015   10        8    15  20    3.0468   505.6    4.916      42.330
2015   10        8    15  27    3.0423   505.6    4.909      42.282
2015   10        8    15  35    3.0377   505.5    4.902      42.233
2015   10        8    15  42    3.0332   505.5    4.895      42.185
2015   10        8    15  49    3.0287   505.5    4.888      42.135
2015   10        8    15  56    3.0242   505.4    4.881      42.085
2015   10        8    16   4    3.0197   505.4    4.874      42.035
2015   10        8    16  11    3.0153   505.4    4.867      41.985
2015   10        8    16  18    3.0109   505.3    4.860      41.934
2015   10        8    16  25    3.0065   505.3    4.853      41.883
2015   10        8    16  33    3.0021   505.2    4.846      41.832
2015   10        8    16  40    2.9978   505.2    4.839      41.781
2015   10        8    16  47    2.9935   505.1    4.832      41.729
2015   10        8    16  54    2.9892   505.1    4.826      41.678
2015   10        8    17   2    2.9850   505.0    4.819      41.626
2015   10        8    17   9    2.9807   505.0    4.812      41.575
2015   10        8    17  16    2.9765   504.9    4.806      41.523
2015   10        8    17  23    2.9724   504.9    4.799      41.473
2015   10        8    17  31    2.9682   504.8    4.793      41.423
2015   10        8    17  38    2.9641   504.8    4.787      41.373
2015   10        8    17  45    2.9599   504.7    4.780      41.324
2015   10        8    17  52    2.9559   504.6    4.775      41.276
2015   10        8    18   0    2.9518   504.6    4.769      41.228
2015   10        8    18   7    2.9478   504.5    4.763      41.181
2015   10        8    18  14    2.9438   504.4    4.758      41.136
2015   10        8    18  21    2.9398   504.4    4.752      41.091
2015   10        8    18  29    2.9358   504.3    4.747      41.047
2015   10        8    18  36    2.9319   504.2    4.742      41.005
2015   10        8    18  43    2.9279   504.2    4.737      40.964
2015   10        8    18  50    2.9240   504.1    4.733      40.924
2015   10        8    18  58    2.9202   504.0    4.728      40.884
2015   10        8    19   5    2.9163   503.9    4.724      40.847
2015   10        8    19  12    2.9125   503.9    4.720      40.809
2015   10        8    19  19    2.9087   503.8    4.716      40.773
2015   10        8    19  27    2.9049   503.7    4.712      40.737
2015   10        8    19  34    2.9012   503.7    4.709      40.703
2015   10        8    19  41    2.8975   503.6    4.705      40.669
2015   10        8    19  48    2.8938   503.5    4.702      40.635
2015   10        8    19  56    2.8901   503.4    4.698      40.601
2015   10        8    20   3    2.8864   503.4    4.695      40.567
2015   10        8    20  10    2.8828   503.3    4.692      40.533
2015   10        8    20  17    2.8791   503.2    4.689      40.499
2015   10        8    20  25    2.8755   503.1    4.685      40.464
2015   10        8    20  32    2.8719   503.0    4.682      40.429
2015   10        8    20  39    2.8683   502.9    4.679      40.393
2015   10        8    20  46    2.8647   502.9    4.676      40.357
2015   10        8    20  54    2.8611   502.8    4.673      40.320
2015   10        8    21   1    2.8575   502.7    4.670      40.283
2015   10        8    21   8    2.8540   502.6    4.666      40.244
2015   10        8    21  15    2.8504   502.5    4.663      40.206
2015   10        8    21  23    2.8468   502.4    4.659      40.166
2015   10        8    21  30    2.8433   502.4    4.656      40.127
2015   10        8    21  37    2.8397   502.3    4.652      40.087
2015   10        8    21  44    2.8362   502.2    4.649      40.046
2015   10        8    21  52    2.8327   502.1    4.645      40.005
2015   10        8    21  59    2.8291   502.0    4.641      39.964
2015   10        8    22   6    2.8256   501.9    4.638      39.922
2015   10        8    22  13    2.8221   501.8    4.634      39.880
2015   10        8    22  21    2.8186   501.7    4.630      39.837
2015   10        8    22  28    2.8151   501.6    4.626      39.794
2015   10        8    22  35    2.8115   501.5    4.622      39.750
2015   10        8    22  42    2.8081   501.4    4.618      39.707
2015   10        8    22  50    2.8046   501.4    4.614      39.663
2015   10        8    22  57    2.8011   501.3    4.610      39.618
2015   10        8    23   4    2.7976   501.2    4.606      39.573
2015   10        8    23  11    2.7942   501.1    4.602      39.528
2015   10        8    23  19    2.7907   501.0    4.598      39.482
2015   10        8    23  26    2.7872   500.9    4.594      39.437
2015   10        8    23  33    2.7838   500.8    4.590      39.390
2015   10        8    23  40    2.7804   500.7    4.585      39.344
2015   10        8    23  48    2.7769   500.6    4.581      39.296
2015   10        8    23  55    2.7735   500.5    4.577      39.249
2015   10        9     0   2    2.7701   500.4    4.573      39.202
2015   10        9     0   9    2.7667   500.3    4.569      39.154
2015   10        9     0  17    2.7633   500.2    4.564      39.106
2015   10        9     0  24    2.7599   500.1    4.560      39.058
2015   10        9     0  31    2.7565   499.9    4.556      39.009
2015   10        9     0  38    2.7532   499.8    4.552      38.961
2015   10        9     0  46    2.7498   499.7    4.548      38.912
2015   10        9     0  53    2.7464   499.6    4.544      38.864
2015   10        9     1   0    2.7431   499.5    4.540      38.815
2015   10        9     1   7    2.7397   499.4    4.536      38.767
2015   10        9     1  15    2.7363   499.3    4.532      38.718
2015   10        9     1  22    2.7330   499.1    4.528      38.670
2015   10        9     1  29    2.7296   499.0    4.524      38.622
2015   10        9     1  36    2.7263   498.9    4.521      38.574
2015   10        9     1  44    2.7230   498.8    4.517      38.526
2015   10        9     1  51    2.7197   498.7    4.514      38.479
2015   10        9     1  58    2.7163   498.5    4.510      38.432
2015   10        9     2   5    2.7130   498.4    4.507      38.385
2015   10        9     2  13    2.7097   498.3    4.504      38.339
2015   10        9     2  20    2.7064   498.2    4.501      38.293
2015   10        9     2  27    2.7031   498.0    4.498      38.248
2015   10        9     2  34    2.6998   497.9    4.495      38.203
2015   10        9     2  42    2.6965   497.8    4.492      38.159
2015   10        9     2  49    2.6933   497.6    4.490      38.115
2015   10        9     2  56    2.6900   497.5    4.487      38.072
2015   10        9     3   3    2.6868   497.4    4.485      38.029
2015   10        9     3  11    2.6835   497.2    4.483      37.987
2015   10        9     3  18    2.6803   497.1    4.480      37.945
2015   10        9     3  25    2.6771   497.0    4.478      37.904
2015   10        9     3  32    2.6739   496.8    4.476      37.863
2015   10        9     3  40    2.6707   496.7    4.474      37.822
2015   10        9     3  47    2.6676   496.6    4.472      37.782
2015   10        9     3  54    2.6644   496.4    4.470      37.741
2015   10        9     4   1    2.6613   496.3    4.469      37.701
2015   10        9     4   9    2.6582   496.1    4.467      37.661
2015   10        9     4  16    2.6551   496.0    4.465      37.620
2015   10        9     4  23    2.6519   495.9    4.463      37.579
2015   10        9     4  30    2.6489   495.7    4.461      37.537
2015   10        9     4  38    2.6458   495.6    4.458      37.495
2015   10        9     4  45    2.6427   495.4    4.456      37.453
2015   10        9     4  52    2.6397   495.3    4.454      37.410
2015   10        9     4  59    2.6367   495.1    4.452      37.368
2015   10        9     5   7    2.6337   495.0    4.449      37.324
2015   10        9     5  14    2.6307   494.9    4.447      37.281
2015   10        9     5  21    2.6277   494.7    4.444      37.237
2015   10        9     5  28    2.6248   494.6    4.442      37.193
2015   10        9     5  36    2.6218   494.4    4.439      37.149
2015   10        9     5  43    2.6189   494.3    4.437      37.105
2015   10        9     5  50    2.6160   494.1    4.434      37.059
2015   10        9     5  57    2.6131   494.0    4.432      37.015
2015   10        9     6   4    2.6102   493.8    4.429      36.969
2015   10        9     6  12    2.6074   493.6    4.426      36.924
2015   10        9     6  19    2.6045   493.5    4.423      36.877
2015   10        9     6  26    2.6017   493.3    4.421      36.832
2015   10        9     6  33    2.5989   493.2    4.418      36.785
2015   10        9     6  41    2.5961   493.0    4.415      36.739
2015   10        9     6  48    2.5933   492.9    4.412      36.692
2015   10        9     6  55    2.5905   492.7    4.409      36.645
2015   10        9     7   2    2.5877   492.6    4.406      36.598
2015   10        9     7  10    2.5850   492.4    4.403      36.550
2015   10        9     7  17    2.5822   492.3    4.400      36.502
2015   10        9     7  24    2.5795   492.1    4.398      36.455
2015   10        9     7  31    2.5767   491.9    4.395      36.407
2015   10        9     7  39    2.5740   491.8    4.392      36.358
2015   10        9     7  46    2.5712   491.6    4.389      36.310
2015   10        9     7  53    2.5685   491.5    4.386      36.261
2015   10        9     8   0    2.5658   491.3    4.383      36.212
2015   10        9     8   8    2.5630   491.1    4.380      36.162
2015   10        9     8  15    2.5603   491.0    4.377      36.112
2015   10        9     8  22    2.5576   490.8    4.374      36.063
2015   10        9     8  29    2.5548   490.6    4.371      36.012
2015   10        9     8  37    2.5521   490.5    4.368      35.962
2015   10        9     8  44    2.5494   490.3    4.365      35.910
2015   10        9     8  51    2.5467   490.1    4.362      35.859
2015   10        9     8  58    2.5439   490.0    4.359      35.807
2015   10        9     9   6    2.5412   489.8    4.356      35.755
2015   10        9     9  13    2.5384   489.6    4.353      35.702
2015   10        9     9  20    2.5357   489.5    4.351      35.649
2015   10        9     9  27    2.5330   489.3    4.348      35.596
2015   10        9     9  35    2.5302   489.1    4.345      35.543
2015   10        9     9  42    2.5275   488.9    4.342      35.490
2015   10        9     9  49    2.5248   488.7    4.340      35.437
2015   10        9     9  56    2.5221   488.6    4.337      35.383
2015   10        9    10   4    2.5194   488.4    4.334      35.330
2015   10        9    10  11    2.5166   488.2    4.332      35.276
2015   10        9    10  18    2.5139   488.0    4.329      35.223
2015   10        9    10  25    2.5112   487.8    4.327      35.169
2015   10        9    10  33    2.5086   487.6    4.325      35.116
2015   10        9    10  40    2.5059   487.4    4.323      35.063
2015   10        9    10  47    2.5033   487.2    4.321      35.010
2015   10        9    10  54    2.5007   487.0    4.319      34.958
2015   10        9    11   2    2.4981   486.8    4.317      34.906
2015   10        9    11   9    2.4955   486.6    4.315      34.853
2015   10        9    11  16    2.4930   486.4    4.313      34.802
2015   10        9    11  23    2.4905   486.2    4.312      34.751
2015   10        9    11  31    2.4880   486.0    4.310      34.700
2015   10        9    11  38    2.4855   485.8    4.309      34.650
2015   10        9    11  45    2.4831   485.6    4.308      34.600
2015   10        9    11  52    2.4807   485.4    4.306      34.551
2015   10        9    11  59    2.4783   485.1    4.305      34.502
2015   10        9    12   7    2.4760   484.9    4.305      34.453
2015   10        9    12  14    2.4737   484.7    4.304      34.405
2015   10        9    12  21    2.4714   484.5    4.303      34.357
2015   10        9    12  28    2.4691   484.3    4.303      34.310
2015   10        9    12  36    2.4669   484.1    4.302      34.263
2015   10        9    12  43    2.4647   483.9    4.301      34.216
2015   10        9    12  50    2.4625   483.7    4.301      34.169
2015   10        9    12  57    2.4604   483.4    4.301      34.123
2015   10        9    13   5    2.4582   483.2    4.300      34.077
2015   10        9    13  12    2.4560   483.0    4.300      34.031
2015   10        9    13  19    2.4539   482.8    4.299      33.984
2015   10        9    13  26    2.4518   482.6    4.299      33.939
2015   10        9    13  34    2.4496   482.4    4.298      33.893
2015   10        9    13  41    2.4475   482.1    4.297      33.848
2015   10        9    13  48    2.4454   481.9    4.297      33.802
2015   10        9    13  55    2.4433   481.7    4.296      33.757
2015   10        9    14   3    2.4412   481.5    4.295      33.712
2015   10        9    14  10    2.4391   481.2    4.294      33.667
2015   10        9    14  17    2.4370   481.0    4.293      33.621
2015   10        9    14  24    2.4350   480.8    4.293      33.576
2015   10        9    14  31    2.4329   480.6    4.292      33.531
2015   10        9    14  39    2.4309   480.4    4.291      33.485
2015   10        9    14  46    2.4289   480.1    4.290      33.440
2015   10        9    14  53    2.4269   479.9    4.289      33.394
2015   10        9    15   0    2.4249   479.7    4.287      33.349
2015   10        9    15   8    2.4229   479.5    4.286      33.303
2015   10        9    15  15    2.4209   479.2    4.285      33.257
2015   10        9    15  22    2.4190   479.0    4.284      33.211
2015   10        9    15  29    2.4170   478.8    4.283      33.165
2015   10        9    15  37    2.4151   478.6    4.281      33.119
2015   10        9    15  44    2.4132   478.3    4.280      33.072
2015   10        9    15  51    2.4112   478.1    4.278      33.025
2015   10        9    15  58    2.4093   477.9    4.277      32.978
2015   10        9    16   6    2.4074   477.6    4.276      32.931
2015   10        9    16  13    2.4055   477.4    4.274      32.883
2015   10        9    16  20    2.4036   477.2    4.272      32.835
2015   10        9    16  27    2.4017   477.0    4.271      32.786
2015   10        9    16  35    2.3998   476.7    4.269      32.737
2015   10        9    16  42    2.3979   476.5    4.268      32.688
2015   10        9    16  49    2.3960   476.3    4.266      32.639
2015   10        9    16  56    2.3942   476.0    4.264      32.589
2015   10        9    17   4    2.3923   475.8    4.263      32.539
2015   10        9    17  11    2.3905   475.6    4.261      32.489
2015   10        9    17  18    2.3886   475.3    4.259      32.439
2015   10        9    17  26    2.3868   475.1    4.257      32.388
2015   10        9    17  33    2.3850   474.8    4.256      32.337
2015   10        9    17  40    2.3832   474.6    4.254      32.286
2015   10        9    17  47    2.3814   474.4    4.252      32.236
2015   10        9    17  55    2.3796   474.1    4.251      32.185
2015   10        9    18   2    2.3779   473.9    4.249      32.134
2015   10        9    18   9    2.3761   473.6    4.247      32.084
2015   10        9    18  16    2.3744   473.4    4.246      32.033
2015   10        9    18  23    2.3727   473.1    4.245      31.983
2015   10        9    18  31    2.3711   472.9    4.243      31.933
2015   10        9    18  38    2.3694   472.6    4.242      31.884
2015   10        9    18  45    2.3678   472.4    4.241      31.835
2015   10        9    18  52    2.3662   472.1    4.240      31.786
2015   10        9    19   0    2.3646   471.9    4.239      31.738
2015   10        9    19   7    2.3630   471.6    4.238      31.690
2015   10        9    19  14    2.3615   471.4    4.238      31.643
2015   10        9    19  21    2.3600   471.1    4.237      31.596
2015   10        9    19  29    2.3585   470.9    4.237      31.550
2015   10        9    19  36    2.3570   470.6    4.236      31.503
2015   10        9    19  43    2.3556   470.4    4.236      31.458
2015   10        9    19  50    2.3541   470.1    4.236      31.413
2015   10        9    19  57    2.3527   469.9    4.236      31.368
2015   10        9    20   5    2.3513   469.7    4.236      31.323
2015   10        9    20  12    2.3499   469.4    4.236      31.278
2015   10        9    20  19    2.3484   469.2    4.236      31.233
2015   10        9    20  26    2.3470   468.9    4.236      31.189
2015   10        9    20  34    2.3456   468.7    4.236      31.144
2015   10        9    20  41    2.3442   468.4    4.236      31.100
2015   10        9    20  48    2.3428   468.1    4.236      31.056
2015   10        9    20  55    2.3414   467.9    4.236      31.012
2015   10        9    21   3    2.3400   467.6    4.236      30.968
2015   10        9    21  10    2.3386   467.3    4.236      30.925
2015   10        9    21  17    2.3372   467.1    4.236      30.882
2015   10        9    21  24    2.3359   466.8    4.237      30.839
2015   10        9    21  32    2.3345   466.6    4.237      30.796
2015   10        9    21  39    2.3332   466.3    4.237      30.753
2015   10        9    21  46    2.3319   466.0    4.238      30.711
2015   10        9    21  53    2.3307   465.7    4.239      30.670
2015   10        9    22   1    2.3294   465.5    4.240      30.628
2015   10        9    22   8    2.3282   465.2    4.240      30.587
2015   10        9    22  15    2.3271   464.9    4.241      30.547
2015   10        9    22  22    2.3259   464.7    4.243      30.507
2015   10        9    22  30    2.3248   464.4    4.244      30.467
2015   10        9    22  37    2.3237   464.1    4.245      30.427
2015   10        9    22  44    2.3227   463.9    4.247      30.388
2015   10        9    22  51    2.3217   463.6    4.249      30.350
2015   10        9    22  59    2.3207   463.3    4.250      30.311
2015   10        9    23   6    2.3197   463.0    4.252      30.273
2015   10        9    23  13    2.3188   462.8    4.254      30.235
2015   10        9    23  20    2.3179   462.5    4.257      30.198
2015   10        9    23  28    2.3170   462.2    4.259      30.161
2015   10        9    23  35    2.3162   461.9    4.261      30.125
2015   10        9    23  42    2.3154   461.7    4.264      30.088
2015   10        9    23  49    2.3146   461.4    4.266      30.052
2015   10        9    23  57    2.3138   461.1    4.269      30.016
2015   10       10     0   4    2.3130   460.8    4.272      29.980
2015   10       10     0  11    2.3123   460.6    4.274      29.944
2015   10       10     0  18    2.3115   460.3    4.277      29.909
2015   10       10     0  26    2.3108   460.0    4.280      29.873
2015   10       10     0  33    2.3102   459.7    4.283      29.838
2015   10       10     0  40    2.3095   459.4    4.285      29.802
2015   10       10     0  47    2.3088   459.2    4.288      29.766
2015   10       10     0  55    2.3082   458.9    4.291      29.730
2015   10       10     1   2    2.3076   458.6    4.294      29.695
2015   10       10     1   9    2.3070   458.3    4.296      29.659
2015   10       10     1  16    2.3064   458.0    4.299      29.623
2015   10       10     1  24    2.3059   457.7    4.301      29.586
2015   10       10     1  31    2.3053   457.5    4.304      29.550
2015   10       10     1  38    2.3048   457.2    4.306      29.513
2015   10       10     1  45    2.3044   456.9    4.308      29.477
2015   10       10     1  53    2.3039   456.6    4.310      29.440
2015   10       10     2   0    2.3035   456.3    4.313      29.404
2015   10       10     2   7    2.3031   456.0    4.315      29.367
2015   10       10     2  14    2.3028   455.7    4.317      29.331
2015   10       10     2  21    2.3024   455.4    4.319      29.294
2015   10       10     2  29    2.3022   455.2    4.321      29.257
2015   10       10     2  36    2.3019   454.9    4.323      29.220
2015   10       10     2  43    2.3017   454.6    4.325      29.183
2015   10       10     2  50    2.3015   454.3    4.327      29.146
2015   10       10     2  58    2.3014   454.0    4.329      29.109
2015   10       10     3   5    2.3013   453.7    4.330      29.072
2015   10       10     3  12    2.3012   453.4    4.332      29.035
2015   10       10     3  19    2.3011   453.1    4.334      28.998
2015   10       10     3  27    2.3011   452.8    4.336      28.961
2015   10       10     3  34    2.3011   452.5    4.338      28.923
2015   10       10     3  41    2.3011   452.2    4.339      28.886
2015   10       10     3  48    2.3012   451.9    4.341      28.848
2015   10       10     3  55    2.3013   451.6    4.343      28.811
2015   10       10     4   3    2.3014   451.3    4.345      28.773
2015   10       10     4  10    2.3016   451.0    4.347      28.736
2015   10       10     4  17    2.3018   450.7    4.349      28.699
2015   10       10     4  24    2.3020   450.4    4.351      28.662
2015   10       10     4  32    2.3022   450.1    4.353      28.625
2015   10       10     4  39    2.3025   449.7    4.356      28.588
2015   10       10     4  46    2.3028   449.4    4.358      28.551
2015   10       10     4  53    2.3031   449.1    4.361      28.515
2015   10       10     5   1    2.3035   448.8    4.364      28.479
2015   10       10     5   8    2.3040   448.5    4.367      28.444
2015   10       10     5  15    2.3045   448.2    4.370      28.408
2015   10       10     5  22    2.3050   447.9    4.373      28.374
2015   10       10     5  30    2.3055   447.5    4.377      28.340
2015   10       10     5  37    2.3062   447.2    4.381      28.306
2015   10       10     5  44    2.3068   446.9    4.385      28.274
2015   10       10     5  51    2.3075   446.6    4.389      28.242
2015   10       10     5  59    2.3083   446.3    4.394      28.210
2015   10       10     6   6    2.3091   446.0    4.399      28.180
2015   10       10     6  13    2.3100   445.6    4.404      28.150
2015   10       10     6  20    2.3109   445.3    4.410      28.122
2015   10       10     6  28    2.3119   445.0    4.416      28.093
2015   10       10     6  35    2.3129   444.7    4.422      28.067
2015   10       10     6  42    2.3140   444.4    4.429      28.040
2015   10       10     6  49    2.3151   444.0    4.435      28.015
2015   10       10     6  57    2.3163   443.7    4.443      27.990
2015   10       10     7   4    2.3176   443.4    4.450      27.967
2015   10       10     7  11    2.3189   443.1    4.458      27.944
2015   10       10     7  18    2.3203   442.7    4.466      27.923
2015   10       10     7  26    2.3217   442.4    4.475      27.902
2015   10       10     7  33    2.3233   442.1    4.484      27.883
2015   10       10     7  40    2.3249   441.8    4.494      27.864
2015   10       10     7  47    2.3266   441.4    4.503      27.847
2015   10       10     7  55    2.3284   441.1    4.514      27.831
2015   10       10     8   2    2.3302   440.8    4.524      27.816
2015   10       10     8   9    2.3322   440.5    4.535      27.803
2015   10       10     8  16    2.3343   440.2    4.547      27.791
2015   10       10     8  24    2.3365   439.8    4.558      27.779
2015   10       10     8  31    2.3387   439.5    4.571      27.770
2015   10       10     8  38    2.3411   439.2    4.583      27.762
2015   10       10     8  45    2.3436   438.9    4.596      27.755
2015   10       10     8  53    2.3462   438.5    4.610      27.749
2015   10       10     9   0    2.3489   438.2    4.623      27.745
2015   10       10     9   7    2.3517   437.9    4.637      27.742
2015   10       10     9  14    2.3546   437.6    4.652      27.741
2015   10       10     9  22    2.3577   437.3    4.667      27.740
2015   10       10     9  29    2.3609   437.0    4.682      27.741
2015   10       10     9  36    2.3642   436.7    4.697      27.743
2015   10       10     9  43    2.3675   436.4    4.713      27.746
2015   10       10     9  51    2.3710   436.1    4.729      27.749
2015   10       10     9  58    2.3746   435.8    4.745      27.754
2015   10       10    10   5    2.3783   435.5    4.761      27.759
2015   10       10    10  12    2.3820   435.3    4.777      27.765
2015   10       10    10  19    2.3859   435.0    4.794      27.772
2015   10       10    10  27    2.3899   434.7    4.811      27.779
2015   10       10    10  34    2.3939   434.4    4.827      27.786
2015   10       10    10  41    2.3980   434.2    4.844      27.794
2015   10       10    10  48    2.4022   433.9    4.861      27.801
2015   10       10    10  56    2.4065   433.6    4.878      27.809
2015   10       10    11   3    2.4109   433.3    4.895      27.817
2015   10       10    11  10    2.4153   433.1    4.912      27.825
2015   10       10    11  17    2.4198   432.8    4.930      27.833
2015   10       10    11  25    2.4244   432.5    4.947      27.841
2015   10       10    11  32    2.4291   432.3    4.964      27.849
2015   10       10    11  39    2.4338   432.0    4.982      27.858
2015   10       10    11  46    2.4387   431.8    4.999      27.866
2015   10       10    11  54    2.4436   431.5    5.017      27.875
2015   10       10    12   1    2.4487   431.3    5.035      27.884
2015   10       10    12   8    2.4537   431.0    5.053      27.894
2015   10       10    12  15    2.4589   430.8    5.071      27.905
2015   10       10    12  22    2.4640   430.5    5.090      27.917
2015   10       10    12  30    2.4694   430.3    5.108      27.931
2015   10       10    12  37    2.4746   430.0    5.127      27.946
2015   10       10    12  44    2.4800   429.8    5.146      27.963
2015   10       10    12  51    2.4853   429.6    5.165      27.983
2015   10       10    12  59    2.4906   429.4    5.184      28.005
2015   10       10    13   6    2.4959   429.2    5.203      28.030
2015   10       10    13  13    2.5012   429.0    5.221      28.059
2015   10       10    13  20    2.5065   428.8    5.240      28.091
2015   10       10    13  28    2.5118   428.6    5.258      28.125
2015   10       10    13  35    2.5170   428.4    5.276      28.163
2015   10       10    13  42    2.5224   428.2    5.294      28.202
2015   10       10    13  49    2.5276   428.1    5.312      28.243
2015   10       10    13  57    2.5329   427.9    5.329      28.286
2015   10       10    14   4    2.5382   427.7    5.347      28.330
2015   10       10    14  11    2.5435   427.6    5.364      28.375
2015   10       10    14  18    2.5488   427.4    5.381      28.420
2015   10       10    14  26    2.5542   427.2    5.399      28.466
2015   10       10    14  33    2.5596   427.1    5.416      28.511
2015   10       10    14  40    2.5651   426.9    5.433      28.555
2015   10       10    14  48    2.5705   426.7    5.451      28.600
2015   10       10    14  55    2.5761   426.6    5.469      28.644
2015   10       10    15   2    2.5817   426.4    5.486      28.688
2015   10       10    15   9    2.5875   426.3    5.505      28.732
2015   10       10    15  17    2.5932   426.1    5.523      28.776
2015   10       10    15  24    2.5991   426.0    5.542      28.820
2015   10       10    15  31    2.6050   425.8    5.560      28.864
2015   10       10    15  38    2.6111   425.7    5.580      28.909
2015   10       10    15  45    2.6172   425.5    5.599      28.954
2015   10       10    15  53    2.6235   425.4    5.619      28.999
2015   10       10    16   0    2.6298   425.3    5.640      29.045
2015   10       10    16   7    2.6363   425.1    5.660      29.091
2015   10       10    16  14    2.6428   425.0    5.681      29.137
2015   10       10    16  22    2.6495   424.9    5.703      29.183
2015   10       10    16  29    2.6562   424.8    5.725      29.230
2015   10       10    16  36    2.6631   424.7    5.747      29.278
2015   10       10    16  43    2.6700   424.5    5.769      29.326
2015   10       10    16  51    2.6771   424.4    5.792      29.375
2015   10       10    16  58    2.6842   424.3    5.815      29.424
2015   10       10    17   5    2.6915   424.2    5.839      29.473
2015   10       10    17  12    2.6989   424.1    5.862      29.523
2015   10       10    17  20    2.7064   424.1    5.886      29.574
2015   10       10    17  27    2.7139   424.0    5.911      29.624
2015   10       10    17  34    2.7216   423.9    5.935      29.676
2015   10       10    17  41    2.7293   423.8    5.960      29.727
2015   10       10    17  49    2.7371   423.7    5.985      29.779
2015   10       10    17  56    2.7450   423.7    6.010      29.831
2015   10       10    18   3    2.7530   423.6    6.036      29.884
2015   10       10    18  10    2.7611   423.5    6.062      29.937
2015   10       10    18  17    2.7693   423.5    6.088      29.990
2015   10       10    18  25    2.7775   423.4    6.115      30.044
2015   10       10    18  32    2.7858   423.3    6.142      30.098
2015   10       10    18  39    2.7942   423.3    6.169      30.151
2015   10       10    18  46    2.8027   423.2    6.197      30.206
2015   10       10    18  54    2.8113   423.2    6.225      30.261
2015   10       10    19   1    2.8200   423.1    6.254      30.317
2015   10       10    19   8    2.8287   423.0    6.283      30.373
2015   10       10    19  15    2.8376   423.0    6.313      30.431
2015   10       10    19  23    2.8465   423.0    6.344      30.490
2015   10       10    19  30    2.8556   422.9    6.375      30.552
2015   10       10    19  37    2.8646   422.9    6.406      30.617
2015   10       10    19  44    2.8738   422.8    6.438      30.684
2015   10       10    19  52    2.8829   422.8    6.470      30.754
2015   10       10    19  59    2.8921   422.8    6.503      30.828
2015   10       10    20   6    2.9012   422.8    6.536      30.907
2015   10       10    20  13    2.9102   422.8    6.568      30.992
2015   10       10    20  21    2.9190   422.9    6.599      31.082
2015   10       10    20  28    2.9278   422.9    6.630      31.178
2015   10       10    20  35    2.9364   423.0    6.660      31.277
2015   10       10    20  42    2.9449   423.0    6.689      31.382
2015   10       10    20  50    2.9531   423.1    6.716      31.485
2015   10       10    20  57    2.9614   423.2    6.743      31.590
2015   10       10    21   4    2.9694   423.2    6.769      31.693
2015   10       10    21  11    2.9773   423.3    6.793      31.797
2015   10       10    21  19    2.9851   423.4    6.817      31.900
2015   10       10    21  26    2.9929   423.5    6.840      32.003
2015   10       10    21  33    3.0004   423.6    6.862      32.104
2015   10       10    21  40    3.0080   423.6    6.884      32.205
2015   10       10    21  48    3.0155   423.7    6.904      32.303
2015   10       10    21  55    3.0229   423.8    6.925      32.401
2015   10       10    22   2    3.0302   423.9    6.944      32.497
2015   10       10    22   9    3.0376   424.0    6.963      32.591
2015   10       10    22  17    3.0448   424.1    6.981      32.684
2015   10       10    22  24    3.0520   424.2    6.999      32.776
2015   10       10    22  31    3.0592   424.3    7.016      32.865
2015   10       10    22  38    3.0664   424.4    7.033      32.955
2015   10       10    22  46    3.0734   424.5    7.050      33.042
2015   10       10    22  53    3.0806   424.6    7.066      33.128
2015   10       10    23   0    3.0876   424.7    7.082      33.213
2015   10       10    23   7    3.0947   424.8    7.097      33.297
2015   10       10    23  15    3.1017   424.9    7.113      33.379
2015   10       10    23  22    3.1088   425.0    7.128      33.461
2015   10       10    23  29    3.1158   425.1    7.143      33.541
2015   10       10    23  36    3.1229   425.2    7.158      33.621
2015   10       10    23  43    3.1299   425.3    7.173      33.699
2015   10       10    23  51    3.1370   425.4    7.188      33.777
2015   10       10    23  58    3.1440   425.5    7.203      33.854
2015   10       11     0   5    3.1511   425.7    7.218      33.930
2015   10       11     0  12    3.1583   425.8    7.232      34.007
2015   10       11     0  20    3.1655   425.9    7.248      34.084
2015   10       11     0  27    3.1728   426.0    7.263      34.161
2015   10       11     0  34    3.1802   426.1    7.278      34.239
2015   10       11     0  41    3.1876   426.2    7.294      34.317
2015   10       11     0  49    3.1951   426.4    7.309      34.398
2015   10       11     0  56    3.2027   426.5    7.325      34.479
2015   10       11     1   3    3.2103   426.7    7.340      34.563
2015   10       11     1  10    3.2180   426.8    7.355      34.648
2015   10       11     1  18    3.2257   427.0    7.370      34.734
2015   10       11     1  25    3.2334   427.1    7.385      34.819
2015   10       11     1  32    3.2411   427.3    7.400      34.903
2015   10       11     1  39    3.2486   427.4    7.414      34.986
2015   10       11     1  47    3.2562   427.6    7.429      35.068
2015   10       11     1  54    3.2636   427.7    7.443      35.148
2015   10       11     2   1    3.2711   427.9    7.457      35.228
2015   10       11     2   8    3.2784   428.0    7.471      35.306
2015   10       11     2  15    3.2858   428.2    7.486      35.383
2015   10       11     2  23    3.2931   428.3    7.500      35.459
2015   10       11     2  30    3.3004   428.5    7.515      35.535
2015   10       11     2  37    3.3076   428.6    7.530      35.609
2015   10       11     2  44    3.3148   428.8    7.545      35.685
2015   10       11     2  52    3.3220   428.9    7.561      35.760
2015   10       11     2  59    3.3291   429.1    7.577      35.837
2015   10       11     3   6    3.3362   429.2    7.592      35.913
2015   10       11     3  13    3.3432   429.3    7.608      35.990
2015   10       11     3  21    3.3502   429.5    7.624      36.068
2015   10       11     3  28    3.3571   429.7    7.640      36.150
2015   10       11     3  35    3.3638   429.8    7.655      36.233
2015   10       11     3  42    3.3704   430.0    7.670      36.320
2015   10       11     3  50    3.3768   430.2    7.683      36.409
2015   10       11     3  57    3.3831   430.4    7.697      36.501
2015   10       11     4   4    3.3892   430.5    7.709      36.592
2015   10       11     4  11    3.3952   430.7    7.720      36.683
2015   10       11     4  19    3.4010   430.9    7.731      36.772
2015   10       11     4  26    3.4067   431.1    7.741      36.860
2015   10       11     4  33    3.4123   431.2    7.751      36.946
2015   10       11     4  40    3.4177   431.4    7.759      37.031
2015   10       11     4  48    3.4230   431.6    7.767      37.114
2015   10       11     4  55    3.4283   431.8    7.775      37.197
2015   10       11     5   2    3.4334   432.0    7.782      37.279
2015   10       11     5   9    3.4384   432.1    7.788      37.359
2015   10       11     5  17    3.4433   432.3    7.794      37.439
2015   10       11     5  24    3.4482   432.5    7.799      37.518
2015   10       11     5  31    3.4530   432.7    7.804      37.596
2015   10       11     5  38    3.4577   432.9    7.809      37.673
2015   10       11     5  46    3.4623   433.1    7.813      37.748
2015   10       11     5  53    3.4669   433.3    7.817      37.824
2015   10       11     6   0    3.4714   433.5    7.820      37.898
2015   10       11     6   7    3.4758   433.7    7.824      37.972
2015   10       11     6  15    3.4803   433.9    7.827      38.044
2015   10       11     6  22    3.4846   434.1    7.830      38.116
2015   10       11     6  29    3.4889   434.3    7.832      38.187
2015   10       11     6  36    3.4933   434.4    7.835      38.257
2015   10       11     6  44    3.4975   434.6    7.838      38.326
2015   10       11     6  51    3.5018   434.8    7.841      38.395
2015   10       11     6  58    3.5060   435.0    7.844      38.463
2015   10       11     7   5    3.5103   435.2    7.847      38.531
2015   10       11     7  13    3.5145   435.4    7.851      38.599
2015   10       11     7  20    3.5189   435.6    7.855      38.668
2015   10       11     7  27    3.5232   435.8    7.859      38.737
2015   10       11     7  34    3.5276   435.9    7.863      38.807
2015   10       11     7  41    3.5321   436.1    7.868      38.878
2015   10       11     7  49    3.5366   436.3    7.873      38.951
2015   10       11     7  56    3.5412   436.6    7.879      39.026
2015   10       11     8   3    3.5460   436.8    7.885      39.105
2015   10       11     8  10    3.5508   437.0    7.891      39.186
2015   10       11     8  18    3.5557   437.2    7.897      39.269
2015   10       11     8  25    3.5606   437.4    7.904      39.353
2015   10       11     8  32    3.5657   437.7    7.911      39.439
2015   10       11     8  39    3.5707   437.9    7.919      39.527
2015   10       11     8  47    3.5758   438.2    7.926      39.617
2015   10       11     8  54    3.5809   438.4    7.934      39.709
2015   10       11     9   1    3.5861   438.6    7.942      39.802
2015   10       11     9   8    3.5913   438.9    7.951      39.896
2015   10       11     9  16    3.5966   439.2    7.959      39.994
2015   10       11     9  23    3.6019   439.5    7.968      40.095
2015   10       11     9  30    3.6071   439.7    7.976      40.198
2015   10       11     9  37    3.6122   440.1    7.983      40.303
2015   10       11     9  45    3.6172   440.4    7.989      40.412
2015   10       11     9  52    3.6219   440.7    7.994      40.518
2015   10       11     9  59    3.6265   441.0    7.998      40.622
2015   10       11    10   6    3.6309   441.3    8.002      40.722
2015   10       11    10  14    3.6350   441.6    8.004      40.819
2015   10       11    10  21    3.6390   441.9    8.005      40.914
2015   10       11    10  28    3.6428   442.2    8.006      41.006
2015   10       11    10  35    3.6463   442.5    8.006      41.096
2015   10       11    10  42    3.6498   442.8    8.005      41.184
2015   10       11    10  50    3.6531   443.0    8.004      41.271
2015   10       11    10  57    3.6563   443.3    8.002      41.356
2015   10       11    11   4    3.6593   443.6    7.999      41.440
2015   10       11    11  11    3.6622   443.9    7.997      41.523
2015   10       11    11  19    3.6650   444.2    7.994      41.604
2015   10       11    11  26    3.6677   444.5    7.990      41.684
2015   10       11    11  33    3.6703   444.7    7.986      41.763
2015   10       11    11  40    3.6728   445.0    7.982      41.841
2015   10       11    11  48    3.6751   445.3    7.978      41.917
2015   10       11    11  55    3.6774   445.6    7.973      41.992
2015   10       11    12   2    3.6796   445.8    7.968      42.065
2015   10       11    12  10    3.6817   446.1    7.962      42.137
2015   10       11    12  17    3.6837   446.4    7.957      42.207
2015   10       11    12  24    3.6856   446.6    7.951      42.276
2015   10       11    12  31    3.6873   446.9    7.945      42.342
2015   10       11    12  39    3.6891   447.2    7.938      42.406
2015   10       11    12  46    3.6907   447.4    7.932      42.468
2015   10       11    12  53    3.6923   447.7    7.925      42.528
2015   10       11    13   0    3.6937   447.9    7.918      42.586
2015   10       11    13   8    3.6951   448.2    7.910      42.642
2015   10       11    13  15    3.6965   448.5    7.903      42.695
2015   10       11    13  22    3.6977   448.7    7.895      42.747
2015   10       11    13  29    3.6989   449.0    7.888      42.797
2015   10       11    13  37    3.7001   449.2    7.880      42.845
2015   10       11    13  44    3.7012   449.5    7.872      42.890
2015   10       11    13  51    3.7023   449.7    7.864      42.934
2015   10       11    13  58    3.7033   449.9    7.856      42.976
2015   10       11    14   5    3.7044   450.2    7.847      43.017
2015   10       11    14  13    3.7054   450.4    7.839      43.056
2015   10       11    14  20    3.7063   450.7    7.831      43.093
2015   10       11    14  27    3.7073   450.9    7.824      43.130
2015   10       11    14  34    3.7082   451.1    7.816      43.165
2015   10       11    14  42    3.7092   451.4    7.808      43.199
2015   10       11    14  49    3.7102   451.6    7.801      43.233
2015   10       11    14  56    3.7112   451.8    7.794      43.266
2015   10       11    15   3    3.7122   452.1    7.787      43.299
2015   10       11    15  11    3.7132   452.3    7.781      43.332
2015   10       11    15  18    3.7143   452.5    7.775      43.365
2015   10       11    15  25    3.7155   452.7    7.770      43.398
2015   10       11    15  32    3.7166   453.0    7.765      43.433
2015   10       11    15  39    3.7179   453.2    7.761      43.468
2015   10       11    15  47    3.7193   453.4    7.758      43.503
2015   10       11    15  54    3.7208   453.6    7.755      43.541
2015   10       11    16   1    3.7224   453.8    7.753      43.583
2015   10       11    16   8    3.7241   454.1    7.752      43.626
2015   10       11    16  16    3.7258   454.3    7.752      43.672
2015   10       11    16  23    3.7277   454.5    7.753      43.719
2015   10       11    16  30    3.7297   454.8    7.755      43.772
2015   10       11    16  37    3.7319   455.0    7.756      43.829
2015   10       11    16  45    3.7340   455.3    7.759      43.891
2015   10       11    16  52    3.7361   455.6    7.761      43.956
2015   10       11    16  59    3.7382   455.9    7.762      44.028
2015   10       11    17   6    3.7402   456.2    7.763      44.103
2015   10       11    17  14    3.7420   456.5    7.763      44.178
2015   10       11    17  21    3.7438   456.9    7.762      44.251
2015   10       11    17  28    3.7453   457.2    7.759      44.321
2015   10       11    17  35    3.7467   457.5    7.756      44.388
2015   10       11    17  43    3.7478   457.8    7.751      44.452
2015   10       11    17  50    3.7488   458.2    7.745      44.512
2015   10       11    17  57    3.7494   458.5    7.738      44.569
2015   10       11    18   4    3.7499   458.8    7.730      44.622
2015   10       11    18  12    3.7502   459.1    7.721      44.673
2015   10       11    18  19    3.7504   459.4    7.711      44.722
2015   10       11    18  26    3.7503   459.7    7.701      44.768
2015   10       11    18  33    3.7502   460.0    7.691      44.812
2015   10       11    18  41    3.7500   460.3    7.680      44.854
2015   10       11    18  48    3.7496   460.6    7.669      44.894
2015   10       11    18  55    3.7491   460.8    7.657      44.932
2015   10       11    19   2    3.7486   461.1    7.645      44.969
2015   10       11    19  10    3.7480   461.4    7.633      45.005
2015   10       11    19  17    3.7473   461.7    7.621      45.038
2015   10       11    19  24    3.7464   461.9    7.608      45.071
2015   10       11    19  31    3.7455   462.2    7.595      45.101
2015   10       11    19  39    3.7445   462.5    7.582      45.130
2015   10       11    19  46    3.7435   462.7    7.568      45.157
2015   10       11    19  53    3.7423   463.0    7.555      45.182
2015   10       11    20   0    3.7411   463.3    7.541      45.205
2015   10       11    20   8    3.7398   463.5    7.526      45.225
2015   10       11    20  15    3.7384   463.8    7.512      45.244
2015   10       11    20  22    3.7369   464.1    7.497      45.261
2015   10       11    20  29    3.7354   464.3    7.482      45.275
2015   10       11    20  37    3.7337   464.6    7.467      45.287
2015   10       11    20  44    3.7321   464.8    7.452      45.297
2015   10       11    20  51    3.7303   465.1    7.436      45.305
2015   10       11    20  58    3.7285   465.3    7.420      45.312
2015   10       11    21   6    3.7266   465.6    7.404      45.316
2015   10       11    21  13    3.7247   465.9    7.388      45.318
2015   10       11    21  20    3.7228   466.1    7.372      45.319
2015   10       11    21  27    3.7208   466.4    7.356      45.319
2015   10       11    21  34    3.7188   466.6    7.340      45.317
2015   10       11    21  42    3.7167   466.9    7.324      45.314
2015   10       11    21  49    3.7146   467.1    7.307      45.310
2015   10       11    21  56    3.7126   467.4    7.291      45.305
2015   10       11    22   3    3.7104   467.6    7.274      45.299
2015   10       11    22  11    3.7083   467.9    7.257      45.293
2015   10       11    22  18    3.7062   468.1    7.241      45.286
2015   10       11    22  25    3.7040   468.4    7.224      45.278
2015   10       11    22  32    3.7017   468.7    7.206      45.270
2015   10       11    22  40    3.6995   469.0    7.189      45.260
2015   10       11    22  47    3.6971   469.2    7.171      45.248
2015   10       11    22  54    3.6947   469.5    7.152      45.234
2015   10       11    23   1    3.6921   469.8    7.133      45.217
2015   10       11    23   9    3.6895   470.0    7.114      45.198
2015   10       11    23  16    3.6868   470.3    7.094      45.177
2015   10       11    23  23    3.6839   470.5    7.074      45.152
2015   10       11    23  30    3.6809   470.8    7.054      45.121
2015   10       11    23  37    3.6778   471.0    7.033      45.089
2015   10       11    23  45    3.6747   471.2    7.013      45.054
2015   10       11    23  52    3.6716   471.4    6.994      45.018
2015   10       11    23  59    3.6685   471.6    6.975      44.980
2015   10       12     0   6    3.6656   471.8    6.958      44.947
2015   10       12     0  14    3.6628   471.9    6.941      44.917
2015   10       12     0  21    3.6602   472.1    6.925      44.890
2015   10       12     0  28    3.6576   472.3    6.909      44.866
2015   10       12     0  35    3.6552   472.5    6.894      44.844
2015   10       12     0  43    3.6528   472.7    6.879      44.823
2015   10       12     0  50    3.6505   472.9    6.863      44.801
2015   10       12     0  57    3.6481   473.1    6.848      44.778
2015   10       12     1   4    3.6458   473.3    6.832      44.754
2015   10       12     1  12    3.6432   473.5    6.817      44.729
2015   10       12     1  19    3.6407   473.7    6.801      44.702
2015   10       12     1  26    3.6380   473.8    6.785      44.672
2015   10       12     1  33    3.6354   474.0    6.769      44.642
2015   10       12     1  41    3.6326   474.2    6.753      44.610
2015   10       12     1  48    3.6299   474.3    6.737      44.577
2015   10       12     1  55    3.6271   474.5    6.721      44.541
2015   10       12     2   2    3.6243   474.6    6.705      44.505
2015   10       12     2  10    3.6214   474.8    6.690      44.468
2015   10       12     2  17    3.6185   474.9    6.675      44.429
2015   10       12     2  24    3.6156   475.1    6.660      44.389
2015   10       12     2  31    3.6127   475.2    6.645      44.349
2015   10       12     2  39    3.6098   475.4    6.630      44.307
2015   10       12     2  46    3.6068   475.5    6.616      44.265
2015   10       12     2  53    3.6038   475.6    6.602      44.222
2015   10       12     3   0    3.6007   475.8    6.588      44.179
2015   10       12     3   8    3.5976   475.9    6.574      44.134
2015   10       12     3  15    3.5945   476.1    6.561      44.088
2015   10       12     3  22    3.5913   476.2    6.547      44.042
2015   10       12     3  29    3.5880   476.4    6.534      43.995
2015   10       12     3  37    3.5847   476.5    6.520      43.947
2015   10       12     3  44    3.5814   476.6    6.507      43.898
2015   10       12     3  51    3.5781   476.8    6.494      43.849
2015   10       12     3  58    3.5748   476.9    6.481      43.800
2015   10       12     4   6    3.5714   477.0    6.468      43.751
2015   10       12     4  13    3.5682   477.1    6.455      43.703
2015   10       12     4  20    3.5648   477.2    6.442      43.654
2015   10       12     4  27    3.5616   477.3    6.430      43.606
2015   10       12     4  35    3.5583   477.5    6.418      43.559
2015   10       12     4  42    3.5551   477.6    6.406      43.513
2015   10       12     4  49    3.5519   477.7    6.394      43.468
2015   10       12     4  56    3.5487   477.8    6.382      43.425
2015   10       12     5   4    3.5455   477.9    6.371      43.384
2015   10       12     5  11    3.5424   478.0    6.360      43.344
2015   10       12     5  18    3.5393   478.1    6.349      43.306
2015   10       12     5  25    3.5362   478.2    6.339      43.271
2015   10       12     5  32    3.5331   478.3    6.329      43.237
2015   10       12     5  40    3.5301   478.4    6.319      43.205
2015   10       12     5  47    3.5271   478.5    6.309      43.175
2015   10       12     5  54    3.5242   478.6    6.299      43.147
2015   10       12     6   1    3.5213   478.7    6.289      43.119
2015   10       12     6   9    3.5184   478.8    6.278      43.089
2015   10       12     6  16    3.5156   478.9    6.268      43.059
2015   10       12     6  23    3.5127   479.1    6.258      43.027
2015   10       12     6  30    3.5098   479.2    6.247      42.996
2015   10       12     6  38    3.5069   479.3    6.235      42.960
2015   10       12     6  45    3.5040   479.4    6.223      42.919
2015   10       12     6  52    3.5010   479.5    6.210      42.875
2015   10       12     6  59    3.4980   479.6    6.197      42.827
2015   10       12     7   7    3.4950   479.6    6.184      42.775
2015   10       12     7  14    3.4920   479.7    6.171      42.719
2015   10       12     7  21    3.4892   479.7    6.159      42.666
2015   10       12     7  28    3.4865   479.7    6.147      42.613
2015   10       12     7  35    3.4838   479.8    6.136      42.563
2015   10       12     7  43    3.4812   479.8    6.124      42.513
2015   10       12     7  50    3.4787   479.8    6.114      42.465
2015   10       12     7  57    3.4763   479.9    6.103      42.418
2015   10       12     8   4    3.4740   479.9    6.093      42.373
2015   10       12     8  12    3.4717   479.9    6.083      42.328
2015   10       12     8  19    3.4694   479.9    6.074      42.285
2015   10       12     8  26    3.4672   479.9    6.065      42.242
2015   10       12     8  33    3.4650   479.9    6.056      42.200
2015   10       12     8  41    3.4629   479.9    6.047      42.158
2015   10       12     8  48    3.4608   479.9    6.038      42.117
2015   10       12     8  55    3.4587   480.0    6.030      42.077
2015   10       12     9   2    3.4567   480.0    6.021      42.037
2015   10       12     9  10    3.4546   480.0    6.013      41.997
2015   10       12     9  17    3.4526   480.0    6.005      41.958
2015   10       12     9  24    3.4506   480.0    5.997      41.917
2015   10       12     9  31    3.4486   480.0    5.989      41.877
2015   10       12     9  39    3.4466   480.0    5.982      41.836
2015   10       12     9  46    3.4446   480.1    5.975      41.795
2015   10       12     9  53    3.4426   480.1    5.968      41.754
2015   10       12    10   0    3.4406   480.1    5.961      41.713
2015   10       12    10   8    3.4386   480.1    5.955      41.671
2015   10       12    10  15    3.4366   480.1    5.949      41.629
2015   10       12    10  22    3.4346   480.2    5.943      41.587
2015   10       12    10  29    3.4326   480.2    5.937      41.544
2015   10       12    10  37    3.4305   480.2    5.931      41.501
2015   10       12    10  44    3.4285   480.2    5.926      41.458
2015   10       12    10  51    3.4264   480.2    5.921      41.415
2015   10       12    10  58    3.4244   480.2    5.915      41.372
2015   10       12    11   6    3.4223   480.2    5.910      41.328
2015   10       12    11  13    3.4203   480.2    5.906      41.286
2015   10       12    11  20    3.4184   480.2    5.901      41.244
2015   10       12    11  27    3.4165   480.2    5.897      41.203
2015   10       12    11  35    3.4147   480.2    5.892      41.162
2015   10       12    11  42    3.4129   480.2    5.889      41.124
2015   10       12    11  49    3.4112   480.2    5.885      41.086
2015   10       12    11  56    3.4096   480.2    5.882      41.051
2015   10       12    12   4    3.4080   480.2    5.879      41.017
2015   10       12    12  11    3.4065   480.1    5.876      40.985
2015   10       12    12  18    3.4051   480.1    5.874      40.956
2015   10       12    12  25    3.4036   480.1    5.872      40.929
2015   10       12    12  33    3.4023   480.0    5.871      40.904
2015   10       12    12  40    3.4011   480.0    5.870      40.882
2015   10       12    12  47    3.3999   480.0    5.870      40.863
2015   10       12    12  54    3.3989   479.9    5.870      40.847
2015   10       12    13   1    3.3979   479.9    5.870      40.834
2015   10       12    13   9    3.3971   479.8    5.872      40.824
2015   10       12    13  16    3.3965   479.8    5.873      40.817
2015   10       12    13  23    3.3959   479.7    5.876      40.813
2015   10       12    13  30    3.3956   479.7    5.878      40.811
2015   10       12    13  38    3.3953   479.7    5.881      40.812
2015   10       12    13  45    3.3952   479.6    5.885      40.816
2015   10       12    13  52    3.3953   479.6    5.888      40.822
2015   10       12    13  59    3.3955   479.6    5.892      40.828
2015   10       12    14   7    3.3957   479.5    5.896      40.837
2015   10       12    14  14    3.3961   479.5    5.899      40.844
2015   10       12    14  21    3.3965   479.5    5.902      40.851
2015   10       12    14  28    3.3970   479.5    5.906      40.857
2015   10       12    14  36    3.3974   479.5    5.909      40.863
2015   10       12    14  43    3.3979   479.4    5.912      40.868
2015   10       12    14  50    3.3983   479.4    5.915      40.873
2015   10       12    14  57    3.3988   479.4    5.918      40.878
2015   10       12    15   4    3.3992   479.4    5.920      40.883
2015   10       12    15  12    3.3996   479.4    5.923      40.888
2015   10       12    15  19    3.3999   479.4    5.925      40.894
2015   10       12    15  26    3.4002   479.4    5.927      40.900
2015   10       12    15  33    3.4004   479.4    5.929      40.907
2015   10       12    15  41    3.4007   479.4    5.930      40.913
2015   10       12    15  48    3.4009   479.4    5.931      40.918
2015   10       12    15  55    3.4011   479.4    5.932      40.921
2015   10       12    16   2    3.4013   479.4    5.933      40.924
2015   10       12    16  10    3.4015   479.4    5.933      40.926
2015   10       12    16  17    3.4017   479.4    5.934      40.927
2015   10       12    16  24    3.4018   479.4    5.934      40.927
2015   10       12    16  31    3.4020   479.4    5.933      40.926
2015   10       12    16  39    3.4022   479.4    5.933      40.924
2015   10       12    16  46    3.4023   479.4    5.933      40.922
2015   10       12    16  53    3.4025   479.4    5.932      40.919
2015   10       12    17   0    3.4027   479.4    5.932      40.916
2015   10       12    17   8    3.4029   479.4    5.931      40.912
2015   10       12    17  15    3.4031   479.4    5.930      40.908
2015   10       12    17  22    3.4033   479.4    5.929      40.903
2015   10       12    17  29    3.4035   479.4    5.928      40.899
2015   10       12    17  37    3.4038   479.4    5.927      40.893
2015   10       12    17  44    3.4040   479.4    5.926      40.888
2015   10       12    17  51    3.4043   479.4    5.925      40.882
2015   10       12    17  59    3.4046   479.4    5.924      40.876
2015   10       12    18   6    3.4049   479.4    5.923      40.870
2015   10       12    18  13    3.4053   479.4    5.922      40.863
2015   10       12    18  20    3.4057   479.4    5.921      40.857
2015   10       12    18  27    3.4061   479.5    5.920      40.850
2015   10       12    18  35    3.4065   479.5    5.919      40.844
2015   10       12    18  42    3.4070   479.5    5.918      40.838
2015   10       12    18  49    3.4075   479.5    5.917      40.832
2015   10       12    18  56    3.4080   479.5    5.917      40.827
2015   10       12    19   4    3.4086   479.5    5.916      40.822
2015   10       12    19  11    3.4092   479.5    5.915      40.817
2015   10       12    19  18    3.4099   479.5    5.915      40.813
2015   10       12    19  25    3.4106   479.5    5.915      40.810
2015   10       12    19  33    3.4113   479.5    5.915      40.807
2015   10       12    19  40    3.4121   479.5    5.915      40.805
2015   10       12    19  47    3.4130   479.6    5.915      40.804
2015   10       12    19  54    3.4138   479.6    5.915      40.804
2015   10       12    20   2    3.4148   479.6    5.916      40.804
2015   10       12    20   9    3.4158   479.6    5.917      40.806
2015   10       12    20  16    3.4168   479.6    5.918      40.808
2015   10       12    20  23    3.4179   479.6    5.919      40.812
2015   10       12    20  31    3.4190   479.6    5.921      40.816
2015   10       12    20  38    3.4202   479.7    5.922      40.822
2015   10       12    20  45    3.4215   479.7    5.924      40.828
2015   10       12    20  52    3.4228   479.7    5.927      40.836
2015   10       12    20  59    3.4242   479.7    5.929      40.844
2015   10       12    21   7    3.4256   479.7    5.932      40.854
2015   10       12    21  14    3.4271   479.8    5.935      40.865
2015   10       12    21  21    3.4286   479.8    5.938      40.877
2015   10       12    21  28    3.4301   479.8    5.942      40.890
2015   10       12    21  36    3.4318   479.8    5.946      40.904
2015   10       12    21  43    3.4334   479.8    5.950      40.919
2015   10       12    21  50    3.4351   479.9    5.955      40.936
2015   10       12    21  57    3.4368   479.9    5.960      40.955
2015   10       12    22   5    3.4386   479.9    5.965      40.975
2015   10       12    22  12    3.4403   479.9    5.970      40.997
2015   10       12    22  19    3.4421   480.0    5.976      41.021
2015   10       12    22  26    3.4438   480.0    5.981      41.046
2015   10       12    22  34    3.4455   480.0    5.986      41.074
2015   10       12    22  41    3.4472   480.1    5.992      41.103
2015   10       12    22  48    3.4488   480.1    5.997      41.135
2015   10       12    22  55    3.4505   480.2    6.001      41.167
2015   10       12    23   3    3.4521   480.2    6.005      41.200
2015   10       12    23  10    3.4536   480.3    6.009      41.233
2015   10       12    23  17    3.4552   480.3    6.013      41.265
2015   10       12    23  24    3.4567   480.4    6.016      41.296
2015   10       12    23  32    3.4581   480.5    6.019      41.326
2015   10       12    23  39    3.4596   480.5    6.022      41.354
2015   10       12    23  46    3.4611   480.6    6.025      41.381
2015   10       12    23  53    3.4625   480.6    6.027      41.407
2015   10       13     0   1    3.4639   480.7    6.029      41.432
