year    month   day   hour  minute  B_enl V_enl   n_enl       T_enl
[year] [month] [day] [hour][minute] [nT]  [km/s]  [cm-3]      [kK]
2015   10        6     0   1    2.8598   449.4    4.911      30.359
2015   10        6     0   8    2.8577   449.1    4.912      30.310
2015   10        6     0  15    2.8557   448.9    4.913      30.262
2015   10        6     0  23    2.8537   448.6    4.914      30.214
2015   10        6     0  30    2.8518   448.3    4.915      30.166
2015   10        6     0  38    2.8499   448.1    4.916      30.118
2015   10        6     0  45    2.8481   447.8    4.917      30.071
2015   10        6     0  53    2.8462   447.6    4.918      30.023
2015   10        6     1   0    2.8445   447.3    4.919      29.976
2015   10        6     1   8    2.8428   447.1    4.920      29.929
2015   10        6     1  15    2.8410   446.8    4.921      29.883
2015   10        6     1  23    2.8394   446.5    4.922      29.836
2015   10        6     1  30    2.8378   446.3    4.923      29.790
2015   10        6     1  38    2.8362   446.0    4.924      29.744
2015   10        6     1  45    2.8347   445.8    4.925      29.698
2015   10        6     1  53    2.8332   445.5    4.926      29.653
2015   10        6     2   0    2.8317   445.3    4.928      29.608
2015   10        6     2   7    2.8304   445.0    4.929      29.563
2015   10        6     2  15    2.8290   444.7    4.930      29.519
2015   10        6     2  22    2.8277   444.5    4.932      29.476
2015   10        6     2  30    2.8264   444.2    4.933      29.432
2015   10        6     2  37    2.8252   444.0    4.935      29.389
2015   10        6     2  45    2.8240   443.7    4.937      29.347
2015   10        6     2  52    2.8230   443.4    4.939      29.306
2015   10        6     3   0    2.8219   443.2    4.941      29.265
2015   10        6     3   7    2.8209   442.9    4.943      29.224
2015   10        6     3  15    2.8200   442.6    4.945      29.184
2015   10        6     3  22    2.8191   442.4    4.948      29.145
2015   10        6     3  30    2.8183   442.1    4.950      29.107
2015   10        6     3  37    2.8176   441.8    4.953      29.070
2015   10        6     3  44    2.8169   441.6    4.956      29.033
2015   10        6     3  52    2.8164   441.3    4.960      28.997
2015   10        6     3  59    2.8159   441.0    4.963      28.962
2015   10        6     4   7    2.8154   440.7    4.967      28.927
2015   10        6     4  14    2.8151   440.4    4.971      28.894
2015   10        6     4  22    2.8149   440.2    4.976      28.861
2015   10        6     4  29    2.8147   439.9    4.981      28.829
2015   10        6     4  37    2.8147   439.6    4.986      28.798
2015   10        6     4  44    2.8147   439.3    4.991      28.768
2015   10        6     4  52    2.8148   439.0    4.996      28.739
2015   10        6     4  59    2.8151   438.7    5.002      28.710
2015   10        6     5   7    2.8154   438.4    5.009      28.682
2015   10        6     5  14    2.8159   438.1    5.015      28.655
2015   10        6     5  22    2.8164   437.8    5.022      28.628
2015   10        6     5  29    2.8171   437.5    5.029      28.603
2015   10        6     5  37    2.8178   437.2    5.037      28.578
2015   10        6     5  44    2.8187   436.9    5.045      28.553
2015   10        6     5  52    2.8197   436.6    5.053      28.529
2015   10        6     5  59    2.8208   436.3    5.061      28.506
2015   10        6     6   6    2.8221   436.0    5.071      28.483
2015   10        6     6  14    2.8234   435.7    5.080      28.461
2015   10        6     6  21    2.8249   435.4    5.090      28.440
2015   10        6     6  29    2.8265   435.1    5.100      28.419
2015   10        6     6  36    2.8282   434.8    5.111      28.400
2015   10        6     6  44    2.8301   434.4    5.122      28.381
2015   10        6     6  51    2.8322   434.1    5.134      28.363
2015   10        6     6  59    2.8343   433.8    5.146      28.347
2015   10        6     7   6    2.8367   433.5    5.159      28.332
2015   10        6     7  14    2.8392   433.2    5.173      28.319
2015   10        6     7  21    2.8419   432.8    5.187      28.308
2015   10        6     7  29    2.8447   432.5    5.202      28.299
2015   10        6     7  36    2.8476   432.2    5.217      28.292
2015   10        6     7  44    2.8507   431.9    5.233      28.288
2015   10        6     7  51    2.8539   431.6    5.249      28.288
2015   10        6     7  59    2.8571   431.3    5.266      28.290
2015   10        6     8   6    2.8604   431.0    5.283      28.295
2015   10        6     8  14    2.8638   430.7    5.301      28.303
2015   10        6     8  21    2.8671   430.4    5.318      28.314
2015   10        6     8  28    2.8704   430.2    5.336      28.328
2015   10        6     8  36    2.8738   429.9    5.354      28.346
2015   10        6     8  43    2.8771   429.7    5.371      28.367
2015   10        6     8  51    2.8805   429.4    5.388      28.390
2015   10        6     8  58    2.8838   429.2    5.404      28.415
2015   10        6     9   6    2.8872   428.9    5.421      28.441
2015   10        6     9  13    2.8905   428.7    5.437      28.466
2015   10        6     9  21    2.8939   428.5    5.452      28.490
2015   10        6     9  28    2.8972   428.2    5.468      28.512
2015   10        6     9  36    2.9007   428.0    5.483      28.533
2015   10        6     9  43    2.9041   427.8    5.498      28.553
2015   10        6     9  51    2.9076   427.5    5.513      28.573
2015   10        6     9  58    2.9111   427.3    5.528      28.591
2015   10        6    10   6    2.9147   427.1    5.543      28.609
2015   10        6    10  13    2.9183   426.8    5.558      28.626
2015   10        6    10  20    2.9220   426.6    5.573      28.643
2015   10        6    10  28    2.9257   426.4    5.588      28.660
2015   10        6    10  35    2.9295   426.2    5.603      28.676
2015   10        6    10  43    2.9334   425.9    5.619      28.692
2015   10        6    10  50    2.9374   425.7    5.634      28.708
2015   10        6    10  58    2.9414   425.5    5.650      28.724
2015   10        6    11   5    2.9456   425.3    5.665      28.741
2015   10        6    11  13    2.9499   425.1    5.682      28.757
2015   10        6    11  20    2.9543   424.8    5.698      28.774
2015   10        6    11  28    2.9588   424.6    5.715      28.792
2015   10        6    11  35    2.9635   424.4    5.733      28.811
2015   10        6    11  43    2.9683   424.2    5.751      28.830
2015   10        6    11  50    2.9733   424.0    5.769      28.851
2015   10        6    11  58    2.9784   423.8    5.789      28.873
2015   10        6    12   5    2.9838   423.6    5.809      28.896
2015   10        6    12  12    2.9893   423.4    5.830      28.922
2015   10        6    12  20    2.9952   423.3    5.851      28.949
2015   10        6    12  27    3.0011   423.1    5.874      28.978
2015   10        6    12  35    3.0074   422.9    5.898      29.009
2015   10        6    12  42    3.0138   422.7    5.923      29.043
2015   10        6    12  50    3.0206   422.6    5.949      29.079
2015   10        6    12  57    3.0276   422.4    5.977      29.118
2015   10        6    13   5    3.0350   422.3    6.006      29.160
2015   10        6    13  12    3.0425   422.1    6.037      29.204
2015   10        6    13  20    3.0505   421.9    6.069      29.252
2015   10        6    13  27    3.0587   421.8    6.103      29.305
2015   10        6    13  35    3.0674   421.7    6.139      29.364
2015   10        6    13  42    3.0762   421.6    6.176      29.429
2015   10        6    13  50    3.0856   421.4    6.215      29.500
2015   10        6    13  57    3.0951   421.3    6.255      29.575
2015   10        6    14   5    3.1051   421.3    6.297      29.655
2015   10        6    14  12    3.1152   421.2    6.339      29.746
2015   10        6    14  20    3.1256   421.1    6.382      29.846
2015   10        6    14  27    3.1361   421.1    6.424      29.954
2015   10        6    14  35    3.1467   421.1    6.466      30.073
2015   10        6    14  42    3.1570   421.1    6.506      30.197
2015   10        6    14  50    3.1676   421.1    6.545      30.324
2015   10        6    14  57    3.1779   421.1    6.583      30.447
2015   10        6    15   4    3.1884   421.1    6.620      30.567
2015   10        6    15  12    3.1986   421.1    6.656      30.682
2015   10        6    15  19    3.2088   421.1    6.690      30.795
2015   10        6    15  27    3.2188   421.1    6.723      30.904
2015   10        6    15  34    3.2289   421.1    6.755      31.011
2015   10        6    15  42    3.2387   421.2    6.786      31.115
2015   10        6    15  49    3.2485   421.2    6.817      31.217
2015   10        6    15  57    3.2581   421.2    6.846      31.317
2015   10        6    16   4    3.2677   421.2    6.874      31.417
2015   10        6    16  12    3.2771   421.2    6.901      31.515
2015   10        6    16  19    3.2865   421.2    6.927      31.612
2015   10        6    16  27    3.2957   421.2    6.952      31.707
2015   10        6    16  34    3.3049   421.2    6.976      31.801
2015   10        6    16  41    3.3140   421.2    6.999      31.892
2015   10        6    16  49    3.3231   421.2    7.022      31.980
2015   10        6    16  56    3.3321   421.2    7.044      32.065
2015   10        6    17   4    3.3411   421.2    7.066      32.148
2015   10        6    17  11    3.3500   421.2    7.087      32.229
2015   10        6    17  19    3.3590   421.2    7.108      32.309
2015   10        6    17  26    3.3679   421.2    7.129      32.386
2015   10        6    17  34    3.3769   421.2    7.150      32.463
2015   10        6    17  41    3.3859   421.2    7.170      32.538
2015   10        6    17  49    3.3949   421.2    7.190      32.613
2015   10        6    17  56    3.4039   421.2    7.211      32.686
2015   10        6    18   4    3.4129   421.2    7.231      32.758
2015   10        6    18  11    3.4220   421.2    7.251      32.830
2015   10        6    18  19    3.4312   421.2    7.272      32.901
2015   10        6    18  26    3.4404   421.2    7.292      32.972
2015   10        6    18  33    3.4497   421.2    7.313      33.042
2015   10        6    18  41    3.4591   421.3    7.334      33.113
2015   10        6    18  48    3.4686   421.3    7.356      33.184
2015   10        6    18  56    3.4781   421.3    7.378      33.256
2015   10        6    19   3    3.4879   421.3    7.401      33.329
2015   10        6    19  11    3.4977   421.4    7.424      33.404
2015   10        6    19  18    3.5077   421.4    7.448      33.480
2015   10        6    19  26    3.5179   421.5    7.473      33.558
2015   10        6    19  33    3.5283   421.5    7.500      33.638
2015   10        6    19  41    3.5388   421.6    7.527      33.722
2015   10        6    19  48    3.5496   421.6    7.556      33.808
2015   10        6    19  56    3.5606   421.7    7.586      33.898
2015   10        6    20   3    3.5718   421.8    7.618      33.991
2015   10        6    20  11    3.5833   421.9    7.652      34.089
2015   10        6    20  18    3.5951   422.0    7.687      34.191
2015   10        6    20  26    3.6072   422.1    7.725      34.297
2015   10        6    20  33    3.6197   422.2    7.765      34.408
2015   10        6    20  41    3.6325   422.4    7.808      34.525
2015   10        6    20  48    3.6457   422.5    7.853      34.650
2015   10        6    20  55    3.6592   422.7    7.900      34.782
2015   10        6    21   3    3.6732   422.9    7.950      34.922
2015   10        6    21  10    3.6876   423.1    8.003      35.069
2015   10        6    21  18    3.7024   423.3    8.059      35.223
2015   10        6    21  25    3.7175   423.5    8.117      35.386
2015   10        6    21  33    3.7330   423.8    8.176      35.565
2015   10        6    21  40    3.7488   424.1    8.237      35.757
2015   10        6    21  48    3.7648   424.4    8.298      35.965
2015   10        6    21  55    3.7808   424.7    8.360      36.184
2015   10        6    22   3    3.7970   425.1    8.421      36.414
2015   10        6    22  10    3.8132   425.4    8.482      36.650
2015   10        6    22  18    3.8295   425.8    8.541      36.896
2015   10        6    22  25    3.8455   426.2    8.599      37.147
2015   10        6    22  33    3.8615   426.7    8.653      37.407
2015   10        6    22  40    3.8770   427.1    8.703      37.674
2015   10        6    22  48    3.8922   427.6    8.751      37.944
2015   10        6    22  55    3.9068   428.1    8.794      38.205
2015   10        6    23   3    3.9210   428.5    8.834      38.459
2015   10        6    23  10    3.9346   428.9    8.870      38.703
2015   10        6    23  17    3.9479   429.4    8.903      38.939
2015   10        6    23  25    3.9606   429.8    8.932      39.165
2015   10        6    23  32    3.9730   430.2    8.958      39.384
2015   10        6    23  40    3.9848   430.6    8.981      39.594
2015   10        6    23  47    3.9964   431.1    9.001      39.796
2015   10        6    23  55    4.0076   431.5    9.019      39.990
2015   10        7     0   2    4.0185   431.9    9.033      40.175
2015   10        7     0  10    4.0290   432.3    9.046      40.353
2015   10        7     0  17    4.0394   432.7    9.056      40.522
2015   10        7     0  25    4.0493   433.1    9.064      40.684
2015   10        7     0  32    4.0591   433.5    9.070      40.837
2015   10        7     0  40    4.0685   433.9    9.074      40.983
2015   10        7     0  47    4.0779   434.2    9.077      41.123
2015   10        7     0  54    4.0869   434.6    9.079      41.255
2015   10        7     1   2    4.0959   434.9    9.080      41.381
2015   10        7     1   9    4.1047   435.3    9.079      41.501
2015   10        7     1  17    4.1134   435.6    9.078      41.617
2015   10        7     1  24    4.1220   435.9    9.077      41.727
2015   10        7     1  32    4.1306   436.3    9.075      41.834
2015   10        7     1  39    4.1391   436.6    9.073      41.936
2015   10        7     1  47    4.1477   436.9    9.071      42.036
2015   10        7     1  54    4.1562   437.2    9.068      42.134
2015   10        7     2   2    4.1647   437.5    9.066      42.231
2015   10        7     2   9    4.1732   437.8    9.063      42.325
2015   10        7     2  17    4.1817   438.1    9.059      42.418
2015   10        7     2  24    4.1902   438.4    9.056      42.510
2015   10        7     2  32    4.1988   438.7    9.053      42.601
2015   10        7     2  39    4.2072   439.0    9.050      42.691
2015   10        7     2  47    4.2157   439.3    9.047      42.781
2015   10        7     2  54    4.2242   439.6    9.044      42.871
2015   10        7     3   2    4.2327   439.9    9.042      42.961
2015   10        7     3   9    4.2413   440.1    9.041      43.050
2015   10        7     3  16    4.2500   440.4    9.041      43.140
2015   10        7     3  24    4.2589   440.7    9.042      43.231
2015   10        7     3  31    4.2680   440.9    9.045      43.324
2015   10        7     3  39    4.2773   441.2    9.049      43.420
2015   10        7     3  46    4.2868   441.4    9.055      43.522
2015   10        7     3  54    4.2965   441.7    9.062      43.630
2015   10        7     4   1    4.3064   442.0    9.072      43.745
2015   10        7     4   9    4.3167   442.3    9.083      43.868
2015   10        7     4  16    4.3271   442.6    9.096      43.999
2015   10        7     4  24    4.3379   443.0    9.112      44.138
2015   10        7     4  31    4.3489   443.4    9.131      44.283
2015   10        7     4  39    4.3603   443.7    9.152      44.434
2015   10        7     4  46    4.3720   444.2    9.177      44.593
2015   10        7     4  54    4.3840   444.6    9.203      44.760
2015   10        7     5   1    4.3961   445.0    9.233      44.935
2015   10        7     5   9    4.4085   445.4    9.265      45.113
2015   10        7     5  16    4.4210   445.9    9.299      45.296
2015   10        7     5  24    4.4336   446.3    9.335      45.486
2015   10        7     5  31    4.4463   446.8    9.373      45.687
2015   10        7     5  39    4.4589   447.3    9.412      45.897
2015   10        7     5  46    4.4714   447.8    9.450      46.121
2015   10        7     5  53    4.4838   448.3    9.488      46.358
2015   10        7     6   1    4.4958   448.8    9.526      46.606
2015   10        7     6   8    4.5076   449.4    9.564      46.853
2015   10        7     6  16    4.5192   449.9    9.602      47.106
2015   10        7     6  23    4.5307   450.4    9.639      47.364
2015   10        7     6  31    4.5421   451.0    9.677      47.633
2015   10        7     6  38    4.5536   451.6    9.714      47.908
2015   10        7     6  46    4.5651   452.1    9.752      48.189
2015   10        7     6  53    4.5766   452.7    9.790      48.477
2015   10        7     7   1    4.5885   453.4    9.827      48.782
2015   10        7     7   8    4.6003   454.1    9.862      49.097
2015   10        7     7  16    4.6123   454.8    9.896      49.420
2015   10        7     7  23    4.6239   455.6    9.924      49.752
2015   10        7     7  30    4.6354   456.4    9.948      50.092
2015   10        7     7  38    4.6462   457.2    9.966      50.415
2015   10        7     7  45    4.6563   458.0    9.980      50.723
2015   10        7     7  53    4.6657   458.8    9.988      51.015
2015   10        7     8   0    4.6744   459.6    9.991      51.291
2015   10        7     8   8    4.6822   460.4    9.989      51.548
2015   10        7     8  15    4.6896   461.1    9.983      51.790
2015   10        7     8  23    4.6963   461.9    9.974      52.017
2015   10        7     8  30    4.7026   462.6    9.962      52.231
2015   10        7     8  38    4.7085   463.3    9.947      52.433
2015   10        7     8  45    4.7142   464.0    9.931      52.626
2015   10        7     8  53    4.7196   464.7    9.913      52.810
2015   10        7     9   0    4.7249   465.4    9.894      52.990
2015   10        7     9   8    4.7301   466.0    9.875      53.164
2015   10        7     9  15    4.7352   466.7    9.854      53.336
2015   10        7     9  22    4.7402   467.3    9.833      53.506
2015   10        7     9  30    4.7452   468.0    9.811      53.676
2015   10        7     9  37    4.7501   468.6    9.788      53.846
2015   10        7     9  45    4.7550   469.3    9.765      54.019
2015   10        7     9  52    4.7597   469.9    9.742      54.192
2015   10        7    10   0    4.7645   470.6    9.717      54.369
2015   10        7    10   7    4.7691   471.2    9.693      54.547
2015   10        7    10  15    4.7737   471.9    9.668      54.727
2015   10        7    10  22    4.7783   472.5    9.643      54.906
2015   10        7    10  30    4.7830   473.2    9.618      55.086
2015   10        7    10  37    4.7877   473.8    9.594      55.264
2015   10        7    10  45    4.7926   474.4    9.570      55.442
2015   10        7    10  52    4.7976   475.0    9.547      55.619
2015   10        7    11   0    4.8026   475.6    9.524      55.798
2015   10        7    11   7    4.8078   476.2    9.501      55.977
2015   10        7    11  15    4.8130   476.9    9.479      56.157
2015   10        7    11  22    4.8182   477.6    9.457      56.336
2015   10        7    11  30    4.8236   478.3    9.435      56.516
2015   10        7    11  37    4.8289   479.0    9.414      56.692
2015   10        7    11  45    4.8342   479.7    9.394      56.866
2015   10        7    11  52    4.8396   480.5    9.375      57.037
2015   10        7    12   0    4.8448   481.2    9.356      57.205
2015   10        7    12   7    4.8498   482.0    9.337      57.367
2015   10        7    12  14    4.8546   482.8    9.319      57.524
2015   10        7    12  22    4.8591   483.6    9.300      57.677
2015   10        7    12  29    4.8630   484.5    9.280      57.826
2015   10        7    12  37    4.8666   485.3    9.259      57.965
2015   10        7    12  44    4.8696   486.2    9.238      58.099
2015   10        7    12  52    4.8722   487.0    9.216      58.227
2015   10        7    12  59    4.8740   487.9    9.193      58.355
2015   10        7    13   7    4.8754   488.7    9.169      58.477
2015   10        7    13  14    4.8760   489.5    9.145      58.583
2015   10        7    13  22    4.8766   490.2    9.123      58.669
2015   10        7    13  29    4.8769   490.8    9.102      58.744
2015   10        7    13  37    4.8779   491.3    9.086      58.805
2015   10        7    13  44    4.8794   491.8    9.075      58.868
2015   10        7    13  52    4.8819   492.2    9.070      58.945
2015   10        7    13  59    4.8850   492.6    9.071      59.035
2015   10        7    14   6    4.8892   493.0    9.077      59.148
2015   10        7    14  14    4.8940   493.4    9.088      59.293
2015   10        7    14  21    4.8998   493.8    9.102      59.461
2015   10        7    14  29    4.9059   494.3    9.118      59.656
2015   10        7    14  36    4.9125   494.9    9.133      59.891
2015   10        7    14  44    4.9191   495.6    9.147      60.160
2015   10        7    14  51    4.9255   496.3    9.158      60.435
2015   10        7    14  59    4.9315   497.1    9.167      60.731
2015   10        7    15   6    4.9372   498.0    9.173      61.043
2015   10        7    15  14    4.9425   498.9    9.176      61.362
2015   10        7    15  21    4.9474   499.8    9.176      61.679
2015   10        7    15  28    4.9518   500.8    9.172      61.996
2015   10        7    15  36    4.9557   501.7    9.164      62.295
2015   10        7    15  43    4.9590   502.6    9.153      62.573
2015   10        7    15  51    4.9618   503.5    9.139      62.831
2015   10        7    15  58    4.9642   504.4    9.123      63.074
2015   10        7    16   6    4.9663   505.2    9.106      63.304
2015   10        7    16  13    4.9682   506.1    9.086      63.527
2015   10        7    16  20    4.9700   506.9    9.066      63.742
2015   10        7    16  28    4.9717   507.7    9.045      63.953
2015   10        7    16  35    4.9733   508.6    9.023      64.158
2015   10        7    16  43    4.9747   509.4    9.000      64.361
2015   10        7    16  50    4.9760   510.3    8.976      64.561
2015   10        7    16  58    4.9772   511.1    8.952      64.761
2015   10        7    17   5    4.9782   512.0    8.926      64.960
2015   10        7    17  13    4.9789   512.9    8.900      65.160
2015   10        7    17  20    4.9795   513.8    8.872      65.361
2015   10        7    17  28    4.9797   514.8    8.842      65.564
2015   10        7    17  35    4.9796   515.8    8.809      65.767
2015   10        7    17  42    4.9792   516.8    8.775      65.975
2015   10        7    17  50    4.9783   517.8    8.737      66.186
2015   10        7    17  57    4.9767   518.9    8.696      66.395
2015   10        7    18   5    4.9746   520.0    8.651      66.592
2015   10        7    18  12    4.9715   521.1    8.602      66.775
2015   10        7    18  20    4.9676   522.1    8.549      66.938
2015   10        7    18  27    4.9627   523.2    8.493      67.085
2015   10        7    18  35    4.9570   524.3    8.432      67.206
2015   10        7    18  42    4.9500   525.3    8.368      67.291
2015   10        7    18  50    4.9423   526.2    8.303      67.347
2015   10        7    18  57    4.9338   527.2    8.236      67.379
2015   10        7    19   5    4.9250   528.1    8.171      67.388
2015   10        7    19  12    4.9158   529.0    8.108      67.379
2015   10        7    19  20    4.9068   530.0    8.047      67.378
2015   10        7    19  27    4.8976   531.0    7.986      67.382
2015   10        7    19  34    4.8885   532.0    7.927      67.389
2015   10        7    19  42    4.8789   533.1    7.868      67.401
2015   10        7    19  49    4.8693   534.1    7.810      67.412
2015   10        7    19  57    4.8593   535.3    7.751      67.423
2015   10        7    20   4    4.8492   536.4    7.693      67.438
2015   10        7    20  12    4.8385   537.5    7.633      67.457
2015   10        7    20  19    4.8276   538.7    7.573      67.484
2015   10        7    20  27    4.8161   539.9    7.511      67.501
2015   10        7    20  34    4.8045   541.0    7.450      67.505
2015   10        7    20  42    4.7927   542.1    7.388      67.492
2015   10        7    20  49    4.7810   543.1    7.328      67.458
2015   10        7    20  57    4.7697   543.9    7.271      67.400
2015   10        7    21   4    4.7590   544.6    7.217      67.336
2015   10        7    21  11    4.7488   545.3    7.167      67.275
2015   10        7    21  19    4.7392   546.0    7.121      67.220
2015   10        7    21  26    4.7300   546.6    7.078      67.174
2015   10        7    21  34    4.7215   547.1    7.039      67.132
2015   10        7    21  41    4.7131   547.6    7.003      67.100
2015   10        7    21  49    4.7055   548.1    6.970      67.085
2015   10        7    21  56    4.6979   548.6    6.939      67.092
2015   10        7    22   4    4.6907   549.2    6.909      67.121
2015   10        7    22  11    4.6834   549.7    6.882      67.170
2015   10        7    22  19    4.6764   550.4    6.855      67.257
2015   10        7    22  26    4.6694   551.1    6.829      67.372
2015   10        7    22  34    4.6627   551.9    6.804      67.505
2015   10        7    22  41    4.6559   552.6    6.780      67.648
2015   10        7    22  48    4.6493   553.4    6.756      67.799
2015   10        7    22  56    4.6423   554.2    6.730      67.935
2015   10        7    23   3    4.6353   554.9    6.705      68.052
2015   10        7    23  11    4.6280   555.5    6.679      68.153
2015   10        7    23  18    4.6206   556.2    6.653      68.243
2015   10        7    23  26    4.6130   556.8    6.626      68.326
2015   10        7    23  33    4.6054   557.5    6.599      68.403
2015   10        7    23  41    4.5976   558.2    6.572      68.477
2015   10        7    23  48    4.5899   558.9    6.545      68.546
2015   10        7    23  56    4.5819   559.6    6.518      68.611
2015   10        8     0   3    4.5738   560.3    6.491      68.672
2015   10        8     0  11    4.5655   561.0    6.463      68.727
2015   10        8     0  18    4.5571   561.8    6.435      68.778
2015   10        8     0  26    4.5483   562.5    6.406      68.826
2015   10        8     0  33    4.5393   563.4    6.376      68.871
2015   10        8     0  40    4.5299   564.2    6.346      68.913
2015   10        8     0  48    4.5203   565.1    6.313      68.953
2015   10        8     0  55    4.5101   566.1    6.279      68.995
2015   10        8     1   3    4.4996   567.1    6.242      69.039
2015   10        8     1  10    4.4884   568.2    6.202      69.081
2015   10        8     1  18    4.4767   569.3    6.160      69.108
2015   10        8     1  25    4.4640   570.4    6.114      69.117
2015   10        8     1  33    4.4507   571.4    6.065      69.102
2015   10        8     1  40    4.4365   572.6    6.013      69.066
2015   10        8     1  48    4.4217   573.7    5.957      69.001
2015   10        8     1  55    4.4059   574.7    5.899      68.889
2015   10        8     2   3    4.3896   575.7    5.840      68.740
2015   10        8     2  10    4.3729   576.7    5.781      68.564
2015   10        8     2  18    4.3562   577.6    5.724      68.363
2015   10        8     2  25    4.3393   578.4    5.668      68.134
2015   10        8     2  33    4.3229   579.2    5.616      67.924
2015   10        8     2  40    4.3068   580.0    5.566      67.728
2015   10        8     2  48    4.2910   580.8    5.518      67.543
2015   10        8     2  55    4.2754   581.6    5.472      67.367
2015   10        8     3   3    4.2600   582.4    5.427      67.198
2015   10        8     3  10    4.2447   583.2    5.385      67.039
2015   10        8     3  17    4.2297   583.9    5.344      66.888
2015   10        8     3  25    4.2147   584.7    5.304      66.744
2015   10        8     3  32    4.2000   585.5    5.265      66.608
2015   10        8     3  40    4.1852   586.2    5.227      66.475
2015   10        8     3  47    4.1707   587.0    5.191      66.347
2015   10        8     3  55    4.1562   587.7    5.155      66.223
2015   10        8     4   2    4.1420   588.4    5.120      66.103
2015   10        8     4  10    4.1277   589.1    5.086      65.984
2015   10        8     4  17    4.1137   589.7    5.053      65.868
2015   10        8     4  25    4.0998   590.4    5.020      65.751
2015   10        8     4  32    4.0861   591.0    4.987      65.634
2015   10        8     4  40    4.0725   591.7    4.955      65.516
2015   10        8     4  47    4.0590   592.3    4.923      65.398
2015   10        8     4  55    4.0457   593.0    4.891      65.276
2015   10        8     5   2    4.0325   593.6    4.860      65.149
2015   10        8     5   9    4.0194   594.1    4.829      65.017
2015   10        8     5  17    4.0065   594.7    4.799      64.882
2015   10        8     5  24    3.9937   595.2    4.770      64.741
2015   10        8     5  32    3.9811   595.6    4.741      64.601
2015   10        8     5  39    3.9686   596.1    4.714      64.462
2015   10        8     5  47    3.9564   596.5    4.687      64.325
2015   10        8     5  54    3.9441   596.9    4.660      64.187
2015   10        8     6   2    3.9320   597.3    4.635      64.051
2015   10        8     6   9    3.9198   597.7    4.610      63.915
2015   10        8     6  17    3.9078   598.1    4.586      63.780
2015   10        8     6  24    3.8957   598.5    4.562      63.645
2015   10        8     6  31    3.8837   598.9    4.539      63.512
2015   10        8     6  39    3.8716   599.3    4.516      63.378
2015   10        8     6  46    3.8596   599.6    4.493      63.246
2015   10        8     6  54    3.8475   600.0    4.471      63.114
2015   10        8     7   1    3.8355   600.4    4.449      62.984
2015   10        8     7   9    3.8234   600.7    4.428      62.854
2015   10        8     7  16    3.8113   601.1    4.407      62.724
2015   10        8     7  24    3.7991   601.4    4.386      62.594
2015   10        8     7  31    3.7870   601.7    4.366      62.465
2015   10        8     7  39    3.7748   602.0    4.347      62.335
2015   10        8     7  46    3.7627   602.3    4.327      62.207
2015   10        8     7  54    3.7505   602.6    4.309      62.080
2015   10        8     8   1    3.7383   602.9    4.290      61.954
2015   10        8     8   9    3.7262   603.1    4.272      61.829
2015   10        8     8  16    3.7140   603.4    4.255      61.705
2015   10        8     8  24    3.7018   603.6    4.238      61.582
2015   10        8     8  31    3.6897   603.9    4.221      61.461
2015   10        8     8  38    3.6775   604.2    4.205      61.339
2015   10        8     8  46    3.6654   604.4    4.189      61.219
2015   10        8     8  53    3.6534   604.6    4.174      61.098
2015   10        8     9   1    3.6414   604.9    4.159      60.977
2015   10        8     9   8    3.6295   605.1    4.144      60.856
2015   10        8     9  16    3.6177   605.3    4.129      60.735
2015   10        8     9  23    3.6062   605.4    4.115      60.615
2015   10        8     9  31    3.5947   605.6    4.101      60.497
2015   10        8     9  38    3.5834   605.7    4.087      60.381
2015   10        8     9  46    3.5723   605.9    4.074      60.266
2015   10        8     9  53    3.5615   606.0    4.061      60.154
2015   10        8    10   1    3.5508   606.1    4.048      60.044
2015   10        8    10   8    3.5404   606.2    4.036      59.937
2015   10        8    10  16    3.5301   606.4    4.024      59.834
2015   10        8    10  23    3.5201   606.5    4.012      59.733
2015   10        8    10  31    3.5101   606.6    4.000      59.636
2015   10        8    10  38    3.5004   606.7    3.989      59.539
2015   10        8    10  46    3.4907   606.8    3.977      59.445
2015   10        8    10  53    3.4812   607.0    3.966      59.352
2015   10        8    11   1    3.4718   607.1    3.955      59.263
2015   10        8    11   8    3.4625   607.3    3.944      59.175
2015   10        8    11  15    3.4533   607.5    3.933      59.090
2015   10        8    11  23    3.4441   607.6    3.922      59.005
2015   10        8    11  30    3.4350   607.8    3.911      58.921
2015   10        8    11  38    3.4260   607.9    3.899      58.837
2015   10        8    11  45    3.4170   608.1    3.888      58.752
2015   10        8    11  53    3.4080   608.3    3.876      58.664
2015   10        8    12   0    3.3991   608.5    3.863      58.575
2015   10        8    12   8    3.3902   608.8    3.850      58.484
2015   10        8    12  15    3.3813   609.0    3.837      58.389
2015   10        8    12  23    3.3725   609.3    3.824      58.286
2015   10        8    12  30    3.3637   609.5    3.810      58.180
2015   10        8    12  38    3.3550   609.6    3.797      58.069
2015   10        8    12  45    3.3465   609.8    3.784      57.954
2015   10        8    12  52    3.3381   609.9    3.771      57.842
2015   10        8    13   0    3.3298   610.0    3.759      57.736
2015   10        8    13   7    3.3217   610.0    3.748      57.634
2015   10        8    13  15    3.3138   610.1    3.737      57.537
2015   10        8    13  22    3.3059   610.2    3.726      57.444
2015   10        8    13  30    3.2981   610.3    3.716      57.356
2015   10        8    13  37    3.2904   610.4    3.706      57.269
2015   10        8    13  45    3.2828   610.4    3.696      57.184
2015   10        8    13  52    3.2751   610.5    3.687      57.100
2015   10        8    14   0    3.2675   610.6    3.677      57.018
2015   10        8    14   7    3.2600   610.7    3.668      56.935
2015   10        8    14  14    3.2524   610.9    3.659      56.853
2015   10        8    14  22    3.2449   611.0    3.650      56.772
2015   10        8    14  29    3.2374   611.1    3.641      56.690
2015   10        8    14  37    3.2299   611.2    3.632      56.609
2015   10        8    14  44    3.2225   611.3    3.623      56.528
2015   10        8    14  52    3.2151   611.4    3.614      56.445
2015   10        8    14  59    3.2077   611.4    3.606      56.362
2015   10        8    15   7    3.2003   611.5    3.597      56.278
2015   10        8    15  14    3.1930   611.6    3.589      56.193
2015   10        8    15  22    3.1858   611.6    3.580      56.110
2015   10        8    15  29    3.1787   611.7    3.572      56.027
2015   10        8    15  37    3.1716   611.8    3.564      55.943
2015   10        8    15  44    3.1646   611.8    3.556      55.860
2015   10        8    15  52    3.1576   611.9    3.548      55.776
2015   10        8    15  59    3.1507   612.0    3.540      55.693
2015   10        8    16   7    3.1437   612.0    3.532      55.610
2015   10        8    16  14    3.1369   612.1    3.525      55.528
2015   10        8    16  22    3.1300   612.2    3.517      55.445
2015   10        8    16  29    3.1232   612.2    3.510      55.361
2015   10        8    16  36    3.1164   612.3    3.502      55.275
2015   10        8    16  44    3.1096   612.3    3.495      55.188
2015   10        8    16  51    3.1029   612.4    3.487      55.099
2015   10        8    16  59    3.0961   612.4    3.479      55.010
2015   10        8    17   6    3.0894   612.5    3.472      54.920
2015   10        8    17  14    3.0828   612.5    3.464      54.829
2015   10        8    17  21    3.0762   612.5    3.457      54.738
2015   10        8    17  29    3.0697   612.5    3.449      54.647
2015   10        8    17  36    3.0633   612.5    3.442      54.555
2015   10        8    17  44    3.0569   612.5    3.435      54.464
2015   10        8    17  51    3.0505   612.5    3.428      54.373
2015   10        8    17  59    3.0443   612.4    3.421      54.283
2015   10        8    18   6    3.0381   612.4    3.414      54.194
2015   10        8    18  14    3.0320   612.4    3.408      54.106
2015   10        8    18  21    3.0259   612.3    3.401      54.018
2015   10        8    18  29    3.0199   612.3    3.395      53.932
2015   10        8    18  36    3.0140   612.3    3.388      53.846
2015   10        8    18  44    3.0082   612.2    3.382      53.763
2015   10        8    18  51    3.0024   612.2    3.376      53.679
2015   10        8    18  58    2.9967   612.1    3.369      53.596
2015   10        8    19   6    2.9910   612.1    3.363      53.514
2015   10        8    19  13    2.9855   612.0    3.357      53.433
2015   10        8    19  21    2.9799   612.0    3.351      53.351
2015   10        8    19  28    2.9745   611.9    3.345      53.270
2015   10        8    19  36    2.9690   611.9    3.339      53.189
2015   10        8    19  43    2.9637   611.8    3.333      53.109
2015   10        8    19  51    2.9584   611.8    3.327      53.029
2015   10        8    19  58    2.9531   611.7    3.321      52.950
2015   10        8    20   6    2.9479   611.6    3.315      52.872
2015   10        8    20  13    2.9427   611.6    3.309      52.794
2015   10        8    20  20    2.9376   611.5    3.303      52.717
2015   10        8    20  28    2.9326   611.4    3.298      52.642
2015   10        8    20  35    2.9276   611.4    3.292      52.567
2015   10        8    20  43    2.9226   611.3    3.286      52.493
2015   10        8    20  50    2.9177   611.2    3.281      52.421
2015   10        8    20  58    2.9128   611.2    3.276      52.350
2015   10        8    21   5    2.9079   611.1    3.271      52.281
2015   10        8    21  13    2.9031   611.0    3.266      52.213
2015   10        8    21  20    2.8984   610.9    3.261      52.147
2015   10        8    21  28    2.8936   610.8    3.257      52.083
2015   10        8    21  35    2.8889   610.8    3.252      52.020
2015   10        8    21  43    2.8842   610.7    3.248      51.959
2015   10        8    21  50    2.8796   610.6    3.244      51.899
2015   10        8    21  57    2.8750   610.5    3.240      51.840
2015   10        8    22   5    2.8704   610.4    3.236      51.782
2015   10        8    22  12    2.8659   610.3    3.233      51.725
2015   10        8    22  20    2.8613   610.3    3.229      51.668
2015   10        8    22  27    2.8568   610.2    3.226      51.611
2015   10        8    22  35    2.8523   610.1    3.222      51.554
2015   10        8    22  42    2.8478   610.0    3.219      51.495
2015   10        8    22  50    2.8434   609.9    3.215      51.435
2015   10        8    22  57    2.8389   609.8    3.212      51.374
2015   10        8    23   5    2.8345   609.8    3.208      51.310
2015   10        8    23  12    2.8300   609.7    3.205      51.245
2015   10        8    23  20    2.8256   609.6    3.201      51.180
2015   10        8    23  27    2.8212   609.5    3.197      51.114
2015   10        8    23  35    2.8168   609.4    3.194      51.046
2015   10        8    23  42    2.8125   609.3    3.190      50.978
2015   10        8    23  50    2.8081   609.2    3.186      50.910
2015   10        8    23  57    2.8038   609.1    3.183      50.841
2015   10        9     0   4    2.7995   608.9    3.179      50.771
2015   10        9     0  12    2.7953   608.8    3.176      50.701
2015   10        9     0  19    2.7911   608.7    3.172      50.630
2015   10        9     0  27    2.7869   608.6    3.169      50.559
2015   10        9     0  34    2.7827   608.5    3.165      50.487
2015   10        9     0  42    2.7786   608.3    3.162      50.416
2015   10        9     0  49    2.7746   608.2    3.159      50.345
2015   10        9     0  57    2.7706   608.1    3.156      50.275
2015   10        9     1   4    2.7667   608.0    3.153      50.205
2015   10        9     1  12    2.7628   607.8    3.151      50.137
2015   10        9     1  19    2.7591   607.7    3.148      50.069
2015   10        9     1  27    2.7553   607.5    3.146      50.004
2015   10        9     1  34    2.7517   607.4    3.144      49.939
2015   10        9     1  42    2.7481   607.3    3.142      49.876
2015   10        9     1  49    2.7447   607.1    3.141      49.815
2015   10        9     1  57    2.7412   607.0    3.139      49.755
2015   10        9     2   4    2.7379   606.8    3.138      49.698
2015   10        9     2  12    2.7345   606.7    3.137      49.641
2015   10        9     2  19    2.7313   606.6    3.136      49.586
2015   10        9     2  26    2.7280   606.4    3.134      49.532
2015   10        9     2  34    2.7247   606.3    3.133      49.479
2015   10        9     2  41    2.7215   606.1    3.132      49.428
2015   10        9     2  49    2.7182   606.0    3.130      49.376
2015   10        9     2  56    2.7150   605.8    3.129      49.325
2015   10        9     3   4    2.7117   605.7    3.127      49.272
2015   10        9     3  11    2.7085   605.5    3.126      49.220
2015   10        9     3  19    2.7052   605.4    3.124      49.167
2015   10        9     3  26    2.7019   605.2    3.122      49.113
2015   10        9     3  34    2.6987   605.0    3.120      49.059
2015   10        9     3  41    2.6954   604.9    3.118      49.005
2015   10        9     3  48    2.6922   604.7    3.117      48.951
2015   10        9     3  56    2.6889   604.6    3.114      48.896
2015   10        9     4   3    2.6857   604.4    3.112      48.841
2015   10        9     4  11    2.6825   604.2    3.110      48.786
2015   10        9     4  18    2.6793   604.1    3.108      48.731
2015   10        9     4  26    2.6761   603.9    3.106      48.676
2015   10        9     4  33    2.6729   603.8    3.104      48.620
2015   10        9     4  41    2.6697   603.6    3.102      48.565
2015   10        9     4  48    2.6665   603.4    3.099      48.510
2015   10        9     4  56    2.6634   603.3    3.097      48.455
2015   10        9     5   3    2.6603   603.1    3.095      48.400
2015   10        9     5  10    2.6571   602.9    3.093      48.345
2015   10        9     5  18    2.6540   602.8    3.091      48.289
2015   10        9     5  25    2.6509   602.6    3.089      48.235
2015   10        9     5  33    2.6479   602.4    3.086      48.179
2015   10        9     5  40    2.6448   602.3    3.084      48.124
2015   10        9     5  48    2.6417   602.1    3.082      48.067
2015   10        9     5  55    2.6387   602.0    3.080      48.011
2015   10        9     6   3    2.6356   601.8    3.078      47.953
2015   10        9     6  10    2.6326   601.6    3.075      47.894
2015   10        9     6  18    2.6296   601.5    3.073      47.834
2015   10        9     6  25    2.6266   601.3    3.071      47.774
2015   10        9     6  33    2.6237   601.1    3.068      47.712
2015   10        9     6  40    2.6207   600.9    3.066      47.650
2015   10        9     6  48    2.6178   600.7    3.063      47.587
2015   10        9     6  55    2.6149   600.6    3.061      47.524
2015   10        9     7   3    2.6120   600.4    3.059      47.459
2015   10        9     7  10    2.6092   600.2    3.056      47.395
2015   10        9     7  18    2.6064   600.0    3.054      47.330
2015   10        9     7  25    2.6036   599.8    3.052      47.266
2015   10        9     7  32    2.6008   599.6    3.050      47.202
2015   10        9     7  40    2.5981   599.4    3.048      47.138
2015   10        9     7  47    2.5955   599.2    3.046      47.075
2015   10        9     7  55    2.5928   599.0    3.044      47.014
2015   10        9     8   2    2.5903   598.8    3.043      46.953
2015   10        9     8  10    2.5878   598.6    3.041      46.895
2015   10        9     8  17    2.5854   598.4    3.040      46.839
2015   10        9     8  25    2.5830   598.3    3.040      46.786
2015   10        9     8  32    2.5807   598.1    3.039      46.734
2015   10        9     8  40    2.5785   597.9    3.039      46.685
2015   10        9     8  47    2.5763   597.7    3.039      46.638
2015   10        9     8  55    2.5742   597.5    3.039      46.593
2015   10        9     9   2    2.5721   597.4    3.039      46.549
2015   10        9     9  10    2.5701   597.2    3.040      46.508
2015   10        9     9  17    2.5681   597.0    3.040      46.466
2015   10        9     9  25    2.5660   596.8    3.041      46.425
2015   10        9     9  32    2.5640   596.7    3.041      46.384
2015   10        9     9  39    2.5619   596.5    3.042      46.343
2015   10        9     9  47    2.5598   596.3    3.042      46.302
2015   10        9     9  54    2.5577   596.2    3.042      46.260
2015   10        9    10   2    2.5555   596.0    3.042      46.216
2015   10        9    10   9    2.5534   595.8    3.042      46.172
2015   10        9    10  17    2.5511   595.6    3.042      46.125
2015   10        9    10  24    2.5489   595.4    3.041      46.078
2015   10        9    10  32    2.5467   595.3    3.041      46.029
2015   10        9    10  39    2.5444   595.1    3.040      45.979
2015   10        9    10  47    2.5421   594.9    3.040      45.928
2015   10        9    10  54    2.5398   594.7    3.039      45.876
2015   10        9    11   1    2.5375   594.5    3.038      45.823
2015   10        9    11   9    2.5351   594.3    3.037      45.769
2015   10        9    11  16    2.5328   594.1    3.036      45.715
2015   10        9    11  24    2.5304   593.9    3.035      45.659
2015   10        9    11  31    2.5281   593.7    3.034      45.603
2015   10        9    11  39    2.5257   593.5    3.033      45.548
2015   10        9    11  46    2.5234   593.3    3.032      45.491
2015   10        9    11  54    2.5210   593.1    3.031      45.435
2015   10        9    12   1    2.5187   592.9    3.030      45.379
2015   10        9    12   9    2.5164   592.7    3.030      45.324
2015   10        9    12  16    2.5141   592.4    3.029      45.269
2015   10        9    12  23    2.5118   592.2    3.028      45.215
2015   10        9    12  31    2.5096   592.0    3.028      45.163
2015   10        9    12  38    2.5074   591.8    3.027      45.112
2015   10        9    12  46    2.5053   591.6    3.027      45.063
2015   10        9    12  53    2.5032   591.4    3.027      45.016
2015   10        9    13   1    2.5011   591.1    3.027      44.971
2015   10        9    13   8    2.4991   590.9    3.028      44.928
2015   10        9    13  16    2.4971   590.7    3.028      44.888
2015   10        9    13  23    2.4952   590.5    3.029      44.850
2015   10        9    13  31    2.4933   590.3    3.030      44.814
2015   10        9    13  38    2.4914   590.1    3.031      44.780
2015   10        9    13  46    2.4896   589.9    3.032      44.747
2015   10        9    13  53    2.4877   589.7    3.032      44.715
2015   10        9    14   1    2.4858   589.5    3.033      44.682
2015   10        9    14   8    2.4838   589.3    3.033      44.647
2015   10        9    14  16    2.4819   589.1    3.033      44.608
2015   10        9    14  23    2.4799   588.9    3.033      44.568
2015   10        9    14  30    2.4780   588.7    3.032      44.525
2015   10        9    14  38    2.4760   588.5    3.032      44.480
2015   10        9    14  45    2.4740   588.3    3.031      44.433
2015   10        9    14  53    2.4720   588.1    3.030      44.385
2015   10        9    15   0    2.4701   587.8    3.029      44.336
2015   10        9    15   8    2.4681   587.6    3.028      44.285
2015   10        9    15  15    2.4661   587.4    3.027      44.234
2015   10        9    15  23    2.4642   587.2    3.026      44.183
2015   10        9    15  30    2.4623   587.0    3.025      44.131
2015   10        9    15  38    2.4604   586.8    3.024      44.080
2015   10        9    15  45    2.4585   586.6    3.023      44.029
2015   10        9    15  53    2.4566   586.4    3.022      43.978
2015   10        9    16   0    2.4548   586.2    3.021      43.927
2015   10        9    16   8    2.4530   586.0    3.020      43.876
2015   10        9    16  15    2.4512   585.8    3.019      43.825
2015   10        9    16  23    2.4493   585.5    3.018      43.774
2015   10        9    16  30    2.4475   585.3    3.017      43.722
2015   10        9    16  37    2.4457   585.1    3.016      43.669
2015   10        9    16  45    2.4439   584.9    3.015      43.615
2015   10        9    16  52    2.4420   584.7    3.014      43.560
2015   10        9    17   0    2.4402   584.5    3.013      43.503
2015   10        9    17   7    2.4383   584.3    3.012      43.446
2015   10        9    17  15    2.4364   584.1    3.011      43.388
2015   10        9    17  22    2.4346   583.9    3.009      43.330
2015   10        9    17  30    2.4327   583.6    3.008      43.270
2015   10        9    17  37    2.4308   583.4    3.007      43.210
2015   10        9    17  45    2.4290   583.2    3.005      43.150
2015   10        9    17  52    2.4271   583.0    3.004      43.089
2015   10        9    18   0    2.4253   582.7    3.002      43.027
2015   10        9    18   7    2.4234   582.5    3.001      42.965
2015   10        9    18  14    2.4215   582.3    2.999      42.902
2015   10        9    18  22    2.4197   582.0    2.998      42.840
2015   10        9    18  29    2.4179   581.8    2.997      42.776
2015   10        9    18  37    2.4161   581.6    2.995      42.714
2015   10        9    18  44    2.4143   581.3    2.994      42.651
2015   10        9    18  52    2.4125   581.1    2.993      42.589
2015   10        9    18  59    2.4107   580.8    2.992      42.527
2015   10        9    19   7    2.4090   580.6    2.991      42.467
2015   10        9    19  14    2.4073   580.3    2.990      42.408
2015   10        9    19  22    2.4056   580.1    2.989      42.351
2015   10        9    19  29    2.4039   579.8    2.989      42.296
2015   10        9    19  36    2.4023   579.6    2.989      42.243
2015   10        9    19  44    2.4007   579.3    2.989      42.193
2015   10        9    19  51    2.3992   579.1    2.989      42.145
2015   10        9    19  59    2.3977   578.9    2.990      42.101
2015   10        9    20   6    2.3962   578.6    2.991      42.059
2015   10        9    20  14    2.3948   578.4    2.992      42.021
2015   10        9    20  21    2.3934   578.2    2.994      41.987
2015   10        9    20  29    2.3920   577.9    2.995      41.956
2015   10        9    20  36    2.3907   577.7    2.997      41.928
2015   10        9    20  44    2.3894   577.5    2.999      41.902
2015   10        9    20  51    2.3880   577.3    3.002      41.880
2015   10        9    20  59    2.3866   577.1    3.004      41.858
2015   10        9    21   6    2.3852   576.9    3.006      41.838
2015   10        9    21  14    2.3837   576.7    3.007      41.816
2015   10        9    21  21    2.3822   576.5    3.009      41.791
2015   10        9    21  28    2.3806   576.3    3.010      41.763
2015   10        9    21  36    2.3789   576.1    3.011      41.733
2015   10        9    21  43    2.3773   575.9    3.012      41.700
2015   10        9    21  51    2.3756   575.7    3.013      41.664
2015   10        9    21  58    2.3738   575.5    3.013      41.626
2015   10        9    22   6    2.3720   575.3    3.013      41.585
2015   10        9    22  13    2.3702   575.0    3.013      41.542
2015   10        9    22  21    2.3684   574.8    3.013      41.497
2015   10        9    22  28    2.3665   574.6    3.013      41.450
2015   10        9    22  36    2.3647   574.4    3.013      41.402
2015   10        9    22  43    2.3628   574.1    3.013      41.351
2015   10        9    22  51    2.3609   573.9    3.012      41.300
2015   10        9    22  58    2.3590   573.6    3.012      41.247
2015   10        9    23   6    2.3571   573.4    3.011      41.194
2015   10        9    23  13    2.3552   573.1    3.011      41.140
2015   10        9    23  21    2.3534   572.8    3.010      41.086
2015   10        9    23  28    2.3515   572.6    3.010      41.031
2015   10        9    23  35    2.3497   572.3    3.009      40.976
2015   10        9    23  43    2.3478   572.0    3.009      40.921
2015   10        9    23  50    2.3460   571.7    3.008      40.867
2015   10        9    23  58    2.3442   571.5    3.008      40.813
2015   10       10     0   5    2.3425   571.2    3.008      40.761
2015   10       10     0  13    2.3408   570.9    3.008      40.708
2015   10       10     0  20    2.3391   570.6    3.008      40.657
2015   10       10     0  28    2.3375   570.3    3.008      40.607
2015   10       10     0  35    2.3359   570.0    3.009      40.559
2015   10       10     0  43    2.3344   569.8    3.009      40.513
2015   10       10     0  50    2.3329   569.5    3.010      40.468
2015   10       10     0  58    2.3314   569.2    3.011      40.425
2015   10       10     1   5    2.3300   568.9    3.012      40.385
2015   10       10     1  12    2.3285   568.7    3.013      40.346
2015   10       10     1  20    2.3271   568.4    3.013      40.309
2015   10       10     1  27    2.3256   568.2    3.014      40.273
2015   10       10     1  35    2.3241   567.9    3.014      40.235
2015   10       10     1  42    2.3226   567.7    3.014      40.196
2015   10       10     1  50    2.3211   567.4    3.014      40.156
2015   10       10     1  57    2.3195   567.2    3.014      40.114
2015   10       10     2   5    2.3180   566.9    3.014      40.072
2015   10       10     2  12    2.3164   566.7    3.013      40.028
2015   10       10     2  19    2.3149   566.4    3.013      39.985
2015   10       10     2  27    2.3133   566.2    3.012      39.940
2015   10       10     2  34    2.3118   565.9    3.012      39.895
2015   10       10     2  42    2.3102   565.7    3.011      39.849
2015   10       10     2  49    2.3087   565.4    3.011      39.803
2015   10       10     2  57    2.3071   565.2    3.010      39.757
2015   10       10     3   4    2.3055   564.9    3.010      39.711
2015   10       10     3  12    2.3040   564.7    3.009      39.664
2015   10       10     3  19    2.3024   564.5    3.009      39.617
2015   10       10     3  27    2.3009   564.2    3.008      39.569
2015   10       10     3  34    2.2993   564.0    3.008      39.521
2015   10       10     3  42    2.2977   563.7    3.007      39.473
2015   10       10     3  49    2.2961   563.5    3.006      39.425
2015   10       10     3  57    2.2945   563.3    3.006      39.375
2015   10       10     4   4    2.2929   563.0    3.005      39.326
2015   10       10     4  11    2.2912   562.8    3.005      39.276
2015   10       10     4  19    2.2896   562.5    3.004      39.225
2015   10       10     4  26    2.2879   562.3    3.004      39.174
2015   10       10     4  34    2.2863   562.0    3.003      39.123
2015   10       10     4  41    2.2846   561.8    3.002      39.070
2015   10       10     4  49    2.2830   561.5    3.002      39.017
2015   10       10     4  56    2.2813   561.2    3.001      38.964
2015   10       10     5   4    2.2796   561.0    3.000      38.910
2015   10       10     5  11    2.2780   560.7    3.000      38.855
2015   10       10     5  19    2.2763   560.4    2.999      38.801
2015   10       10     5  26    2.2746   560.1    2.998      38.746
2015   10       10     5  34    2.2730   559.9    2.998      38.691
2015   10       10     5  41    2.2713   559.6    2.997      38.635
2015   10       10     5  49    2.2697   559.3    2.997      38.580
2015   10       10     5  56    2.2680   559.0    2.996      38.525
2015   10       10     6   4    2.2664   558.7    2.996      38.471
2015   10       10     6  11    2.2649   558.4    2.995      38.416
2015   10       10     6  18    2.2633   558.1    2.995      38.363
2015   10       10     6  26    2.2618   557.8    2.995      38.310
2015   10       10     6  33    2.2603   557.5    2.995      38.258
2015   10       10     6  41    2.2588   557.2    2.995      38.207
2015   10       10     6  48    2.2574   556.9    2.995      38.157
2015   10       10     6  56    2.2559   556.6    2.995      38.108
2015   10       10     7   3    2.2545   556.3    2.996      38.061
2015   10       10     7  11    2.2532   556.0    2.996      38.014
2015   10       10     7  18    2.2519   555.7    2.997      37.970
2015   10       10     7  26    2.2506   555.4    2.998      37.926
2015   10       10     7  33    2.2493   555.0    2.999      37.885
2015   10       10     7  41    2.2481   554.7    3.000      37.844
2015   10       10     7  48    2.2468   554.4    3.001      37.806
2015   10       10     7  55    2.2457   554.1    3.003      37.769
2015   10       10     8   3    2.2445   553.8    3.004      37.733
2015   10       10     8  10    2.2434   553.5    3.006      37.699
2015   10       10     8  18    2.2422   553.2    3.008      37.666
2015   10       10     8  25    2.2411   552.9    3.010      37.634
2015   10       10     8  33    2.2400   552.6    3.012      37.603
2015   10       10     8  40    2.2388   552.3    3.014      37.574
2015   10       10     8  48    2.2377   552.0    3.016      37.545
2015   10       10     8  55    2.2366   551.7    3.018      37.516
2015   10       10     9   3    2.2354   551.4    3.020      37.487
2015   10       10     9  10    2.2342   551.1    3.023      37.459
2015   10       10     9  17    2.2330   550.9    3.025      37.430
2015   10       10     9  25    2.2318   550.6    3.027      37.400
2015   10       10     9  32    2.2306   550.3    3.029      37.371
2015   10       10     9  40    2.2293   550.0    3.031      37.340
2015   10       10     9  47    2.2280   549.7    3.033      37.310
2015   10       10     9  55    2.2267   549.4    3.035      37.278
2015   10       10    10   2    2.2254   549.1    3.037      37.246
2015   10       10    10  10    2.2241   548.8    3.039      37.213
2015   10       10    10  17    2.2228   548.6    3.041      37.180
2015   10       10    10  25    2.2214   548.3    3.043      37.146
2015   10       10    10  32    2.2201   548.0    3.044      37.111
2015   10       10    10  39    2.2187   547.7    3.046      37.076
2015   10       10    10  47    2.2173   547.4    3.047      37.040
2015   10       10    10  54    2.2159   547.1    3.049      37.003
2015   10       10    11   2    2.2146   546.9    3.051      36.966
2015   10       10    11   9    2.2131   546.6    3.052      36.928
2015   10       10    11  17    2.2117   546.3    3.053      36.890
2015   10       10    11  24    2.2103   546.0    3.055      36.851
2015   10       10    11  32    2.2089   545.7    3.056      36.812
2015   10       10    11  39    2.2074   545.5    3.058      36.772
2015   10       10    11  47    2.2060   545.2    3.059      36.732
2015   10       10    11  54    2.2045   544.9    3.060      36.691
2015   10       10    12   2    2.2030   544.6    3.062      36.650
2015   10       10    12   9    2.2016   544.3    3.063      36.609
2015   10       10    12  17    2.2001   544.0    3.064      36.568
2015   10       10    12  24    2.1986   543.8    3.065      36.526
2015   10       10    12  32    2.1971   543.5    3.067      36.484
2015   10       10    12  39    2.1956   543.2    3.068      36.442
2015   10       10    12  46    2.1942   542.9    3.069      36.400
2015   10       10    12  54    2.1927   542.6    3.071      36.358
2015   10       10    13   1    2.1912   542.3    3.072      36.316
2015   10       10    13   9    2.1898   542.0    3.073      36.274
2015   10       10    13  16    2.1883   541.8    3.074      36.232
2015   10       10    13  24    2.1869   541.5    3.076      36.189
2015   10       10    13  31    2.1854   541.2    3.077      36.148
2015   10       10    13  39    2.1840   540.9    3.078      36.105
2015   10       10    13  46    2.1826   540.6    3.080      36.064
2015   10       10    13  54    2.1812   540.3    3.081      36.022
2015   10       10    14   1    2.1798   540.0    3.083      35.980
2015   10       10    14   9    2.1784   539.7    3.084      35.939
2015   10       10    14  16    2.1771   539.4    3.086      35.898
2015   10       10    14  24    2.1758   539.1    3.087      35.856
2015   10       10    14  31    2.1745   538.8    3.088      35.815
2015   10       10    14  39    2.1732   538.5    3.090      35.774
2015   10       10    14  46    2.1719   538.2    3.092      35.733
2015   10       10    14  53    2.1706   537.9    3.093      35.692
2015   10       10    15   1    2.1694   537.6    3.095      35.651
2015   10       10    15   8    2.1681   537.3    3.096      35.609
2015   10       10    15  16    2.1669   537.0    3.098      35.568
2015   10       10    15  23    2.1657   536.7    3.099      35.526
2015   10       10    15  31    2.1645   536.4    3.100      35.484
2015   10       10    15  38    2.1633   536.1    3.102      35.442
2015   10       10    15  46    2.1622   535.8    3.103      35.400
2015   10       10    15  53    2.1610   535.5    3.105      35.357
2015   10       10    16   0    2.1598   535.2    3.106      35.315
2015   10       10    16   8    2.1587   534.9    3.107      35.272
2015   10       10    16  15    2.1576   534.5    3.109      35.230
2015   10       10    16  23    2.1564   534.2    3.110      35.187
2015   10       10    16  30    2.1553   533.9    3.112      35.144
2015   10       10    16  38    2.1543   533.6    3.113      35.102
2015   10       10    16  45    2.1532   533.3    3.114      35.060
2015   10       10    16  53    2.1522   533.0    3.116      35.017
2015   10       10    17   0    2.1511   532.6    3.117      34.976
2015   10       10    17   8    2.1502   532.3    3.119      34.935
2015   10       10    17  15    2.1492   532.0    3.121      34.894
2015   10       10    17  22    2.1482   531.7    3.122      34.853
2015   10       10    17  30    2.1473   531.4    3.124      34.812
2015   10       10    17  37    2.1463   531.1    3.126      34.772
2015   10       10    17  45    2.1454   530.8    3.128      34.733
2015   10       10    17  52    2.1445   530.5    3.130      34.694
2015   10       10    18   0    2.1436   530.2    3.132      34.655
2015   10       10    18   7    2.1427   529.9    3.134      34.617
2015   10       10    18  15    2.1418   529.5    3.137      34.579
2015   10       10    18  22    2.1410   529.2    3.139      34.541
2015   10       10    18  30    2.1401   528.9    3.141      34.504
2015   10       10    18  37    2.1392   528.6    3.143      34.467
2015   10       10    18  45    2.1384   528.3    3.146      34.430
2015   10       10    18  52    2.1375   528.0    3.148      34.393
2015   10       10    18  59    2.1367   527.7    3.151      34.357
2015   10       10    19   7    2.1358   527.4    3.153      34.320
2015   10       10    19  14    2.1349   527.1    3.155      34.283
2015   10       10    19  22    2.1341   526.7    3.158      34.245
2015   10       10    19  29    2.1332   526.4    3.160      34.208
2015   10       10    19  37    2.1324   526.1    3.163      34.171
2015   10       10    19  44    2.1315   525.8    3.165      34.133
2015   10       10    19  52    2.1307   525.5    3.168      34.095
2015   10       10    19  59    2.1298   525.2    3.170      34.058
2015   10       10    20   7    2.1290   524.8    3.173      34.020
2015   10       10    20  14    2.1282   524.5    3.175      33.982
2015   10       10    20  22    2.1273   524.2    3.178      33.944
2015   10       10    20  29    2.1265   523.9    3.180      33.907
2015   10       10    20  37    2.1257   523.6    3.183      33.870
2015   10       10    20  44    2.1249   523.2    3.185      33.833
2015   10       10    20  52    2.1240   522.9    3.188      33.796
2015   10       10    20  59    2.1232   522.6    3.190      33.760
2015   10       10    21   7    2.1224   522.3    3.193      33.724
2015   10       10    21  14    2.1216   522.0    3.195      33.688
2015   10       10    21  21    2.1209   521.6    3.198      33.652
2015   10       10    21  29    2.1201   521.3    3.200      33.616
2015   10       10    21  36    2.1193   521.0    3.202      33.580
2015   10       10    21  44    2.1185   520.7    3.205      33.544
2015   10       10    21  51    2.1178   520.4    3.207      33.507
2015   10       10    21  59    2.1170   520.1    3.210      33.471
2015   10       10    22   6    2.1162   519.8    3.212      33.434
2015   10       10    22  14    2.1154   519.5    3.215      33.398
2015   10       10    22  21    2.1146   519.1    3.217      33.361
2015   10       10    22  29    2.1139   518.8    3.219      33.324
2015   10       10    22  36    2.1131   518.5    3.222      33.286
2015   10       10    22  43    2.1123   518.2    3.224      33.248
2015   10       10    22  51    2.1115   517.9    3.226      33.210
2015   10       10    22  58    2.1107   517.6    3.228      33.172
2015   10       10    23   6    2.1099   517.3    3.230      33.133
2015   10       10    23  13    2.1091   517.0    3.232      33.094
2015   10       10    23  21    2.1083   516.7    3.234      33.055
2015   10       10    23  28    2.1075   516.4    3.236      33.015
2015   10       10    23  36    2.1067   516.0    3.238      32.975
2015   10       10    23  43    2.1059   515.7    3.240      32.934
2015   10       10    23  51    2.1051   515.4    3.242      32.893
2015   10       10    23  58    2.1043   515.1    3.243      32.851
2015   10       11     0   5    2.1034   514.8    3.245      32.809
2015   10       11     0  13    2.1026   514.5    3.247      32.766
2015   10       11     0  20    2.1018   514.2    3.248      32.723
2015   10       11     0  28    2.1010   513.9    3.250      32.680
2015   10       11     0  35    2.1001   513.5    3.251      32.636
2015   10       11     0  43    2.0993   513.2    3.253      32.593
2015   10       11     0  50    2.0985   512.9    3.254      32.548
2015   10       11     0  58    2.0976   512.6    3.255      32.504
2015   10       11     1   5    2.0968   512.3    3.257      32.459
2015   10       11     1  12    2.0959   512.0    3.258      32.413
2015   10       11     1  20    2.0950   511.7    3.259      32.368
2015   10       11     1  27    2.0942   511.3    3.260      32.322
2015   10       11     1  35    2.0933   511.0    3.262      32.276
2015   10       11     1  42    2.0924   510.7    3.263      32.230
2015   10       11     1  50    2.0916   510.4    3.264      32.184
2015   10       11     1  57    2.0907   510.0    3.265      32.137
2015   10       11     2   5    2.0898   509.7    3.267      32.091
2015   10       11     2  12    2.0890   509.4    3.268      32.044
2015   10       11     2  20    2.0881   509.0    3.269      31.998
2015   10       11     2  27    2.0873   508.7    3.271      31.952
2015   10       11     2  35    2.0865   508.4    3.272      31.906
2015   10       11     2  42    2.0856   508.0    3.274      31.861
2015   10       11     2  50    2.0848   507.7    3.276      31.817
2015   10       11     2  57    2.0841   507.3    3.278      31.773
2015   10       11     3   5    2.0833   507.0    3.280      31.730
2015   10       11     3  12    2.0825   506.7    3.282      31.688
2015   10       11     3  19    2.0818   506.3    3.285      31.646
2015   10       11     3  27    2.0812   506.0    3.287      31.606
2015   10       11     3  34    2.0805   505.6    3.290      31.567
2015   10       11     3  42    2.0798   505.3    3.293      31.529
2015   10       11     3  49    2.0792   505.0    3.296      31.491
2015   10       11     3  57    2.0786   504.6    3.300      31.455
2015   10       11     4   4    2.0780   504.3    3.303      31.419
2015   10       11     4  12    2.0774   503.9    3.307      31.384
2015   10       11     4  19    2.0768   503.6    3.310      31.350
2015   10       11     4  27    2.0763   503.3    3.314      31.316
2015   10       11     4  34    2.0757   502.9    3.318      31.282
2015   10       11     4  42    2.0751   502.6    3.321      31.249
2015   10       11     4  49    2.0746   502.3    3.325      31.216
2015   10       11     4  57    2.0741   501.9    3.329      31.183
2015   10       11     5   4    2.0735   501.6    3.333      31.150
2015   10       11     5  11    2.0730   501.2    3.337      31.118
2015   10       11     5  19    2.0724   500.9    3.341      31.085
2015   10       11     5  26    2.0719   500.5    3.345      31.053
2015   10       11     5  34    2.0714   500.2    3.349      31.021
2015   10       11     5  41    2.0709   499.8    3.352      30.990
2015   10       11     5  49    2.0704   499.5    3.356      30.958
2015   10       11     5  56    2.0699   499.2    3.360      30.927
2015   10       11     6   4    2.0694   498.8    3.364      30.895
2015   10       11     6  11    2.0690   498.5    3.368      30.864
2015   10       11     6  19    2.0686   498.1    3.372      30.832
2015   10       11     6  26    2.0682   497.8    3.376      30.801
2015   10       11     6  33    2.0678   497.4    3.380      30.769
2015   10       11     6  41    2.0674   497.1    3.383      30.737
2015   10       11     6  48    2.0670   496.8    3.387      30.705
2015   10       11     6  56    2.0666   496.4    3.391      30.673
2015   10       11     7   3    2.0663   496.1    3.395      30.641
2015   10       11     7  11    2.0659   495.8    3.398      30.608
2015   10       11     7  18    2.0655   495.4    3.402      30.575
2015   10       11     7  26    2.0652   495.1    3.406      30.543
2015   10       11     7  33    2.0648   494.7    3.409      30.509
2015   10       11     7  40    2.0645   494.4    3.413      30.476
2015   10       11     7  48    2.0641   494.1    3.416      30.443
2015   10       11     7  55    2.0638   493.7    3.419      30.410
2015   10       11     8   3    2.0635   493.4    3.423      30.376
2015   10       11     8  10    2.0631   493.1    3.426      30.342
2015   10       11     8  18    2.0628   492.7    3.430      30.308
2015   10       11     8  25    2.0625   492.4    3.433      30.275
2015   10       11     8  33    2.0622   492.1    3.436      30.241
2015   10       11     8  40    2.0619   491.7    3.439      30.206
2015   10       11     8  48    2.0616   491.4    3.442      30.172
2015   10       11     8  55    2.0613   491.0    3.445      30.138
2015   10       11     9   3    2.0610   490.7    3.449      30.103
2015   10       11     9  10    2.0607   490.4    3.452      30.069
2015   10       11     9  17    2.0604   490.0    3.455      30.034
2015   10       11     9  25    2.0601   489.7    3.458      29.999
2015   10       11     9  32    2.0598   489.4    3.461      29.964
2015   10       11     9  40    2.0596   489.0    3.464      29.928
2015   10       11     9  47    2.0593   488.7    3.467      29.893
2015   10       11     9  55    2.0590   488.4    3.470      29.857
2015   10       11    10   2    2.0588   488.0    3.472      29.822
2015   10       11    10  10    2.0585   487.7    3.475      29.786
2015   10       11    10  17    2.0583   487.4    3.478      29.750
2015   10       11    10  25    2.0580   487.0    3.481      29.713
2015   10       11    10  32    2.0578   486.7    3.484      29.677
2015   10       11    10  40    2.0575   486.4    3.487      29.640
2015   10       11    10  47    2.0573   486.0    3.490      29.603
2015   10       11    10  55    2.0571   485.7    3.492      29.566
2015   10       11    11   2    2.0568   485.3    3.495      29.529
2015   10       11    11  10    2.0566   485.0    3.498      29.492
2015   10       11    11  17    2.0564   484.6    3.501      29.455
2015   10       11    11  24    2.0562   484.3    3.504      29.418
2015   10       11    11  32    2.0560   484.0    3.507      29.380
2015   10       11    11  39    2.0559   483.6    3.510      29.343
2015   10       11    11  47    2.0557   483.3    3.513      29.306
2015   10       11    11  54    2.0556   482.9    3.516      29.270
2015   10       11    12   2    2.0555   482.6    3.519      29.233
2015   10       11    12   9    2.0554   482.2    3.523      29.197
2015   10       11    12  17    2.0553   481.9    3.526      29.161
2015   10       11    12  24    2.0553   481.5    3.530      29.125
2015   10       11    12  32    2.0553   481.2    3.533      29.090
2015   10       11    12  39    2.0553   480.8    3.537      29.055
2015   10       11    12  47    2.0553   480.5    3.541      29.021
2015   10       11    12  54    2.0554   480.1    3.545      28.987
2015   10       11    13   1    2.0555   479.8    3.549      28.953
2015   10       11    13   9    2.0556   479.4    3.553      28.920
2015   10       11    13  16    2.0557   479.1    3.557      28.887
2015   10       11    13  24    2.0559   478.7    3.561      28.855
2015   10       11    13  31    2.0561   478.4    3.565      28.823
2015   10       11    13  39    2.0563   478.0    3.570      28.791
2015   10       11    13  46    2.0565   477.7    3.574      28.759
2015   10       11    13  54    2.0568   477.3    3.578      28.727
2015   10       11    14   1    2.0570   477.0    3.583      28.696
2015   10       11    14   8    2.0573   476.6    3.587      28.665
2015   10       11    14  16    2.0576   476.3    3.592      28.633
2015   10       11    14  23    2.0579   475.9    3.596      28.602
2015   10       11    14  31    2.0582   475.6    3.601      28.571
2015   10       11    14  38    2.0585   475.2    3.605      28.540
2015   10       11    14  46    2.0588   474.9    3.610      28.508
2015   10       11    14  53    2.0591   474.6    3.614      28.477
2015   10       11    15   1    2.0594   474.2    3.619      28.446
2015   10       11    15   8    2.0598   473.9    3.623      28.415
2015   10       11    15  16    2.0601   473.5    3.628      28.383
2015   10       11    15  23    2.0605   473.2    3.632      28.352
2015   10       11    15  30    2.0608   472.8    3.637      28.320
2015   10       11    15  38    2.0612   472.5    3.641      28.289
2015   10       11    15  45    2.0616   472.1    3.646      28.258
2015   10       11    15  53    2.0620   471.8    3.650      28.227
2015   10       11    16   0    2.0624   471.4    3.655      28.196
2015   10       11    16   8    2.0629   471.1    3.659      28.166
2015   10       11    16  15    2.0633   470.8    3.664      28.135
2015   10       11    16  23    2.0638   470.4    3.668      28.105
2015   10       11    16  30    2.0642   470.1    3.673      28.075
2015   10       11    16  38    2.0647   469.7    3.678      28.045
2015   10       11    16  45    2.0653   469.4    3.683      28.016
2015   10       11    16  52    2.0658   469.0    3.688      27.987
2015   10       11    17   0    2.0664   468.7    3.693      27.958
2015   10       11    17   7    2.0669   468.4    3.698      27.929
2015   10       11    17  15    2.0675   468.0    3.703      27.901
2015   10       11    17  22    2.0681   467.7    3.708      27.873
2015   10       11    17  30    2.0688   467.3    3.714      27.845
2015   10       11    17  37    2.0694   467.0    3.719      27.818
2015   10       11    17  45    2.0701   466.7    3.724      27.791
2015   10       11    17  52    2.0708   466.3    3.730      27.764
2015   10       11    18   0    2.0715   466.0    3.735      27.738
2015   10       11    18   7    2.0722   465.6    3.741      27.711
2015   10       11    18  15    2.0730   465.3    3.747      27.685
2015   10       11    18  22    2.0737   465.0    3.752      27.659
2015   10       11    18  30    2.0745   464.6    3.758      27.633
2015   10       11    18  37    2.0753   464.3    3.764      27.608
2015   10       11    18  45    2.0761   464.0    3.770      27.582
2015   10       11    18  52    2.0769   463.6    3.776      27.557
2015   10       11    18  59    2.0777   463.3    3.781      27.532
2015   10       11    19   7    2.0786   462.9    3.787      27.507
2015   10       11    19  14    2.0795   462.6    3.793      27.482
2015   10       11    19  22    2.0804   462.2    3.799      27.457
2015   10       11    19  29    2.0813   461.9    3.806      27.433
2015   10       11    19  37    2.0822   461.6    3.812      27.408
2015   10       11    19  44    2.0832   461.2    3.818      27.384
2015   10       11    19  52    2.0841   460.9    3.824      27.360
2015   10       11    19  59    2.0851   460.5    3.831      27.337
2015   10       11    20   7    2.0862   460.2    3.837      27.313
2015   10       11    20  14    2.0872   459.8    3.844      27.290
2015   10       11    20  22    2.0883   459.5    3.851      27.267
2015   10       11    20  29    2.0894   459.2    3.857      27.245
2015   10       11    20  36    2.0906   458.8    3.864      27.223
2015   10       11    20  44    2.0918   458.5    3.871      27.201
2015   10       11    20  51    2.0930   458.1    3.879      27.181
2015   10       11    20  59    2.0943   457.8    3.886      27.160
2015   10       11    21   6    2.0956   457.4    3.894      27.141
2015   10       11    21  14    2.0970   457.1    3.901      27.121
2015   10       11    21  21    2.0984   456.8    3.909      27.103
2015   10       11    21  29    2.0998   456.4    3.917      27.085
2015   10       11    21  36    2.1013   456.1    3.925      27.069
2015   10       11    21  43    2.1029   455.7    3.934      27.052
2015   10       11    21  51    2.1044   455.4    3.942      27.037
2015   10       11    21  58    2.1061   455.1    3.951      27.022
2015   10       11    22   6    2.1077   454.7    3.960      27.008
2015   10       11    22  13    2.1095   454.4    3.969      26.994
2015   10       11    22  21    2.1112   454.1    3.978      26.982
2015   10       11    22  28    2.1130   453.8    3.987      26.969
2015   10       11    22  36    2.1148   453.5    3.996      26.958
2015   10       11    22  43    2.1167   453.1    4.006      26.946
2015   10       11    22  50    2.1185   452.8    4.015      26.936
2015   10       11    22  58    2.1204   452.5    4.024      26.925
2015   10       11    23   5    2.1223   452.2    4.034      26.916
2015   10       11    23  13    2.1242   451.9    4.043      26.906
2015   10       11    23  20    2.1261   451.6    4.053      26.897
2015   10       11    23  28    2.1280   451.3    4.063      26.887
2015   10       11    23  35    2.1300   451.0    4.072      26.878
2015   10       11    23  43    2.1319   450.7    4.082      26.870
2015   10       11    23  50    2.1339   450.4    4.091      26.861
2015   10       11    23  58    2.1358   450.1    4.101      26.853
2015   10       12     0   5    2.1378   449.8    4.110      26.844
2015   10       12     0  13    2.1398   449.5    4.119      26.836
2015   10       12     0  20    2.1418   449.2    4.129      26.828
2015   10       12     0  28    2.1438   448.9    4.138      26.820
2015   10       12     0  35    2.1459   448.6    4.148      26.812
2015   10       12     0  42    2.1479   448.3    4.157      26.805
2015   10       12     0  50    2.1500   448.0    4.166      26.797
2015   10       12     0  57    2.1521   447.7    4.176      26.790
2015   10       12     1   5    2.1541   447.4    4.185      26.783
2015   10       12     1  12    2.1562   447.2    4.194      26.776
2015   10       12     1  20    2.1583   446.9    4.204      26.769
2015   10       12     1  27    2.1605   446.6    4.213      26.762
2015   10       12     1  35    2.1626   446.3    4.222      26.756
2015   10       12     1  42    2.1648   446.0    4.232      26.750
2015   10       12     1  50    2.1669   445.8    4.241      26.744
2015   10       12     1  57    2.1691   445.5    4.251      26.738
2015   10       12     2   5    2.1713   445.2    4.260      26.733
2015   10       12     2  12    2.1736   445.0    4.270      26.727
2015   10       12     2  20    2.1757   444.7    4.279      26.722
2015   10       12     2  27    2.1780   444.4    4.289      26.717
2015   10       12     2  34    2.1802   444.2    4.298      26.713
2015   10       12     2  42    2.1825   443.9    4.308      26.708
2015   10       12     2  49    2.1848   443.7    4.318      26.704
2015   10       12     2  57    2.1871   443.4    4.328      26.700
2015   10       12     3   4    2.1893   443.1    4.338      26.697
2015   10       12     3  12    2.1917   442.9    4.348      26.693
2015   10       12     3  19    2.1940   442.6    4.358      26.690
2015   10       12     3  27    2.1963   442.4    4.368      26.687
2015   10       12     3  34    2.1987   442.1    4.378      26.685
2015   10       12     3  42    2.2010   441.9    4.389      26.683
2015   10       12     3  49    2.2034   441.6    4.399      26.680
2015   10       12     3  56    2.2058   441.4    4.410      26.679
2015   10       12     4   4    2.2082   441.1    4.420      26.678
2015   10       12     4  11    2.2107   440.9    4.431      26.677
2015   10       12     4  19    2.2132   440.7    4.442      26.677
2015   10       12     4  26    2.2156   440.4    4.453      26.677
2015   10       12     4  34    2.2182   440.2    4.464      26.677
2015   10       12     4  41    2.2207   439.9    4.476      26.678
2015   10       12     4  49    2.2233   439.7    4.487      26.680
2015   10       12     4  56    2.2259   439.5    4.499      26.683
2015   10       12     5   3    2.2285   439.2    4.510      26.686
2015   10       12     5  11    2.2312   439.0    4.522      26.689
2015   10       12     5  18    2.2338   438.8    4.534      26.694
2015   10       12     5  26    2.2366   438.6    4.547      26.699
2015   10       12     5  33    2.2393   438.3    4.559      26.704
2015   10       12     5  41    2.2421   438.1    4.571      26.711
2015   10       12     5  48    2.2449   437.9    4.584      26.718
2015   10       12     5  56    2.2478   437.7    4.597      26.725
2015   10       12     6   3    2.2507   437.5    4.609      26.733
2015   10       12     6  11    2.2536   437.3    4.622      26.742
2015   10       12     6  18    2.2565   437.1    4.635      26.751
2015   10       12     6  25    2.2595   436.9    4.648      26.761
2015   10       12     6  33    2.2624   436.7    4.661      26.771
2015   10       12     6  40    2.2654   436.5    4.675      26.782
2015   10       12     6  48    2.2684   436.3    4.688      26.793
2015   10       12     6  55    2.2714   436.1    4.701      26.804
2015   10       12     7   3    2.2743   435.9    4.714      26.816
2015   10       12     7  10    2.2773   435.7    4.727      26.828
2015   10       12     7  18    2.2803   435.5    4.740      26.841
2015   10       12     7  25    2.2832   435.3    4.753      26.855
2015   10       12     7  33    2.2861   435.2    4.766      26.869
2015   10       12     7  40    2.2890   435.0    4.778      26.884
2015   10       12     7  48    2.2919   434.8    4.791      26.899
2015   10       12     7  55    2.2948   434.6    4.803      26.915
2015   10       12     8   2    2.2977   434.4    4.815      26.932
2015   10       12     8  10    2.3005   434.3    4.827      26.948
2015   10       12     8  17    2.3034   434.1    4.838      26.965
2015   10       12     8  25    2.3062   433.9    4.850      26.982
2015   10       12     8  32    2.3091   433.8    4.861      26.998
2015   10       12     8  40    2.3119   433.6    4.873      27.015
2015   10       12     8  47    2.3147   433.4    4.884      27.030
2015   10       12     8  55    2.3175   433.3    4.895      27.046
2015   10       12     9   2    2.3203   433.1    4.906      27.061
2015   10       12     9  10    2.3231   433.0    4.917      27.076
2015   10       12     9  17    2.3259   432.8    4.927      27.090
2015   10       12     9  25    2.3287   432.6    4.938      27.105
2015   10       12     9  32    2.3315   432.5    4.949      27.119
2015   10       12     9  40    2.3343   432.3    4.959      27.132
2015   10       12     9  47    2.3371   432.2    4.970      27.146
2015   10       12     9  54    2.3399   432.0    4.980      27.159
2015   10       12    10   2    2.3426   431.9    4.990      27.172
2015   10       12    10   9    2.3454   431.7    5.001      27.185
2015   10       12    10  17    2.3482   431.6    5.011      27.197
2015   10       12    10  24    2.3510   431.4    5.021      27.210
2015   10       12    10  32    2.3537   431.3    5.031      27.222
2015   10       12    10  39    2.3565   431.2    5.042      27.234
2015   10       12    10  47    2.3593   431.0    5.052      27.245
2015   10       12    10  54    2.3620   430.9    5.062      27.257
2015   10       12    11   2    2.3648   430.7    5.072      27.269
2015   10       12    11   9    2.3676   430.6    5.082      27.280
2015   10       12    11  16    2.3703   430.5    5.092      27.291
2015   10       12    11  24    2.3731   430.3    5.102      27.302
2015   10       12    11  31    2.3758   430.2    5.112      27.313
2015   10       12    11  39    2.3785   430.1    5.122      27.324
2015   10       12    11  46    2.3813   430.0    5.132      27.335
2015   10       12    11  54    2.3840   429.8    5.142      27.346
2015   10       12    12   1    2.3867   429.7    5.151      27.357
2015   10       12    12   9    2.3895   429.6    5.161      27.369
2015   10       12    12  16    2.3922   429.5    5.171      27.380
2015   10       12    12  23    2.3949   429.3    5.181      27.391
2015   10       12    12  31    2.3976   429.2    5.191      27.402
2015   10       12    12  38    2.4004   429.1    5.201      27.414
2015   10       12    12  46    2.4031   429.0    5.210      27.425
2015   10       12    12  53    2.4058   428.9    5.220      27.438
2015   10       12    13   1    2.4086   428.7    5.230      27.450
2015   10       12    13   8    2.4113   428.6    5.240      27.462
2015   10       12    13  16    2.4141   428.5    5.250      27.475
2015   10       12    13  23    2.4169   428.4    5.260      27.488
2015   10       12    13  30    2.4196   428.3    5.270      27.501
2015   10       12    13  38    2.4224   428.2    5.280      27.514
2015   10       12    13  45    2.4252   428.1    5.290      27.527
2015   10       12    13  53    2.4280   428.0    5.301      27.541
2015   10       12    14   0    2.4308   427.9    5.311      27.556
2015   10       12    14   8    2.4336   427.8    5.321      27.570
2015   10       12    14  15    2.4364   427.7    5.332      27.585
2015   10       12    14  23    2.4392   427.6    5.342      27.601
2015   10       12    14  30    2.4420   427.5    5.353      27.616
2015   10       12    14  38    2.4447   427.4    5.363      27.633
2015   10       12    14  45    2.4475   427.3    5.373      27.650
2015   10       12    14  53    2.4501   427.2    5.384      27.668
2015   10       12    15   0    2.4528   427.1    5.394      27.686
2015   10       12    15   7    2.4554   427.0    5.404      27.705
2015   10       12    15  15    2.4580   426.9    5.413      27.725
2015   10       12    15  22    2.4606   426.8    5.423      27.744
2015   10       12    15  30    2.4631   426.7    5.433      27.764
2015   10       12    15  37    2.4656   426.7    5.442      27.784
2015   10       12    15  45    2.4680   426.6    5.451      27.804
2015   10       12    15  52    2.4705   426.5    5.460      27.824
2015   10       12    16   0    2.4729   426.4    5.469      27.843
2015   10       12    16   7    2.4752   426.3    5.478      27.862
2015   10       12    16  15    2.4776   426.2    5.486      27.880
2015   10       12    16  22    2.4800   426.2    5.495      27.898
2015   10       12    16  30    2.4823   426.1    5.503      27.916
2015   10       12    16  37    2.4846   426.0    5.511      27.933
2015   10       12    16  45    2.4869   425.9    5.520      27.949
2015   10       12    16  52    2.4892   425.8    5.528      27.965
2015   10       12    16  59    2.4915   425.7    5.535      27.981
2015   10       12    17   7    2.4937   425.6    5.543      27.997
2015   10       12    17  14    2.4960   425.6    5.551      28.012
2015   10       12    17  22    2.4982   425.5    5.558      28.027
2015   10       12    17  29    2.5004   425.4    5.566      28.041
2015   10       12    17  37    2.5027   425.3    5.573      28.055
2015   10       12    17  44    2.5049   425.2    5.581      28.069
2015   10       12    17  52    2.5071   425.1    5.588      28.082
2015   10       12    17  59    2.5093   425.1    5.595      28.095
2015   10       12    18   7    2.5115   425.0    5.602      28.108
2015   10       12    18  14    2.5137   424.9    5.609      28.121
2015   10       12    18  21    2.5158   424.8    5.616      28.133
2015   10       12    18  29    2.5180   424.7    5.622      28.145
2015   10       12    18  36    2.5202   424.7    5.629      28.157
2015   10       12    18  44    2.5223   424.6    5.636      28.168
2015   10       12    18  51    2.5245   424.5    5.642      28.180
2015   10       12    18  59    2.5266   424.4    5.649      28.191
2015   10       12    19   6    2.5287   424.3    5.655      28.202
2015   10       12    19  14    2.5309   424.3    5.661      28.213
2015   10       12    19  21    2.5330   424.2    5.668      28.224
2015   10       12    19  28    2.5351   424.1    5.674      28.235
2015   10       12    19  36    2.5372   424.0    5.680      28.246
2015   10       12    19  43    2.5394   424.0    5.686      28.257
2015   10       12    19  51    2.5415   423.9    5.693      28.268
2015   10       12    19  58    2.5436   423.8    5.699      28.279
2015   10       12    20   6    2.5457   423.7    5.705      28.290
2015   10       12    20  13    2.5478   423.7    5.711      28.301
2015   10       12    20  21    2.5500   423.6    5.717      28.312
2015   10       12    20  28    2.5521   423.5    5.724      28.323
2015   10       12    20  36    2.5542   423.4    5.730      28.334
2015   10       12    20  43    2.5564   423.4    5.736      28.346
2015   10       12    20  50    2.5585   423.3    5.743      28.357
2015   10       12    20  58    2.5607   423.2    5.749      28.369
2015   10       12    21   5    2.5628   423.2    5.755      28.380
2015   10       12    21  13    2.5650   423.1    5.762      28.392
2015   10       12    21  20    2.5671   423.0    5.768      28.404
2015   10       12    21  28    2.5693   423.0    5.775      28.416
2015   10       12    21  35    2.5715   422.9    5.781      28.429
2015   10       12    21  43    2.5736   422.8    5.788      28.441
2015   10       12    21  50    2.5758   422.8    5.794      28.454
2015   10       12    21  58    2.5779   422.7    5.801      28.466
2015   10       12    22   5    2.5801   422.6    5.808      28.479
2015   10       12    22  12    2.5822   422.6    5.814      28.492
2015   10       12    22  20    2.5843   422.5    5.821      28.505
2015   10       12    22  27    2.5863   422.5    5.828      28.517
2015   10       12    22  35    2.5884   422.4    5.835      28.530
2015   10       12    22  42    2.5905   422.4    5.841      28.543
2015   10       12    22  50    2.5925   422.3    5.848      28.556
2015   10       12    22  57    2.5945   422.2    5.855      28.568
2015   10       12    23   5    2.5964   422.2    5.861      28.581
2015   10       12    23  12    2.5984   422.1    5.868      28.593
2015   10       12    23  20    2.6003   422.1    5.874      28.606
2015   10       12    23  27    2.6023   422.0    5.881      28.618
2015   10       12    23  35    2.6042   422.0    5.887      28.630
2015   10       12    23  42    2.6061   421.9    5.893      28.642
2015   10       12    23  50    2.6080   421.9    5.900      28.654
2015   10       12    23  57    2.6098   421.8    5.906      28.665
2015   10       13     0   4    2.6117   421.7    5.912      28.677
2015   10       13     0  12    2.6136   421.7    5.918      28.688
2015   10       13     0  19    2.6154   421.6    5.924      28.699
2015   10       13     0  27    2.6172   421.6    5.930      28.710
2015   10       13     0  34    2.6191   421.5    5.935      28.721
2015   10       13     0  42    2.6209   421.5    5.941      28.732
2015   10       13     0  49    2.6227   421.4    5.947      28.742
2015   10       13     0  57    2.6246   421.3    5.952      28.753
2015   10       13     1   4    2.6264   421.3    5.958      28.763
2015   10       13     1  12    2.6282   421.2    5.964      28.773
2015   10       13     1  19    2.6300   421.2    5.969      28.783
2015   10       13     1  26    2.6317   421.1    5.974      28.793
2015   10       13     1  34    2.6335   421.1    5.980      28.803
2015   10       13     1  41    2.6353   421.0    5.985      28.813
2015   10       13     1  49    2.6370   420.9    5.990      28.823
2015   10       13     1  56    2.6388   420.9    5.996      28.832
2015   10       13     2   4    2.6406   420.8    6.001      28.842
2015   10       13     2  11    2.6423   420.8    6.006      28.851
2015   10       13     2  19    2.6440   420.7    6.011      28.861
2015   10       13     2  26    2.6458   420.7    6.016      28.870
2015   10       13     2  34    2.6475   420.6    6.021      28.880
2015   10       13     2  41    2.6492   420.6    6.026      28.889
2015   10       13     2  48    2.6509   420.5    6.031      28.898
2015   10       13     2  56    2.6526   420.4    6.036      28.907
2015   10       13     3   3    2.6543   420.4    6.041      28.916
2015   10       13     3  11    2.6560   420.3    6.046      28.926
2015   10       13     3  18    2.6577   420.3    6.051      28.935
2015   10       13     3  26    2.6594   420.2    6.056      28.944
2015   10       13     3  33    2.6611   420.1    6.061      28.953
2015   10       13     3  41    2.6628   420.1    6.066      28.962
2015   10       13     3  48    2.6645   420.0    6.071      28.971
2015   10       13     3  55    2.6662   420.0    6.076      28.980
2015   10       13     4   3    2.6679   419.9    6.081      28.989
2015   10       13     4  10    2.6696   419.9    6.086      28.998
2015   10       13     4  18    2.6713   419.8    6.091      29.007
2015   10       13     4  25    2.6730   419.7    6.096      29.016
2015   10       13     4  33    2.6747   419.7    6.101      29.025
2015   10       13     4  40    2.6764   419.6    6.106      29.034
2015   10       13     4  48    2.6781   419.6    6.111      29.043
2015   10       13     4  55    2.6798   419.5    6.116      29.052
2015   10       13     5   3    2.6815   419.4    6.122      29.061
2015   10       13     5  10    2.6833   419.4    6.127      29.070
2015   10       13     5  17    2.6850   419.3    6.132      29.079
2015   10       13     5  25    2.6868   419.3    6.137      29.088
2015   10       13     5  32    2.6885   419.2    6.143      29.097
2015   10       13     5  40    2.6903   419.1    6.148      29.107
2015   10       13     5  47    2.6921   419.1    6.153      29.116
2015   10       13     5  55    2.6939   419.0    6.159      29.125
2015   10       13     6   2    2.6958   419.0    6.165      29.135
2015   10       13     6  10    2.6976   418.9    6.170      29.145
2015   10       13     6  17    2.6995   418.8    6.176      29.154
2015   10       13     6  25    2.7014   418.8    6.182      29.164
2015   10       13     6  32    2.7033   418.7    6.187      29.174
2015   10       13     6  40    2.7052   418.7    6.193      29.184
2015   10       13     6  47    2.7071   418.6    6.199      29.195
2015   10       13     6  55    2.7091   418.5    6.205      29.205
2015   10       13     7   2    2.7111   418.5    6.212      29.215
2015   10       13     7   9    2.7131   418.4    6.218      29.226
2015   10       13     7  17    2.7151   418.4    6.224      29.236
2015   10       13     7  24    2.7171   418.3    6.230      29.247
2015   10       13     7  32    2.7191   418.3    6.237      29.258
2015   10       13     7  39    2.7212   418.2    6.243      29.269
2015   10       13     7  47    2.7232   418.1    6.249      29.280
2015   10       13     7  54    2.7252   418.1    6.256      29.291
2015   10       13     8   2    2.7272   418.0    6.262      29.302
2015   10       13     8   9    2.7292   418.0    6.269      29.314
2015   10       13     8  17    2.7312   417.9    6.275      29.325
2015   10       13     8  24    2.7331   417.9    6.282      29.336
2015   10       13     8  32    2.7351   417.8    6.288      29.348
2015   10       13     8  39    2.7370   417.8    6.294      29.360
2015   10       13     8  46    2.7389   417.7    6.300      29.371
2015   10       13     8  54    2.7408   417.7    6.306      29.382
2015   10       13     9   1    2.7427   417.6    6.312      29.393
2015   10       13     9   9    2.7446   417.6    6.318      29.404
2015   10       13     9  16    2.7465   417.6    6.323      29.414
2015   10       13     9  24    2.7483   417.5    6.329      29.424
2015   10       13     9  31    2.7502   417.5    6.334      29.434
2015   10       13     9  39    2.7520   417.4    6.340      29.444
2015   10       13     9  46    2.7539   417.4    6.345      29.453
2015   10       13     9  53    2.7557   417.3    6.350      29.462
2015   10       13    10   1    2.7575   417.3    6.356      29.471
2015   10       13    10   8    2.7593   417.2    6.361      29.480
2015   10       13    10  16    2.7612   417.2    6.366      29.488
2015   10       13    10  23    2.7630   417.1    6.371      29.496
2015   10       13    10  31    2.7648   417.1    6.376      29.504
2015   10       13    10  38    2.7666   417.0    6.381      29.512
2015   10       13    10  46    2.7684   417.0    6.386      29.520
2015   10       13    10  53    2.7702   416.9    6.391      29.527
2015   10       13    11   0    2.7720   416.9    6.396      29.535
2015   10       13    11   8    2.7738   416.8    6.400      29.542
2015   10       13    11  15    2.7756   416.8    6.405      29.549
2015   10       13    11  23    2.7774   416.7    6.410      29.556
2015   10       13    11  30    2.7793   416.7    6.415      29.563
2015   10       13    11  38    2.7811   416.6    6.419      29.569
2015   10       13    11  45    2.7830   416.5    6.424      29.576
2015   10       13    11  53    2.7848   416.5    6.429      29.583
2015   10       13    12   0    2.7867   416.4    6.433      29.590
2015   10       13    12   8    2.7886   416.4    6.438      29.596
2015   10       13    12  15    2.7905   416.3    6.443      29.603
2015   10       13    12  22    2.7925   416.3    6.448      29.610
2015   10       13    12  30    2.7945   416.2    6.453      29.618
2015   10       13    12  37    2.7965   416.1    6.458      29.625
2015   10       13    12  45    2.7986   416.1    6.463      29.633
2015   10       13    12  52    2.8007   416.0    6.469      29.641
2015   10       13    13   0    2.8028   416.0    6.474      29.650
2015   10       13    13   7    2.8050   415.9    6.480      29.659
2015   10       13    13  15    2.8073   415.8    6.486      29.668
2015   10       13    13  22    2.8096   415.8    6.492      29.678
2015   10       13    13  30    2.8120   415.7    6.498      29.689
2015   10       13    13  37    2.8144   415.7    6.505      29.700
2015   10       13    13  45    2.8169   415.6    6.512      29.711
2015   10       13    13  52    2.8194   415.6    6.519      29.724
2015   10       13    14   0    2.8220   415.5    6.526      29.736
2015   10       13    14   7    2.8246   415.4    6.533      29.750
2015   10       13    14  15    2.8273   415.4    6.541      29.764
2015   10       13    14  22    2.8300   415.3    6.549      29.778
2015   10       13    14  29    2.8328   415.3    6.557      29.794
2015   10       13    14  37    2.8355   415.2    6.565      29.809
2015   10       13    14  44    2.8384   415.2    6.574      29.826
2015   10       13    14  52    2.8412   415.2    6.582      29.842
2015   10       13    14  59    2.8440   415.1    6.591      29.860
2015   10       13    15   7    2.8468   415.1    6.600      29.878
2015   10       13    15  14    2.8496   415.0    6.609      29.896
2015   10       13    15  22    2.8523   415.0    6.617      29.915
2015   10       13    15  29    2.8550   415.0    6.626      29.934
2015   10       13    15  37    2.8577   415.0    6.634      29.953
2015   10       13    15  44    2.8604   414.9    6.642      29.972
2015   10       13    15  51    2.8630   414.9    6.650      29.991
2015   10       13    15  59    2.8656   414.9    6.658      30.009
2015   10       13    16   6    2.8682   414.9    6.666      30.027
2015   10       13    16  14    2.8708   414.8    6.673      30.044
2015   10       13    16  21    2.8734   414.8    6.680      30.060
2015   10       13    16  29    2.8759   414.8    6.687      30.076
2015   10       13    16  36    2.8785   414.8    6.694      30.092
2015   10       13    16  44    2.8810   414.8    6.701      30.107
2015   10       13    16  51    2.8836   414.7    6.708      30.122
2015   10       13    16  59    2.8861   414.7    6.715      30.136
2015   10       13    17   6    2.8886   414.7    6.721      30.150
2015   10       13    17  13    2.8912   414.7    6.728      30.164
2015   10       13    17  21    2.8937   414.6    6.734      30.178
2015   10       13    17  28    2.8962   414.6    6.740      30.191
2015   10       13    17  36    2.8988   414.6    6.747      30.204
2015   10       13    17  43    2.9013   414.6    6.753      30.217
2015   10       13    17  51    2.9039   414.6    6.759      30.230
2015   10       13    17  58    2.9064   414.5    6.765      30.244
2015   10       13    18   5    2.9090   414.5    6.771      30.257
2015   10       13    18  13    2.9116   414.5    6.778      30.270
2015   10       13    18  20    2.9142   414.5    6.784      30.283
2015   10       13    18  28    2.9168   414.4    6.790      30.297
2015   10       13    18  35    2.9194   414.4    6.796      30.310
2015   10       13    18  43    2.9221   414.4    6.802      30.324
2015   10       13    18  50    2.9248   414.4    6.808      30.339
2015   10       13    18  58    2.9275   414.4    6.814      30.353
2015   10       13    19   5    2.9302   414.4    6.821      30.368
2015   10       13    19  13    2.9329   414.3    6.827      30.384
2015   10       13    19  20    2.9357   414.3    6.833      30.399
2015   10       13    19  27    2.9385   414.3    6.840      30.416
2015   10       13    19  35    2.9413   414.3    6.846      30.432
2015   10       13    19  42    2.9442   414.3    6.853      30.450
2015   10       13    19  50    2.9471   414.3    6.860      30.467
2015   10       13    19  57    2.9500   414.2    6.867      30.486
2015   10       13    20   5    2.9530   414.2    6.874      30.505
2015   10       13    20  12    2.9561   414.2    6.881      30.524
2015   10       13    20  20    2.9591   414.2    6.888      30.544
2015   10       13    20  27    2.9623   414.2    6.896      30.564
2015   10       13    20  35    2.9654   414.2    6.903      30.585
2015   10       13    20  42    2.9687   414.2    6.911      30.606
2015   10       13    20  50    2.9720   414.2    6.919      30.628
2015   10       13    20  57    2.9754   414.2    6.927      30.651
2015   10       13    21   5    2.9788   414.2    6.935      30.674
2015   10       13    21  12    2.9823   414.1    6.944      30.697
2015   10       13    21  19    2.9857   414.1    6.953      30.721
2015   10       13    21  27    2.9894   414.1    6.962      30.745
2015   10       13    21  34    2.9930   414.1    6.971      30.770
2015   10       13    21  42    2.9967   414.1    6.981      30.796
2015   10       13    21  49    3.0004   414.1    6.990      30.822
2015   10       13    21  57    3.0041   414.1    7.000      30.849
2015   10       13    22   4    3.0078   414.1    7.010      30.876
2015   10       13    22  12    3.0115   414.2    7.020      30.905
2015   10       13    22  19    3.0151   414.2    7.030      30.934
2015   10       13    22  27    3.0187   414.2    7.040      30.965
2015   10       13    22  34    3.0223   414.2    7.049      30.996
2015   10       13    22  42    3.0258   414.2    7.058      31.028
2015   10       13    22  49    3.0292   414.3    7.067      31.061
2015   10       13    22  56    3.0327   414.3    7.076      31.093
2015   10       13    23   4    3.0360   414.3    7.084      31.124
2015   10       13    23  11    3.0394   414.3    7.092      31.155
2015   10       13    23  19    3.0426   414.4    7.100      31.184
2015   10       13    23  26    3.0459   414.4    7.107      31.213
2015   10       13    23  34    3.0491   414.4    7.114      31.242
2015   10       13    23  41    3.0523   414.5    7.121      31.270
2015   10       13    23  49    3.0555   414.5    7.128      31.297
2015   10       13    23  56    3.0586   414.5    7.134      31.323
2015   10       14     0   4    3.0617   414.5    7.141      31.349
2015   10       14     0  11    3.0649   414.6    7.147      31.375
2015   10       14     0  18    3.0680   414.6    7.153      31.400
2015   10       14     0  26    3.0711   414.6    7.159      31.424
2015   10       14     0  33    3.0741   414.7    7.165      31.449
2015   10       14     0  41    3.0772   414.7    7.171      31.473
2015   10       14     0  48    3.0802   414.7    7.176      31.496
2015   10       14     0  56    3.0833   414.8    7.182      31.519
2015   10       14     1   3    3.0863   414.8    7.187      31.542
2015   10       14     1  11    3.0894   414.8    7.193      31.565
2015   10       14     1  18    3.0924   414.9    7.198      31.588
2015   10       14     1  25    3.0955   414.9    7.203      31.610
2015   10       14     1  33    3.0985   414.9    7.209      31.633
2015   10       14     1  40    3.1016   415.0    7.214      31.655
2015   10       14     1  48    3.1046   415.0    7.219      31.678
2015   10       14     1  55    3.1077   415.0    7.224      31.700
2015   10       14     2   3    3.1107   415.1    7.230      31.723
2015   10       14     2  10    3.1138   415.1    7.235      31.746
2015   10       14     2  18    3.1169   415.1    7.240      31.768
2015   10       14     2  25    3.1200   415.2    7.246      31.791
2015   10       14     2  32    3.1231   415.2    7.251      31.815
2015   10       14     2  40    3.1263   415.3    7.257      31.838
2015   10       14     2  47    3.1294   415.3    7.262      31.862
2015   10       14     2  55    3.1326   415.3    7.268      31.886
2015   10       14     3   2    3.1358   415.4    7.274      31.911
2015   10       14     3  10    3.1391   415.4    7.280      31.936
2015   10       14     3  17    3.1424   415.5    7.286      31.962
2015   10       14     3  25    3.1457   415.5    7.293      31.988
2015   10       14     3  32    3.1491   415.6    7.300      32.015
2015   10       14     3  40    3.1525   415.6    7.307      32.043
2015   10       14     3  47    3.1559   415.7    7.314      32.071
2015   10       14     3  55    3.1595   415.7    7.322      32.100
2015   10       14     4   2    3.1631   415.8    7.330      32.130
2015   10       14     4  10    3.1667   415.8    7.338      32.161
2015   10       14     4  17    3.1705   415.9    7.347      32.192
2015   10       14     4  25    3.1743   415.9    7.356      32.226
2015   10       14     4  32    3.1781   416.0    7.366      32.261
2015   10       14     4  39    3.1821   416.1    7.376      32.298
2015   10       14     4  47    3.1860   416.1    7.386      32.336
2015   10       14     4  54    3.1900   416.2    7.397      32.375
2015   10       14     5   2    3.1941   416.3    7.407      32.416
2015   10       14     5   9    3.1981   416.4    7.418      32.461
2015   10       14     5  17    3.2020   416.5    7.428      32.507
2015   10       14     5  24    3.2060   416.6    7.438      32.556
2015   10       14     5  32    3.2097   416.7    7.447      32.606
2015   10       14     5  39    3.2134   416.8    7.456      32.657
2015   10       14     5  47    3.2170   416.9    7.464      32.706
2015   10       14     5  54    3.2206   417.0    7.472      32.754
2015   10       14     6   2    3.2240   417.1    7.479      32.799
2015   10       14     6   9    3.2273   417.2    7.485      32.843
2015   10       14     6  16    3.2305   417.3    7.491      32.886
2015   10       14     6  24    3.2337   417.4    7.496      32.927
2015   10       14     6  31    3.2367   417.5    7.501      32.967
2015   10       14     6  39    3.2398   417.6    7.505      33.006
2015   10       14     6  46    3.2427   417.6    7.510      33.043
2015   10       14     6  54    3.2457   417.7    7.513      33.079
2015   10       14     7   1    3.2485   417.8    7.517      33.115
2015   10       14     7   9    3.2514   417.9    7.520      33.149
2015   10       14     7  16    3.2542   418.0    7.523      33.183
2015   10       14     7  23    3.2570   418.1    7.526      33.216
2015   10       14     7  31    3.2597   418.2    7.529      33.248
2015   10       14     7  38    3.2625   418.3    7.531      33.280
2015   10       14     7  46    3.2651   418.4    7.533      33.310
2015   10       14     7  53    3.2678   418.5    7.535      33.340
2015   10       14     8   1    3.2704   418.6    7.537      33.370
2015   10       14     8   8    3.2731   418.7    7.539      33.399
2015   10       14     8  16    3.2756   418.8    7.541      33.427
2015   10       14     8  23    3.2782   418.9    7.542      33.455
2015   10       14     8  30    3.2807   419.0    7.543      33.483
2015   10       14     8  38    3.2833   419.1    7.545      33.509
2015   10       14     8  45    3.2858   419.2    7.546      33.536
2015   10       14     8  53    3.2883   419.3    7.547      33.561
2015   10       14     9   0    3.2907   419.4    7.548      33.587
2015   10       14     9   8    3.2932   419.5    7.549      33.612
2015   10       14     9  15    3.2956   419.6    7.549      33.636
2015   10       14     9  23    3.2980   419.6    7.550      33.660
2015   10       14     9  30    3.3004   419.7    7.551      33.684
2015   10       14     9  38    3.3028   419.8    7.551      33.707
2015   10       14     9  45    3.3052   419.9    7.552      33.730
2015   10       14     9  52    3.3076   420.0    7.553      33.752
2015   10       14    10   0    3.3100   420.1    7.553      33.774
2015   10       14    10   7    3.3123   420.2    7.554      33.797
2015   10       14    10  15    3.3147   420.3    7.555      33.819
2015   10       14    10  22    3.3171   420.4    7.555      33.840
2015   10       14    10  30    3.3195   420.5    7.556      33.862
2015   10       14    10  37    3.3219   420.6    7.557      33.884
2015   10       14    10  45    3.3243   420.7    7.558      33.906
2015   10       14    10  52    3.3267   420.8    7.559      33.928
2015   10       14    11   0    3.3292   420.9    7.560      33.950
2015   10       14    11   7    3.3316   421.0    7.562      33.973
2015   10       14    11  15    3.3341   421.1    7.563      33.996
2015   10       14    11  22    3.3367   421.1    7.565      34.019
2015   10       14    11  29    3.3392   421.2    7.567      34.042
2015   10       14    11  37    3.3418   421.3    7.570      34.067
2015   10       14    11  44    3.3445   421.4    7.573      34.092
2015   10       14    11  52    3.3471   421.5    7.576      34.118
2015   10       14    11  59    3.3498   421.7    7.579      34.146
2015   10       14    12   7    3.3526   421.8    7.583      34.174
2015   10       14    12  14    3.3554   421.9    7.587      34.203
2015   10       14    12  22    3.3582   422.0    7.592      34.234
2015   10       14    12  29    3.3610   422.1    7.596      34.267
2015   10       14    12  37    3.3638   422.2    7.601      34.301
2015   10       14    12  44    3.3666   422.3    7.605      34.337
2015   10       14    12  52    3.3693   422.5    7.609      34.374
2015   10       14    12  59    3.3720   422.6    7.614      34.413
2015   10       14    13   7    3.3746   422.7    7.617      34.451
2015   10       14    13  14    3.3771   422.9    7.621      34.489
2015   10       14    13  21    3.3796   423.0    7.624      34.526
2015   10       14    13  29    3.3821   423.1    7.628      34.563
2015   10       14    13  36    3.3845   423.2    7.631      34.599
2015   10       14    13  44    3.3869   423.4    7.634      34.635
2015   10       14    13  51    3.3893   423.5    7.636      34.670
2015   10       14    13  59    3.3916   423.6    7.639      34.705
2015   10       14    14   6    3.3939   423.8    7.642      34.741
2015   10       14    14  14    3.3963   423.9    7.644      34.777
2015   10       14    14  21    3.3985   424.0    7.647      34.813
2015   10       14    14  28    3.4008   424.1    7.649      34.848
2015   10       14    14  36    3.4031   424.3    7.651      34.884
2015   10       14    14  43    3.4053   424.4    7.654      34.920
2015   10       14    14  51    3.4076   424.5    7.656      34.957
2015   10       14    14  58    3.4097   424.6    7.658      34.994
2015   10       14    15   6    3.4119   424.8    7.660      35.031
2015   10       14    15  13    3.4140   424.9    7.661      35.068
2015   10       14    15  21    3.4161   425.0    7.663      35.106
2015   10       14    15  28    3.4181   425.2    7.664      35.142
2015   10       14    15  36    3.4201   425.3    7.665      35.178
2015   10       14    15  43    3.4221   425.4    7.665      35.213
2015   10       14    15  50    3.4240   425.6    7.666      35.247
2015   10       14    15  58    3.4258   425.7    7.666      35.279
2015   10       14    16   5    3.4277   425.8    7.666      35.312
2015   10       14    16  13    3.4295   426.0    7.666      35.343
2015   10       14    16  20    3.4312   426.1    7.665      35.373
2015   10       14    16  28    3.4329   426.2    7.665      35.403
2015   10       14    16  35    3.4346   426.4    7.664      35.432
2015   10       14    16  43    3.4362   426.5    7.663      35.460
2015   10       14    16  50    3.4378   426.7    7.662      35.488
2015   10       14    16  57    3.4394   426.8    7.661      35.515
2015   10       14    17   5    3.4409   426.9    7.659      35.541
2015   10       14    17  12    3.4424   427.1    7.657      35.566
2015   10       14    17  20    3.4439   427.2    7.655      35.591
2015   10       14    17  27    3.4454   427.3    7.653      35.615
2015   10       14    17  35    3.4468   427.5    7.651      35.639
2015   10       14    17  42    3.4482   427.6    7.649      35.662
2015   10       14    17  50    3.4496   427.8    7.646      35.684
2015   10       14    17  57    3.4509   427.9    7.644      35.706
2015   10       14    18   5    3.4523   428.0    7.641      35.728
2015   10       14    18  12    3.4536   428.2    7.638      35.749
2015   10       14    18  20    3.4549   428.3    7.636      35.770
2015   10       14    18  27    3.4562   428.5    7.633      35.790
2015   10       14    18  35    3.4575   428.6    7.630      35.810
2015   10       14    18  42    3.4587   428.7    7.627      35.829
2015   10       14    18  49    3.4600   428.9    7.624      35.849
2015   10       14    18  57    3.4612   429.0    7.621      35.868
2015   10       14    19   4    3.4625   429.2    7.618      35.887
2015   10       14    19  12    3.4638   429.3    7.615      35.906
2015   10       14    19  19    3.4650   429.5    7.612      35.924
2015   10       14    19  27    3.4662   429.6    7.609      35.943
2015   10       14    19  34    3.4675   429.7    7.606      35.962
2015   10       14    19  42    3.4688   429.9    7.604      35.980
2015   10       14    19  49    3.4700   430.0    7.601      35.999
2015   10       14    19  57    3.4713   430.2    7.599      36.018
2015   10       14    20   4    3.4726   430.3    7.597      36.038
2015   10       14    20  12    3.4738   430.5    7.594      36.057
2015   10       14    20  19    3.4751   430.6    7.593      36.077
2015   10       14    20  26    3.4764   430.7    7.591      36.097
2015   10       14    20  34    3.4778   430.9    7.589      36.118
2015   10       14    20  41    3.4791   431.0    7.588      36.139
2015   10       14    20  49    3.4805   431.2    7.587      36.161
2015   10       14    20  56    3.4819   431.3    7.586      36.184
2015   10       14    21   4    3.4833   431.5    7.585      36.207
2015   10       14    21  11    3.4848   431.6    7.585      36.231
2015   10       14    21  19    3.4863   431.8    7.585      36.256
2015   10       14    21  26    3.4877   431.9    7.585      36.283
2015   10       14    21  34    3.4893   432.1    7.585      36.311
2015   10       14    21  41    3.4908   432.2    7.585      36.340
2015   10       14    21  48    3.4923   432.4    7.586      36.370
2015   10       14    21  56    3.4939   432.5    7.586      36.401
2015   10       14    22   3    3.4954   432.7    7.587      36.434
2015   10       14    22  11    3.4970   432.8    7.587      36.468
2015   10       14    22  18    3.4985   433.0    7.588      36.504
2015   10       14    22  26    3.4999   433.1    7.588      36.540
2015   10       14    22  33    3.5014   433.3    7.588      36.578
2015   10       14    22  41    3.5027   433.4    7.587      36.615
2015   10       14    22  48    3.5041   433.6    7.587      36.653
2015   10       14    22  55    3.5053   433.8    7.586      36.688
2015   10       14    23   3    3.5066   433.9    7.585      36.724
2015   10       14    23  10    3.5077   434.1    7.583      36.757
2015   10       14    23  18    3.5088   434.3    7.581      36.791
2015   10       14    23  25    3.5099   434.4    7.579      36.823
2015   10       14    23  33    3.5109   434.6    7.577      36.854
2015   10       14    23  40    3.5118   434.8    7.574      36.884
2015   10       14    23  48    3.5127   434.9    7.571      36.913
2015   10       14    23  55    3.5135   435.1    7.568      36.942
2015   10       15     0   2    3.5142   435.3    7.564      36.969
2015   10       15     0  10    3.5149   435.5    7.560      36.996
2015   10       15     0  17    3.5155   435.6    7.556      37.021
2015   10       15     0  25    3.5160   435.8    7.551      37.046
2015   10       15     0  32    3.5165   436.0    7.546      37.070
2015   10       15     0  40    3.5169   436.2    7.541      37.093
2015   10       15     0  47    3.5172   436.4    7.536      37.114
2015   10       15     0  55    3.5175   436.5    7.530      37.135
2015   10       15     1   2    3.5177   436.7    7.524      37.155
2015   10       15     1  10    3.5178   436.9    7.518      37.175
2015   10       15     1  17    3.5178   437.1    7.511      37.193
2015   10       15     1  25    3.5178   437.3    7.504      37.211
2015   10       15     1  32    3.5178   437.5    7.497      37.227
2015   10       15     1  39    3.5177   437.6    7.490      37.243
2015   10       15     1  47    3.5175   437.8    7.483      37.258
2015   10       15     1  54    3.5173   438.0    7.475      37.273
2015   10       15     2   2    3.5170   438.2    7.468      37.287
2015   10       15     2   9    3.5167   438.4    7.460      37.300
2015   10       15     2  17    3.5164   438.6    7.452      37.313
2015   10       15     2  24    3.5160   438.7    7.444      37.325
2015   10       15     2  32    3.5156   438.9    7.435      37.337
2015   10       15     2  39    3.5151   439.1    7.427      37.348
2015   10       15     2  47    3.5146   439.3    7.419      37.358
2015   10       15     2  54    3.5141   439.5    7.410      37.369
2015   10       15     3   2    3.5135   439.6    7.402      37.379
2015   10       15     3   9    3.5130   439.8    7.393      37.388
2015   10       15     3  17    3.5124   440.0    7.384      37.397
2015   10       15     3  24    3.5118   440.2    7.376      37.406
2015   10       15     3  31    3.5111   440.4    7.367      37.414
2015   10       15     3  39    3.5105   440.5    7.358      37.423
2015   10       15     3  46    3.5098   440.7    7.350      37.431
2015   10       15     3  54    3.5091   440.9    7.341      37.439
2015   10       15     4   1    3.5084   441.1    7.332      37.447
2015   10       15     4   9    3.5077   441.2    7.324      37.456
2015   10       15     4  16    3.5070   441.4    7.315      37.464
2015   10       15     4  24    3.5063   441.6    7.307      37.472
2015   10       15     4  31    3.5056   441.8    7.298      37.481
2015   10       15     4  39    3.5049   441.9    7.290      37.490
2015   10       15     4  46    3.5041   442.1    7.281      37.499
2015   10       15     4  53    3.5034   442.3    7.273      37.508
2015   10       15     5   1    3.5026   442.4    7.265      37.518
2015   10       15     5   8    3.5019   442.6    7.256      37.528
2015   10       15     5  16    3.5011   442.8    7.248      37.538
2015   10       15     5  23    3.5003   443.0    7.240      37.550
2015   10       15     5  31    3.4994   443.1    7.231      37.561
2015   10       15     5  38    3.4986   443.3    7.223      37.573
2015   10       15     5  46    3.4977   443.5    7.214      37.585
2015   10       15     5  53    3.4967   443.6    7.205      37.597
2015   10       15     6   0    3.4957   443.8    7.196      37.609
2015   10       15     6   8    3.4947   444.0    7.187      37.620
2015   10       15     6  15    3.4936   444.2    7.177      37.630
2015   10       15     6  23    3.4925   444.3    7.168      37.640
2015   10       15     6  30    3.4913   444.5    7.158      37.649
2015   10       15     6  38    3.4901   444.7    7.148      37.657
2015   10       15     6  45    3.4888   444.8    7.139      37.664
2015   10       15     6  53    3.4875   445.0    7.129      37.672
2015   10       15     7   0    3.4861   445.2    7.118      37.678
2015   10       15     7   7    3.4847   445.3    7.108      37.684
2015   10       15     7  15    3.4832   445.5    7.097      37.689
2015   10       15     7  22    3.4817   445.7    7.087      37.693
2015   10       15     7  30    3.4801   445.9    7.076      37.697
2015   10       15     7  37    3.4784   446.0    7.065      37.700
2015   10       15     7  45    3.4767   446.2    7.054      37.702
2015   10       15     7  52    3.4750   446.4    7.043      37.703
2015   10       15     8   0    3.4732   446.5    7.032      37.704
2015   10       15     8   7    3.4714   446.7    7.020      37.704
2015   10       15     8  15    3.4694   446.8    7.008      37.703
2015   10       15     8  22    3.4675   447.0    6.997      37.702
2015   10       15     8  30    3.4655   447.2    6.985      37.699
2015   10       15     8  37    3.4634   447.3    6.973      37.696
2015   10       15     8  44    3.4613   447.5    6.961      37.692
2015   10       15     8  52    3.4591   447.7    6.949      37.688
2015   10       15     8  59    3.4569   447.8    6.936      37.682
2015   10       15     9   7    3.4546   448.0    6.924      37.676
2015   10       15     9  14    3.4522   448.2    6.911      37.669
2015   10       15     9  22    3.4499   448.3    6.899      37.661
2015   10       15     9  29    3.4474   448.5    6.886      37.653
2015   10       15     9  37    3.4450   448.6    6.873      37.644
2015   10       15     9  44    3.4425   448.8    6.860      37.634
2015   10       15     9  52    3.4399   448.9    6.847      37.623
2015   10       15     9  59    3.4373   449.1    6.834      37.612
2015   10       15    10   7    3.4348   449.2    6.821      37.600
2015   10       15    10  14    3.4321   449.4    6.808      37.588
2015   10       15    10  22    3.4294   449.5    6.794      37.575
2015   10       15    10  29    3.4267   449.7    6.781      37.561
2015   10       15    10  36    3.4240   449.8    6.768      37.547
2015   10       15    10  44    3.4213   450.0    6.754      37.533
2015   10       15    10  51    3.4185   450.1    6.741      37.518
2015   10       15    10  59    3.4157   450.2    6.727      37.502
2015   10       15    11   6    3.4129   450.4    6.713      37.486
2015   10       15    11  14    3.4100   450.5    6.700      37.469
2015   10       15    11  21    3.4072   450.6    6.686      37.453
2015   10       15    11  29    3.4043   450.8    6.673      37.435
2015   10       15    11  36    3.4015   450.9    6.659      37.418
2015   10       15    11  44    3.3986   451.0    6.645      37.400
2015   10       15    11  51    3.3957   451.2    6.632      37.381
2015   10       15    11  58    3.3928   451.3    6.618      37.362
2015   10       15    12   6    3.3899   451.4    6.604      37.343
2015   10       15    12  13    3.3870   451.5    6.591      37.324
2015   10       15    12  21    3.3841   451.6    6.577      37.304
2015   10       15    12  28    3.3812   451.7    6.564      37.284
2015   10       15    12  36    3.3784   451.9    6.550      37.263
2015   10       15    12  43    3.3754   452.0    6.537      37.242
2015   10       15    12  51    3.3725   452.1    6.523      37.221
2015   10       15    12  58    3.3696   452.2    6.510      37.200
2015   10       15    13   5    3.3667   452.3    6.497      37.178
2015   10       15    13  13    3.3638   452.4    6.483      37.156
2015   10       15    13  20    3.3608   452.5    6.470      37.134
2015   10       15    13  28    3.3579   452.6    6.457      37.112
2015   10       15    13  35    3.3550   452.7    6.444      37.089
2015   10       15    13  43    3.3520   452.8    6.431      37.066
2015   10       15    13  50    3.3490   452.9    6.418      37.044
2015   10       15    13  58    3.3461   453.0    6.405      37.020
2015   10       15    14   5    3.3431   453.1    6.393      36.997
2015   10       15    14  13    3.3401   453.1    6.380      36.973
2015   10       15    14  20    3.3371   453.2    6.367      36.949
2015   10       15    14  27    3.3341   453.3    6.355      36.925
2015   10       15    14  35    3.3311   453.4    6.343      36.901
2015   10       15    14  42    3.3281   453.5    6.330      36.877
2015   10       15    14  50    3.3251   453.5    6.318      36.852
2015   10       15    14  57    3.3221   453.6    6.306      36.828
2015   10       15    15   5    3.3192   453.7    6.295      36.803
2015   10       15    15  12    3.3162   453.8    6.283      36.778
2015   10       15    15  20    3.3132   453.8    6.271      36.752
2015   10       15    15  27    3.3102   453.9    6.260      36.727
2015   10       15    15  35    3.3073   454.0    6.249      36.702
2015   10       15    15  42    3.3043   454.0    6.238      36.676
2015   10       15    15  49    3.3014   454.1    6.227      36.651
2015   10       15    15  57    3.2984   454.2    6.216      36.625
2015   10       15    16   4    3.2955   454.2    6.206      36.599
2015   10       15    16  12    3.2926   454.3    6.195      36.574
2015   10       15    16  19    3.2897   454.3    6.185      36.549
2015   10       15    16  27    3.2868   454.4    6.175      36.524
2015   10       15    16  34    3.2839   454.5    6.165      36.499
2015   10       15    16  42    3.2811   454.5    6.156      36.474
2015   10       15    16  49    3.2782   454.6    6.147      36.450
2015   10       15    16  57    3.2754   454.6    6.138      36.426
2015   10       15    17   4    3.2726   454.7    6.129      36.402
2015   10       15    17  12    3.2698   454.7    6.120      36.379
2015   10       15    17  19    3.2671   454.8    6.112      36.356
2015   10       15    17  27    3.2643   454.8    6.104      36.333
2015   10       15    17  34    3.2616   454.9    6.096      36.312
2015   10       15    17  42    3.2589   454.9    6.088      36.290
2015   10       15    17  49    3.2561   455.0    6.080      36.269
2015   10       15    17  56    3.2534   455.0    6.072      36.248
2015   10       15    18   4    3.2508   455.1    6.064      36.228
2015   10       15    18  11    3.2481   455.1    6.057      36.208
2015   10       15    18  19    3.2454   455.2    6.049      36.189
2015   10       15    18  26    3.2427   455.2    6.041      36.169
2015   10       15    18  34    3.2400   455.3    6.034      36.150
2015   10       15    18  41    3.2374   455.3    6.026      36.131
2015   10       15    18  49    3.2347   455.3    6.018      36.112
2015   10       15    18  56    3.2320   455.4    6.010      36.091
2015   10       15    19   3    3.2294   455.4    6.001      36.071
2015   10       15    19  11    3.2268   455.4    5.993      36.049
2015   10       15    19  18    3.2242   455.5    5.985      36.027
2015   10       15    19  26    3.2216   455.5    5.977      36.005
2015   10       15    19  33    3.2190   455.5    5.968      35.982
2015   10       15    19  41    3.2164   455.5    5.960      35.958
2015   10       15    19  48    3.2139   455.6    5.952      35.935
2015   10       15    19  56    3.2114   455.6    5.943      35.911
2015   10       15    20   3    3.2088   455.6    5.935      35.887
2015   10       15    20  11    3.2064   455.6    5.927      35.863
2015   10       15    20  18    3.2039   455.6    5.919      35.838
2015   10       15    20  25    3.2014   455.7    5.911      35.813
2015   10       15    20  33    3.1990   455.7    5.903      35.789
2015   10       15    20  40    3.1966   455.7    5.895      35.764
2015   10       15    20  48    3.1942   455.7    5.887      35.739
2015   10       15    20  55    3.1918   455.7    5.879      35.715
2015   10       15    21   3    3.1894   455.7    5.871      35.690
2015   10       15    21  10    3.1871   455.8    5.863      35.665
2015   10       15    21  18    3.1847   455.8    5.856      35.640
2015   10       15    21  25    3.1824   455.8    5.848      35.615
2015   10       15    21  32    3.1801   455.8    5.840      35.591
2015   10       15    21  40    3.1778   455.8    5.833      35.566
2015   10       15    21  47    3.1756   455.8    5.826      35.542
2015   10       15    21  55    3.1733   455.8    5.818      35.517
2015   10       15    22   2    3.1711   455.8    5.811      35.493
2015   10       15    22  10    3.1689   455.8    5.804      35.469
2015   10       15    22  17    3.1667   455.8    5.798      35.444
2015   10       15    22  25    3.1645   455.8    5.791      35.420
2015   10       15    22  32    3.1624   455.8    5.784      35.397
2015   10       15    22  40    3.1602   455.8    5.778      35.373
2015   10       15    22  47    3.1581   455.8    5.772      35.350
2015   10       15    22  54    3.1561   455.8    5.766      35.327
2015   10       15    23   2    3.1540   455.8    5.760      35.305
2015   10       15    23   9    3.1520   455.8    5.754      35.283
2015   10       15    23  17    3.1500   455.8    5.749      35.261
2015   10       15    23  24    3.1481   455.8    5.743      35.240
2015   10       15    23  32    3.1461   455.8    5.738      35.220
2015   10       15    23  39    3.1442   455.8    5.734      35.201
2015   10       15    23  47    3.1424   455.8    5.729      35.182
2015   10       15    23  54    3.1405   455.8    5.725      35.164
2015   10       16     0   2    3.1387   455.8    5.721      35.146
