year    month   day   hour  minute  B_enl V_enl   n_enl       T_enl
[year] [month] [day] [hour][minute] [nT]  [km/s]  [cm-3]      [kK]
2015   10       15     0   2    2.9089   566.0    4.054      49.459
2015   10       15     0  10    2.9019   565.9    4.046      49.375
2015   10       15     0  18    2.8949   565.9    4.037      49.290
2015   10       15     0  25    2.8882   565.9    4.029      49.206
2015   10       15     0  33    2.8816   565.8    4.022      49.123
2015   10       15     0  40    2.8752   565.8    4.014      49.042
2015   10       15     0  48    2.8689   565.8    4.007      48.960
2015   10       15     0  56    2.8627   565.7    4.001      48.880
2015   10       15     1   3    2.8566   565.7    3.994      48.805
2015   10       15     1  11    2.8506   565.7    3.987      48.733
2015   10       15     1  18    2.8445   565.7    3.981      48.664
2015   10       15     1  26    2.8386   565.8    3.974      48.597
2015   10       15     1  34    2.8327   565.8    3.967      48.534
2015   10       15     1  41    2.8268   565.8    3.960      48.467
2015   10       15     1  49    2.8210   565.8    3.952      48.398
2015   10       15     1  57    2.8152   565.8    3.945      48.327
2015   10       15     2   4    2.8095   565.8    3.937      48.254
2015   10       15     2  12    2.8038   565.8    3.929      48.179
2015   10       15     2  19    2.7981   565.8    3.921      48.104
2015   10       15     2  27    2.7925   565.8    3.913      48.028
2015   10       15     2  35    2.7869   565.8    3.905      47.951
2015   10       15     2  42    2.7814   565.8    3.897      47.874
2015   10       15     2  50    2.7759   565.8    3.889      47.797
2015   10       15     2  57    2.7705   565.8    3.881      47.720
2015   10       15     3   5    2.7651   565.8    3.874      47.643
2015   10       15     3  13    2.7598   565.8    3.866      47.566
2015   10       15     3  20    2.7545   565.8    3.858      47.489
2015   10       15     3  28    2.7492   565.8    3.851      47.412
2015   10       15     3  35    2.7440   565.7    3.844      47.335
2015   10       15     3  43    2.7389   565.7    3.836      47.258
2015   10       15     3  51    2.7338   565.7    3.829      47.182
2015   10       15     3  58    2.7288   565.7    3.822      47.106
2015   10       15     4   6    2.7238   565.6    3.815      47.031
2015   10       15     4  14    2.7189   565.6    3.809      46.956
2015   10       15     4  21    2.7140   565.6    3.802      46.883
2015   10       15     4  29    2.7093   565.5    3.796      46.810
2015   10       15     4  36    2.7045   565.5    3.790      46.739
2015   10       15     4  44    2.6999   565.5    3.784      46.668
2015   10       15     4  52    2.6953   565.4    3.778      46.599
2015   10       15     4  59    2.6908   565.4    3.773      46.531
2015   10       15     5   7    2.6863   565.3    3.768      46.465
2015   10       15     5  14    2.6819   565.3    3.763      46.399
2015   10       15     5  22    2.6776   565.2    3.758      46.336
2015   10       15     5  30    2.6733   565.2    3.753      46.273
2015   10       15     5  37    2.6691   565.1    3.748      46.211
2015   10       15     5  45    2.6649   565.0    3.744      46.151
2015   10       15     5  52    2.6608   565.0    3.740      46.092
2015   10       15     6   0    2.6568   564.9    3.735      46.034
2015   10       15     6   8    2.6527   564.9    3.731      45.977
2015   10       15     6  15    2.6488   564.8    3.727      45.920
2015   10       15     6  23    2.6449   564.7    3.723      45.864
2015   10       15     6  31    2.6410   564.7    3.719      45.809
2015   10       15     6  38    2.6372   564.6    3.715      45.755
2015   10       15     6  46    2.6335   564.5    3.711      45.701
2015   10       15     6  53    2.6298   564.4    3.708      45.648
2015   10       15     7   1    2.6261   564.4    3.704      45.595
2015   10       15     7   9    2.6225   564.3    3.700      45.542
2015   10       15     7  16    2.6189   564.2    3.696      45.489
2015   10       15     7  24    2.6154   564.2    3.692      45.437
2015   10       15     7  31    2.6119   564.1    3.688      45.384
2015   10       15     7  39    2.6084   564.0    3.685      45.331
2015   10       15     7  47    2.6050   563.9    3.681      45.279
2015   10       15     7  54    2.6016   563.9    3.677      45.226
2015   10       15     8   2    2.5983   563.8    3.673      45.173
2015   10       15     8   9    2.5949   563.7    3.669      45.119
2015   10       15     8  17    2.5915   563.6    3.666      45.066
2015   10       15     8  25    2.5882   563.6    3.662      45.012
2015   10       15     8  32    2.5848   563.5    3.658      44.957
2015   10       15     8  40    2.5815   563.4    3.654      44.902
2015   10       15     8  48    2.5781   563.3    3.651      44.847
2015   10       15     8  55    2.5747   563.3    3.647      44.791
2015   10       15     9   3    2.5714   563.2    3.643      44.735
2015   10       15     9  10    2.5681   563.1    3.639      44.678
2015   10       15     9  18    2.5648   563.0    3.636      44.621
2015   10       15     9  26    2.5615   562.9    3.632      44.564
2015   10       15     9  33    2.5582   562.8    3.628      44.506
2015   10       15     9  41    2.5549   562.8    3.625      44.449
2015   10       15     9  48    2.5516   562.7    3.621      44.390
2015   10       15     9  56    2.5484   562.6    3.618      44.333
2015   10       15    10   4    2.5452   562.5    3.614      44.275
2015   10       15    10  11    2.5420   562.4    3.611      44.217
2015   10       15    10  19    2.5389   562.3    3.607      44.160
2015   10       15    10  27    2.5357   562.2    3.604      44.103
2015   10       15    10  34    2.5326   562.1    3.601      44.047
2015   10       15    10  42    2.5295   562.0    3.598      43.991
2015   10       15    10  49    2.5265   561.9    3.595      43.936
2015   10       15    10  57    2.5235   561.8    3.592      43.881
2015   10       15    11   5    2.5205   561.7    3.589      43.827
2015   10       15    11  12    2.5176   561.6    3.586      43.774
2015   10       15    11  20    2.5147   561.5    3.583      43.722
2015   10       15    11  27    2.5118   561.4    3.581      43.670
2015   10       15    11  35    2.5090   561.2    3.578      43.620
2015   10       15    11  43    2.5061   561.1    3.576      43.570
2015   10       15    11  50    2.5034   561.0    3.573      43.520
2015   10       15    11  58    2.5006   560.9    3.571      43.471
2015   10       15    12   5    2.4979   560.8    3.569      43.423
2015   10       15    12  13    2.4952   560.7    3.566      43.376
2015   10       15    12  21    2.4925   560.5    3.564      43.329
2015   10       15    12  28    2.4899   560.4    3.562      43.283
2015   10       15    12  36    2.4873   560.3    3.560      43.237
2015   10       15    12  44    2.4847   560.2    3.558      43.191
2015   10       15    12  51    2.4821   560.1    3.556      43.146
2015   10       15    12  59    2.4795   559.9    3.554      43.101
2015   10       15    13   6    2.4770   559.8    3.551      43.056
2015   10       15    13  14    2.4745   559.7    3.549      43.012
2015   10       15    13  22    2.4720   559.6    3.548      42.968
2015   10       15    13  29    2.4695   559.4    3.546      42.924
2015   10       15    13  37    2.4670   559.3    3.544      42.880
2015   10       15    13  44    2.4645   559.2    3.542      42.836
2015   10       15    13  52    2.4620   559.0    3.540      42.792
2015   10       15    14   0    2.4596   558.9    3.538      42.749
2015   10       15    14   7    2.4572   558.8    3.536      42.705
2015   10       15    14  15    2.4547   558.6    3.534      42.662
2015   10       15    14  23    2.4523   558.5    3.532      42.618
2015   10       15    14  30    2.4499   558.4    3.530      42.575
2015   10       15    14  38    2.4475   558.2    3.529      42.532
2015   10       15    14  45    2.4451   558.1    3.527      42.488
2015   10       15    14  53    2.4427   558.0    3.525      42.444
2015   10       15    15   1    2.4403   557.8    3.523      42.401
2015   10       15    15   8    2.4379   557.7    3.521      42.357
2015   10       15    15  16    2.4356   557.6    3.520      42.313
2015   10       15    15  23    2.4332   557.4    3.518      42.269
2015   10       15    15  31    2.4308   557.3    3.516      42.225
2015   10       15    15  39    2.4284   557.1    3.514      42.181
2015   10       15    15  46    2.4260   557.0    3.513      42.136
2015   10       15    15  54    2.4237   556.9    3.511      42.092
2015   10       15    16   1    2.4213   556.7    3.509      42.047
2015   10       15    16   9    2.4189   556.6    3.508      42.003
2015   10       15    16  17    2.4166   556.4    3.506      41.958
2015   10       15    16  24    2.4142   556.3    3.505      41.914
2015   10       15    16  32    2.4119   556.2    3.503      41.869
2015   10       15    16  40    2.4096   556.0    3.502      41.825
2015   10       15    16  47    2.4072   555.9    3.501      41.780
2015   10       15    16  55    2.4049   555.7    3.499      41.736
2015   10       15    17   2    2.4026   555.6    3.498      41.691
2015   10       15    17  10    2.4003   555.4    3.497      41.647
2015   10       15    17  18    2.3981   555.3    3.496      41.603
2015   10       15    17  25    2.3958   555.1    3.495      41.559
2015   10       15    17  33    2.3936   555.0    3.494      41.516
2015   10       15    17  40    2.3913   554.8    3.493      41.472
2015   10       15    17  48    2.3891   554.7    3.492      41.429
2015   10       15    17  56    2.3869   554.5    3.491      41.386
2015   10       15    18   3    2.3847   554.4    3.491      41.344
2015   10       15    18  11    2.3825   554.2    3.490      41.302
2015   10       15    18  18    2.3804   554.0    3.489      41.260
2015   10       15    18  26    2.3782   553.9    3.489      41.218
2015   10       15    18  34    2.3761   553.7    3.488      41.177
2015   10       15    18  41    2.3740   553.6    3.488      41.136
2015   10       15    18  49    2.3719   553.4    3.487      41.096
2015   10       15    18  57    2.3698   553.2    3.487      41.056
2015   10       15    19   4    2.3678   553.1    3.486      41.017
2015   10       15    19  12    2.3657   552.9    3.486      40.977
2015   10       15    19  19    2.3636   552.7    3.486      40.938
2015   10       15    19  27    2.3616   552.6    3.485      40.899
2015   10       15    19  35    2.3596   552.4    3.485      40.861
2015   10       15    19  42    2.3575   552.2    3.485      40.822
2015   10       15    19  50    2.3555   552.1    3.484      40.783
2015   10       15    19  57    2.3534   551.9    3.484      40.745
2015   10       15    20   5    2.3514   551.7    3.483      40.706
2015   10       15    20  13    2.3493   551.5    3.483      40.668
2015   10       15    20  20    2.3473   551.4    3.482      40.629
2015   10       15    20  28    2.3453   551.2    3.482      40.590
2015   10       15    20  35    2.3432   551.0    3.481      40.552
2015   10       15    20  43    2.3412   550.8    3.480      40.513
2015   10       15    20  51    2.3391   550.6    3.479      40.474
2015   10       15    20  58    2.3371   550.5    3.478      40.435
2015   10       15    21   6    2.3350   550.3    3.478      40.396
2015   10       15    21  14    2.3330   550.1    3.477      40.356
2015   10       15    21  21    2.3310   549.9    3.476      40.317
2015   10       15    21  29    2.3289   549.7    3.475      40.276
2015   10       15    21  36    2.3269   549.6    3.474      40.236
2015   10       15    21  44    2.3249   549.4    3.473      40.195
2015   10       15    21  52    2.3228   549.2    3.472      40.154
2015   10       15    21  59    2.3208   549.0    3.470      40.112
2015   10       15    22   7    2.3187   548.8    3.469      40.070
2015   10       15    22  14    2.3167   548.6    3.468      40.028
2015   10       15    22  22    2.3146   548.5    3.467      39.985
2015   10       15    22  30    2.3125   548.3    3.466      39.942
2015   10       15    22  37    2.3105   548.1    3.464      39.898
2015   10       15    22  45    2.3085   547.9    3.463      39.854
2015   10       15    22  53    2.3064   547.7    3.462      39.810
2015   10       15    23   0    2.3043   547.5    3.461      39.766
2015   10       15    23   8    2.3023   547.3    3.459      39.721
2015   10       15    23  15    2.3002   547.1    3.458      39.676
2015   10       15    23  23    2.2982   546.9    3.457      39.631
2015   10       15    23  31    2.2961   546.8    3.456      39.586
2015   10       15    23  38    2.2941   546.6    3.454      39.541
2015   10       15    23  46    2.2920   546.4    3.453      39.495
2015   10       15    23  53    2.2900   546.2    3.452      39.449
2015   10       16     0   1    2.2880   546.0    3.451      39.403
2015   10       16     0   9    2.2859   545.8    3.449      39.357
2015   10       16     0  16    2.2839   545.6    3.448      39.311
2015   10       16     0  24    2.2819   545.4    3.447      39.265
2015   10       16     0  31    2.2799   545.2    3.446      39.218
2015   10       16     0  39    2.2778   545.0    3.445      39.172
2015   10       16     0  47    2.2758   544.8    3.444      39.126
2015   10       16     0  54    2.2738   544.6    3.443      39.080
2015   10       16     1   2    2.2718   544.4    3.442      39.033
2015   10       16     1  10    2.2698   544.2    3.442      38.987
2015   10       16     1  17    2.2678   544.0    3.441      38.940
2015   10       16     1  25    2.2658   543.8    3.440      38.894
2015   10       16     1  32    2.2638   543.6    3.439      38.848
2015   10       16     1  40    2.2618   543.4    3.439      38.803
2015   10       16     1  48    2.2599   543.2    3.438      38.757
2015   10       16     1  55    2.2579   543.0    3.438      38.712
2015   10       16     2   3    2.2559   542.8    3.438      38.667
2015   10       16     2  10    2.2540   542.6    3.437      38.622
2015   10       16     2  18    2.2520   542.4    3.437      38.578
2015   10       16     2  26    2.2500   542.2    3.437      38.534
2015   10       16     2  33    2.2481   541.9    3.437      38.490
2015   10       16     2  41    2.2462   541.7    3.437      38.447
2015   10       16     2  48    2.2442   541.5    3.437      38.404
2015   10       16     2  56    2.2422   541.3    3.437      38.362
2015   10       16     3   4    2.2403   541.1    3.437      38.320
2015   10       16     3  11    2.2384   540.9    3.437      38.278
2015   10       16     3  19    2.2364   540.7    3.438      38.236
2015   10       16     3  27    2.2344   540.5    3.438      38.195
2015   10       16     3  34    2.2325   540.3    3.438      38.154
2015   10       16     3  42    2.2305   540.0    3.438      38.114
2015   10       16     3  49    2.2286   539.8    3.438      38.073
2015   10       16     3  57    2.2266   539.6    3.439      38.034
2015   10       16     4   5    2.2247   539.4    3.439      37.994
2015   10       16     4  12    2.2228   539.2    3.439      37.955
2015   10       16     4  20    2.2208   538.9    3.439      37.916
2015   10       16     4  27    2.2189   538.7    3.439      37.877
2015   10       16     4  35    2.2170   538.5    3.440      37.838
2015   10       16     4  43    2.2150   538.3    3.440      37.800
2015   10       16     4  50    2.2131   538.0    3.440      37.761
2015   10       16     4  58    2.2111   537.8    3.440      37.722
2015   10       16     5   6    2.2092   537.6    3.440      37.683
2015   10       16     5  13    2.2073   537.3    3.440      37.643
2015   10       16     5  21    2.2054   537.1    3.441      37.604
2015   10       16     5  28    2.2034   536.9    3.441      37.564
2015   10       16     5  36    2.2015   536.6    3.441      37.524
2015   10       16     5  44    2.1996   536.4    3.441      37.484
2015   10       16     5  51    2.1977   536.2    3.441      37.443
2015   10       16     5  59    2.1958   535.9    3.441      37.402
2015   10       16     6   6    2.1939   535.7    3.441      37.361
2015   10       16     6  14    2.1920   535.4    3.441      37.319
2015   10       16     6  22    2.1901   535.2    3.441      37.277
2015   10       16     6  29    2.1882   535.0    3.441      37.235
2015   10       16     6  37    2.1864   534.7    3.441      37.193
2015   10       16     6  44    2.1845   534.5    3.440      37.150
2015   10       16     6  52    2.1826   534.2    3.440      37.106
2015   10       16     7   0    2.1808   534.0    3.440      37.063
2015   10       16     7   7    2.1789   533.7    3.440      37.019
2015   10       16     7  15    2.1771   533.5    3.440      36.975
2015   10       16     7  23    2.1753   533.2    3.440      36.930
2015   10       16     7  30    2.1734   533.0    3.439      36.886
2015   10       16     7  38    2.1716   532.7    3.439      36.841
2015   10       16     7  45    2.1698   532.5    3.439      36.795
2015   10       16     7  53    2.1680   532.2    3.439      36.750
2015   10       16     8   1    2.1662   532.0    3.439      36.704
2015   10       16     8   8    2.1645   531.7    3.438      36.658
2015   10       16     8  16    2.1627   531.5    3.438      36.612
2015   10       16     8  23    2.1609   531.2    3.438      36.565
2015   10       16     8  31    2.1591   531.0    3.438      36.519
2015   10       16     8  39    2.1574   530.7    3.438      36.472
2015   10       16     8  46    2.1556   530.5    3.437      36.425
2015   10       16     8  54    2.1538   530.2    3.437      36.377
2015   10       16     9   1    2.1521   529.9    3.437      36.330
2015   10       16     9   9    2.1503   529.7    3.437      36.282
2015   10       16     9  17    2.1486   529.4    3.437      36.234
2015   10       16     9  24    2.1469   529.2    3.437      36.186
2015   10       16     9  32    2.1451   528.9    3.437      36.138
2015   10       16     9  40    2.1434   528.6    3.437      36.089
2015   10       16     9  47    2.1417   528.4    3.437      36.041
2015   10       16     9  55    2.1399   528.1    3.437      35.992
2015   10       16    10   2    2.1382   527.8    3.437      35.944
2015   10       16    10  10    2.1365   527.6    3.437      35.895
2015   10       16    10  18    2.1348   527.3    3.437      35.846
2015   10       16    10  25    2.1331   527.0    3.437      35.797
2015   10       16    10  33    2.1314   526.7    3.438      35.749
2015   10       16    10  40    2.1297   526.4    3.438      35.701
2015   10       16    10  48    2.1280   526.2    3.438      35.653
2015   10       16    10  56    2.1264   525.9    3.439      35.605
2015   10       16    11   3    2.1247   525.6    3.440      35.557
2015   10       16    11  11    2.1230   525.3    3.440      35.510
2015   10       16    11  18    2.1214   525.0    3.441      35.463
2015   10       16    11  26    2.1197   524.7    3.442      35.417
2015   10       16    11  34    2.1181   524.4    3.443      35.370
2015   10       16    11  41    2.1165   524.2    3.444      35.325
2015   10       16    11  49    2.1149   523.9    3.445      35.279
2015   10       16    11  56    2.1133   523.6    3.446      35.234
2015   10       16    12   4    2.1118   523.3    3.447      35.190
2015   10       16    12  12    2.1102   523.0    3.449      35.145
2015   10       16    12  19    2.1087   522.7    3.450      35.101
2015   10       16    12  27    2.1072   522.4    3.452      35.057
2015   10       16    12  35    2.1057   522.1    3.453      35.014
2015   10       16    12  42    2.1042   521.8    3.455      34.971
2015   10       16    12  50    2.1027   521.5    3.457      34.928
2015   10       16    12  57    2.1013   521.1    3.458      34.885
2015   10       16    13   5    2.0999   520.8    3.460      34.842
2015   10       16    13  13    2.0985   520.5    3.462      34.800
2015   10       16    13  20    2.0971   520.2    3.464      34.758
2015   10       16    13  28    2.0957   519.9    3.466      34.716
2015   10       16    13  35    2.0944   519.6    3.468      34.674
2015   10       16    13  43    2.0931   519.3    3.470      34.632
2015   10       16    13  51    2.0918   519.0    3.472      34.591
2015   10       16    13  58    2.0905   518.6    3.474      34.549
2015   10       16    14   6    2.0892   518.3    3.476      34.508
2015   10       16    14  14    2.0880   518.0    3.479      34.467
2015   10       16    14  21    2.0868   517.7    3.481      34.426
2015   10       16    14  29    2.0856   517.4    3.483      34.385
2015   10       16    14  36    2.0844   517.0    3.485      34.344
2015   10       16    14  44    2.0833   516.7    3.488      34.304
2015   10       16    14  52    2.0821   516.4    3.490      34.263
2015   10       16    14  59    2.0810   516.0    3.493      34.223
2015   10       16    15   7    2.0800   515.7    3.495      34.183
2015   10       16    15  14    2.0789   515.4    3.498      34.142
2015   10       16    15  22    2.0778   515.1    3.501      34.103
2015   10       16    15  30    2.0768   514.7    3.503      34.063
2015   10       16    15  37    2.0758   514.4    3.506      34.024
2015   10       16    15  45    2.0748   514.0    3.509      33.984
2015   10       16    15  52    2.0738   513.7    3.512      33.946
2015   10       16    16   0    2.0729   513.4    3.515      33.907
2015   10       16    16   8    2.0720   513.0    3.518      33.868
2015   10       16    16  15    2.0711   512.7    3.521      33.830
2015   10       16    16  23    2.0702   512.3    3.524      33.792
2015   10       16    16  31    2.0693   512.0    3.528      33.754
2015   10       16    16  38    2.0685   511.7    3.531      33.716
2015   10       16    16  46    2.0677   511.3    3.535      33.679
2015   10       16    16  53    2.0669   511.0    3.538      33.642
2015   10       16    17   1    2.0661   510.6    3.542      33.605
2015   10       16    17   9    2.0654   510.3    3.545      33.568
2015   10       16    17  16    2.0647   509.9    3.549      33.531
2015   10       16    17  24    2.0641   509.6    3.553      33.495
2015   10       16    17  31    2.0635   509.2    3.557      33.458
2015   10       16    17  39    2.0628   508.8    3.561      33.422
2015   10       16    17  47    2.0623   508.5    3.565      33.386
2015   10       16    17  54    2.0617   508.1    3.569      33.350
2015   10       16    18   2    2.0612   507.8    3.573      33.313
2015   10       16    18   9    2.0607   507.4    3.577      33.278
2015   10       16    18  17    2.0602   507.1    3.582      33.242
2015   10       16    18  25    2.0598   506.7    3.586      33.206
2015   10       16    18  32    2.0594   506.3    3.591      33.170
2015   10       16    18  40    2.0590   506.0    3.595      33.134
2015   10       16    18  48    2.0586   505.6    3.600      33.097
2015   10       16    18  55    2.0583   505.3    3.604      33.061
2015   10       16    19   3    2.0580   504.9    3.609      33.025
2015   10       16    19  10    2.0577   504.6    3.614      32.989
2015   10       16    19  18    2.0575   504.2    3.619      32.953
2015   10       16    19  26    2.0573   503.8    3.623      32.917
2015   10       16    19  33    2.0572   503.5    3.628      32.881
2015   10       16    19  41    2.0570   503.1    3.633      32.845
2015   10       16    19  48    2.0569   502.7    3.638      32.809
2015   10       16    19  56    2.0569   502.4    3.644      32.774
2015   10       16    20   4    2.0569   502.0    3.649      32.738
2015   10       16    20  11    2.0569   501.7    3.654      32.703
2015   10       16    20  19    2.0570   501.3    3.659      32.668
2015   10       16    20  26    2.0571   500.9    3.665      32.634
2015   10       16    20  34    2.0572   500.6    3.670      32.599
2015   10       16    20  42    2.0574   500.2    3.676      32.566
2015   10       16    20  49    2.0577   499.8    3.681      32.532
2015   10       16    20  57    2.0580   499.5    3.687      32.499
2015   10       16    21   5    2.0583   499.1    3.693      32.466
2015   10       16    21  12    2.0587   498.7    3.699      32.434
2015   10       16    21  20    2.0592   498.4    3.705      32.402
2015   10       16    21  27    2.0596   498.0    3.711      32.370
2015   10       16    21  35    2.0602   497.7    3.717      32.340
2015   10       16    21  43    2.0608   497.3    3.723      32.309
2015   10       16    21  50    2.0614   496.9    3.730      32.279
2015   10       16    21  58    2.0621   496.6    3.736      32.249
2015   10       16    22   5    2.0629   496.2    3.743      32.220
2015   10       16    22  13    2.0637   495.8    3.749      32.192
2015   10       16    22  21    2.0646   495.5    3.756      32.164
2015   10       16    22  28    2.0654   495.1    3.763      32.136
2015   10       16    22  36    2.0664   494.8    3.770      32.109
2015   10       16    22  43    2.0674   494.4    3.777      32.083
2015   10       16    22  51    2.0685   494.0    3.784      32.056
2015   10       16    22  59    2.0696   493.7    3.792      32.031
2015   10       16    23   6    2.0708   493.3    3.799      32.006
2015   10       16    23  14    2.0720   493.0    3.807      31.982
2015   10       16    23  22    2.0733   492.6    3.814      31.958
2015   10       16    23  29    2.0746   492.2    3.822      31.934
2015   10       16    23  37    2.0760   491.9    3.830      31.912
2015   10       16    23  44    2.0774   491.5    3.839      31.889
2015   10       16    23  52    2.0790   491.2    3.847      31.868
2015   10       17     0   0    2.0805   490.8    3.855      31.847
2015   10       17     0   7    2.0821   490.5    3.864      31.826
2015   10       17     0  15    2.0838   490.1    3.872      31.807
2015   10       17     0  22    2.0856   489.8    3.881      31.788
2015   10       17     0  30    2.0873   489.4    3.890      31.769
2015   10       17     0  38    2.0892   489.1    3.899      31.751
2015   10       17     0  45    2.0911   488.7    3.908      31.733
2015   10       17     0  53    2.0930   488.4    3.918      31.716
2015   10       17     1   0    2.0950   488.1    3.927      31.699
2015   10       17     1   8    2.0970   487.7    3.936      31.682
2015   10       17     1  16    2.0991   487.4    3.946      31.666
2015   10       17     1  23    2.1012   487.0    3.955      31.650
2015   10       17     1  31    2.1033   486.7    3.965      31.635
2015   10       17     1  39    2.1056   486.4    3.974      31.619
2015   10       17     1  46    2.1077   486.0    3.984      31.604
2015   10       17     1  54    2.1100   485.7    3.993      31.589
2015   10       17     2   1    2.1123   485.4    4.003      31.574
2015   10       17     2   9    2.1146   485.0    4.013      31.559
2015   10       17     2  17    2.1170   484.7    4.022      31.544
2015   10       17     2  24    2.1194   484.4    4.032      31.529
2015   10       17     2  32    2.1218   484.0    4.041      31.515
2015   10       17     2  39    2.1243   483.7    4.051      31.500
2015   10       17     2  47    2.1268   483.4    4.061      31.485
2015   10       17     2  55    2.1293   483.1    4.070      31.471
2015   10       17     3   2    2.1319   482.7    4.080      31.456
2015   10       17     3  10    2.1345   482.4    4.089      31.442
2015   10       17     3  18    2.1372   482.1    4.099      31.427
2015   10       17     3  25    2.1400   481.7    4.108      31.413
2015   10       17     3  33    2.1427   481.4    4.117      31.399
2015   10       17     3  40    2.1456   481.1    4.127      31.385
2015   10       17     3  48    2.1485   480.8    4.136      31.372
2015   10       17     3  56    2.1514   480.4    4.146      31.358
2015   10       17     4   3    2.1545   480.1    4.156      31.345
2015   10       17     4  11    2.1576   479.8    4.165      31.332
2015   10       17     4  18    2.1607   479.5    4.175      31.320
2015   10       17     4  26    2.1640   479.2    4.185      31.308
2015   10       17     4  34    2.1673   478.8    4.195      31.296
2015   10       17     4  41    2.1707   478.5    4.205      31.285
2015   10       17     4  49    2.1741   478.2    4.215      31.274
2015   10       17     4  56    2.1777   477.9    4.225      31.264
2015   10       17     5   4    2.1813   477.6    4.236      31.254
2015   10       17     5  12    2.1851   477.3    4.246      31.244
2015   10       17     5  19    2.1889   476.9    4.257      31.236
2015   10       17     5  27    2.1928   476.6    4.268      31.227
2015   10       17     5  35    2.1968   476.3    4.279      31.220
2015   10       17     5  42    2.2010   476.0    4.290      31.213
2015   10       17     5  50    2.2052   475.7    4.301      31.207
2015   10       17     5  57    2.2095   475.4    4.313      31.202
2015   10       17     6   5    2.2139   475.1    4.325      31.198
2015   10       17     6  13    2.2185   474.8    4.337      31.194
2015   10       17     6  20    2.2231   474.5    4.350      31.192
2015   10       17     6  28    2.2279   474.2    4.363      31.190
2015   10       17     6  35    2.2327   473.9    4.376      31.190
2015   10       17     6  43    2.2378   473.6    4.389      31.190
2015   10       17     6  51    2.2429   473.3    4.403      31.192
2015   10       17     6  58    2.2482   473.0    4.417      31.195
2015   10       17     7   6    2.2535   472.7    4.432      31.199
2015   10       17     7  13    2.2591   472.4    4.447      31.204
2015   10       17     7  21    2.2647   472.1    4.462      31.211
2015   10       17     7  29    2.2704   471.8    4.478      31.219
2015   10       17     7  36    2.2763   471.5    4.494      31.229
2015   10       17     7  44    2.2823   471.3    4.510      31.240
2015   10       17     7  52    2.2883   471.0    4.526      31.252
2015   10       17     7  59    2.2944   470.7    4.543      31.266
2015   10       17     8   7    2.3005   470.5    4.560      31.280
2015   10       17     8  14    2.3068   470.2    4.577      31.297
2015   10       17     8  22    2.3129   470.0    4.593      31.315
2015   10       17     8  30    2.3192   469.7    4.610      31.335
2015   10       17     8  37    2.3254   469.5    4.627      31.355
2015   10       17     8  45    2.3317   469.2    4.643      31.377
2015   10       17     8  52    2.3379   469.0    4.659      31.398
2015   10       17     9   0    2.3443   468.8    4.675      31.418
2015   10       17     9   8    2.3505   468.6    4.691      31.438
2015   10       17     9  15    2.3569   468.3    4.707      31.457
2015   10       17     9  23    2.3632   468.1    4.722      31.476
2015   10       17     9  30    2.3695   467.9    4.738      31.494
2015   10       17     9  38    2.3759   467.7    4.753      31.513
2015   10       17     9  46    2.3823   467.5    4.768      31.531
2015   10       17     9  53    2.3887   467.2    4.783      31.549
2015   10       17    10   1    2.3952   467.0    4.798      31.567
2015   10       17    10   9    2.4016   466.8    4.812      31.585
2015   10       17    10  16    2.4081   466.6    4.827      31.602
2015   10       17    10  24    2.4146   466.4    4.841      31.619
2015   10       17    10  31    2.4212   466.2    4.856      31.636
2015   10       17    10  39    2.4277   466.0    4.870      31.653
2015   10       17    10  47    2.4344   465.8    4.884      31.670
2015   10       17    10  54    2.4410   465.6    4.898      31.686
2015   10       17    11   2    2.4478   465.4    4.912      31.703
2015   10       17    11   9    2.4545   465.2    4.926      31.719
2015   10       17    11  17    2.4613   465.0    4.940      31.736
2015   10       17    11  25    2.4681   464.8    4.954      31.754
2015   10       17    11  32    2.4751   464.6    4.968      31.772
2015   10       17    11  40    2.4820   464.4    4.981      31.790
2015   10       17    11  47    2.4891   464.2    4.995      31.809
2015   10       17    11  55    2.4962   464.1    5.009      31.829
2015   10       17    12   3    2.5034   463.9    5.023      31.849
2015   10       17    12  10    2.5106   463.7    5.038      31.871
2015   10       17    12  18    2.5179   463.5    5.052      31.893
2015   10       17    12  26    2.5253   463.3    5.066      31.917
2015   10       17    12  33    2.5329   463.2    5.081      31.942
2015   10       17    12  41    2.5405   463.0    5.096      31.968
2015   10       17    12  48    2.5482   462.8    5.111      31.995
2015   10       17    12  56    2.5560   462.7    5.126      32.023
2015   10       17    13   4    2.5639   462.5    5.141      32.053
2015   10       17    13  11    2.5720   462.4    5.157      32.084
2015   10       17    13  19    2.5801   462.2    5.173      32.116
2015   10       17    13  26    2.5884   462.1    5.189      32.150
2015   10       17    13  34    2.5968   461.9    5.206      32.186
2015   10       17    13  42    2.6054   461.8    5.223      32.223
2015   10       17    13  49    2.6141   461.6    5.240      32.261
2015   10       17    13  57    2.6229   461.5    5.258      32.301
2015   10       17    14   5    2.6319   461.3    5.276      32.343
2015   10       17    14  12    2.6410   461.2    5.295      32.386
2015   10       17    14  20    2.6504   461.1    5.314      32.431
2015   10       17    14  27    2.6598   461.0    5.334      32.477
2015   10       17    14  35    2.6695   460.8    5.355      32.526
2015   10       17    14  43    2.6792   460.7    5.376      32.576
2015   10       17    14  50    2.6892   460.6    5.398      32.629
2015   10       17    14  58    2.6993   460.5    5.420      32.683
2015   10       17    15   5    2.7096   460.4    5.443      32.740
2015   10       17    15  13    2.7199   460.3    5.467      32.798
2015   10       17    15  21    2.7304   460.2    5.491      32.860
2015   10       17    15  28    2.7409   460.1    5.516      32.926
2015   10       17    15  36    2.7515   460.1    5.541      32.995
2015   10       17    15  43    2.7621   460.0    5.567      33.067
2015   10       17    15  51    2.7728   460.0    5.592      33.142
2015   10       17    15  59    2.7834   459.9    5.618      33.222
2015   10       17    16   6    2.7940   459.9    5.643      33.306
2015   10       17    16  14    2.8045   459.9    5.667      33.393
2015   10       17    16  21    2.8150   459.9    5.691      33.483
2015   10       17    16  29    2.8254   459.8    5.714      33.573
2015   10       17    16  37    2.8358   459.8    5.736      33.661
2015   10       17    16  44    2.8461   459.8    5.757      33.746
2015   10       17    16  52    2.8564   459.8    5.778      33.830
2015   10       17    17   0    2.8665   459.8    5.798      33.910
2015   10       17    17   7    2.8767   459.8    5.817      33.989
2015   10       17    17  15    2.8867   459.8    5.835      34.065
2015   10       17    17  22    2.8968   459.8    5.853      34.139
2015   10       17    17  30    2.9068   459.8    5.871      34.211
2015   10       17    17  38    2.9168   459.8    5.888      34.281
2015   10       17    17  45    2.9268   459.8    5.904      34.349
2015   10       17    17  53    2.9368   459.8    5.920      34.415
2015   10       17    18   0    2.9467   459.8    5.935      34.480
2015   10       17    18   8    2.9567   459.8    5.951      34.543
2015   10       17    18  16    2.9666   459.8    5.965      34.605
2015   10       17    18  23    2.9766   459.8    5.980      34.667
2015   10       17    18  31    2.9865   459.8    5.994      34.727
2015   10       17    18  39    2.9965   459.8    6.008      34.787
2015   10       17    18  46    3.0064   459.8    6.022      34.846
2015   10       17    18  54    3.0163   459.8    6.036      34.906
2015   10       17    19   1    3.0262   459.8    6.049      34.964
2015   10       17    19   9    3.0362   459.8    6.062      35.023
2015   10       17    19  17    3.0461   459.8    6.076      35.082
2015   10       17    19  24    3.0561   459.9    6.089      35.141
2015   10       17    19  32    3.0661   459.9    6.102      35.200
2015   10       17    19  39    3.0760   459.9    6.115      35.259
2015   10       17    19  47    3.0860   459.9    6.128      35.319
2015   10       17    19  55    3.0960   460.0    6.141      35.378
2015   10       17    20   2    3.1061   460.0    6.154      35.438
2015   10       17    20  10    3.1161   460.1    6.167      35.498
2015   10       17    20  17    3.1262   460.1    6.180      35.559
2015   10       17    20  25    3.1363   460.1    6.193      35.620
2015   10       17    20  33    3.1464   460.2    6.207      35.682
2015   10       17    20  40    3.1565   460.2    6.220      35.745
2015   10       17    20  48    3.1667   460.3    6.234      35.809
2015   10       17    20  56    3.1769   460.3    6.248      35.875
2015   10       17    21   3    3.1871   460.4    6.262      35.941
2015   10       17    21  11    3.1974   460.4    6.277      36.010
2015   10       17    21  18    3.2078   460.5    6.292      36.080
2015   10       17    21  26    3.2181   460.6    6.307      36.152
2015   10       17    21  34    3.2286   460.7    6.323      36.226
2015   10       17    21  41    3.2391   460.7    6.340      36.303
2015   10       17    21  49    3.2496   460.8    6.357      36.382
2015   10       17    21  56    3.2603   460.9    6.375      36.463
2015   10       17    22   4    3.2710   461.0    6.394      36.548
2015   10       17    22  12    3.2818   461.1    6.413      36.636
2015   10       17    22  19    3.2927   461.2    6.434      36.726
2015   10       17    22  27    3.3036   461.3    6.456      36.820
2015   10       17    22  34    3.3147   461.4    6.479      36.918
2015   10       17    22  42    3.3258   461.6    6.502      37.022
2015   10       17    22  50    3.3370   461.7    6.527      37.131
2015   10       17    22  57    3.3483   461.8    6.553      37.245
2015   10       17    23   5    3.3597   462.0    6.579      37.363
2015   10       17    23  13    3.3711   462.1    6.606      37.487
2015   10       17    23  20    3.3825   462.3    6.633      37.620
2015   10       17    23  28    3.3939   462.5    6.660      37.760
2015   10       17    23  35    3.4053   462.7    6.685      37.906
2015   10       17    23  43    3.4167   463.0    6.710      38.057
2015   10       17    23  51    3.4280   463.2    6.734      38.210
2015   10       17    23  58    3.4393   463.4    6.756      38.360
2015   10       18     0   6    3.4505   463.7    6.777      38.505
2015   10       18     0  13    3.4616   463.9    6.797      38.647
2015   10       18     0  21    3.4726   464.1    6.816      38.785
2015   10       18     0  29    3.4835   464.4    6.833      38.921
2015   10       18     0  36    3.4943   464.6    6.850      39.053
2015   10       18     0  44    3.5051   464.8    6.865      39.182
2015   10       18     0  51    3.5157   465.1    6.880      39.308
2015   10       18     0  59    3.5264   465.3    6.893      39.432
2015   10       18     1   7    3.5369   465.5    6.906      39.554
2015   10       18     1  14    3.5474   465.8    6.918      39.673
2015   10       18     1  22    3.5578   466.0    6.929      39.790
2015   10       18     1  30    3.5682   466.3    6.940      39.906
2015   10       18     1  37    3.5784   466.5    6.949      40.019
2015   10       18     1  45    3.5886   466.8    6.958      40.130
2015   10       18     1  52    3.5987   467.0    6.966      40.240
2015   10       18     2   0    3.6088   467.3    6.974      40.348
2015   10       18     2   8    3.6188   467.5    6.981      40.454
2015   10       18     2  15    3.6287   467.8    6.987      40.559
2015   10       18     2  23    3.6385   468.0    6.993      40.662
2015   10       18     2  30    3.6482   468.3    6.998      40.763
2015   10       18     2  38    3.6578   468.5    7.002      40.863
2015   10       18     2  46    3.6674   468.8    7.007      40.962
2015   10       18     2  53    3.6768   469.0    7.010      41.058
2015   10       18     3   1    3.6861   469.3    7.014      41.153
2015   10       18     3   9    3.6953   469.5    7.017      41.246
2015   10       18     3  16    3.7045   469.8    7.019      41.337
2015   10       18     3  24    3.7135   470.0    7.022      41.426
2015   10       18     3  31    3.7225   470.2    7.024      41.514
2015   10       18     3  39    3.7313   470.5    7.026      41.599
2015   10       18     3  47    3.7401   470.7    7.027      41.683
2015   10       18     3  54    3.7489   471.0    7.029      41.766
2015   10       18     4   2    3.7576   471.2    7.030      41.847
2015   10       18     4   9    3.7662   471.4    7.032      41.928
2015   10       18     4  17    3.7748   471.7    7.033      42.008
2015   10       18     4  25    3.7833   471.9    7.035      42.088
2015   10       18     4  32    3.7918   472.2    7.037      42.167
2015   10       18     4  40    3.8002   472.4    7.039      42.246
2015   10       18     4  47    3.8087   472.7    7.041      42.326
2015   10       18     4  55    3.8171   472.9    7.043      42.405
2015   10       18     5   3    3.8254   473.2    7.045      42.486
2015   10       18     5  10    3.8338   473.4    7.048      42.567
2015   10       18     5  18    3.8422   473.7    7.052      42.649
2015   10       18     5  26    3.8505   473.9    7.056      42.732
2015   10       18     5  33    3.8589   474.2    7.060      42.817
2015   10       18     5  41    3.8672   474.4    7.065      42.902
2015   10       18     5  48    3.8756   474.7    7.071      42.989
2015   10       18     5  56    3.8840   474.9    7.077      43.078
2015   10       18     6   4    3.8923   475.2    7.084      43.170
2015   10       18     6  11    3.9007   475.4    7.091      43.265
2015   10       18     6  19    3.9091   475.7    7.099      43.361
2015   10       18     6  26    3.9176   476.0    7.108      43.460
2015   10       18     6  34    3.9260   476.2    7.117      43.562
2015   10       18     6  42    3.9345   476.5    7.127      43.669
2015   10       18     6  49    3.9430   476.8    7.137      43.780
2015   10       18     6  57    3.9515   477.1    7.146      43.895
2015   10       18     7   4    3.9600   477.4    7.156      44.014
2015   10       18     7  12    3.9686   477.7    7.165      44.135
2015   10       18     7  20    3.9771   478.1    7.174      44.256
2015   10       18     7  27    3.9857   478.4    7.184      44.376
2015   10       18     7  35    3.9941   478.7    7.193      44.495
2015   10       18     7  43    4.0026   479.0    7.202      44.615
2015   10       18     7  50    4.0110   479.3    7.211      44.737
2015   10       18     7  58    4.0194   479.6    7.221      44.858
2015   10       18     8   5    4.0278   480.0    7.231      44.982
2015   10       18     8  13    4.0363   480.3    7.241      45.108
2015   10       18     8  21    4.0449   480.6    7.252      45.236
2015   10       18     8  28    4.0535   480.9    7.263      45.365
2015   10       18     8  36    4.0621   481.3    7.276      45.500
2015   10       18     8  43    4.0709   481.6    7.288      45.640
2015   10       18     8  51    4.0797   482.0    7.302      45.786
2015   10       18     8  59    4.0885   482.3    7.316      45.936
2015   10       18     9   6    4.0975   482.7    7.330      46.090
2015   10       18     9  14    4.1065   483.1    7.345      46.252
2015   10       18     9  21    4.1155   483.5    7.360      46.422
2015   10       18     9  29    4.1244   483.9    7.374      46.597
2015   10       18     9  37    4.1331   484.4    7.386      46.779
2015   10       18     9  44    4.1417   484.8    7.397      46.966
2015   10       18     9  52    4.1499   485.3    7.407      47.150
2015   10       18    10   0    4.1579   485.7    7.415      47.327
2015   10       18    10   7    4.1656   486.2    7.421      47.498
2015   10       18    10  15    4.1730   486.6    7.426      47.665
2015   10       18    10  22    4.1803   487.1    7.430      47.827
2015   10       18    10  30    4.1873   487.6    7.433      47.983
2015   10       18    10  38    4.1941   488.0    7.434      48.136
2015   10       18    10  45    4.2008   488.5    7.434      48.286
2015   10       18    10  53    4.2074   488.9    7.434      48.434
2015   10       18    11   0    4.2139   489.4    7.433      48.579
2015   10       18    11   8    4.2203   489.9    7.430      48.722
2015   10       18    11  16    4.2265   490.3    7.427      48.862
2015   10       18    11  23    4.2328   490.8    7.423      49.001
2015   10       18    11  31    4.2388   491.3    7.419      49.135
2015   10       18    11  39    4.2448   491.8    7.413      49.267
2015   10       18    11  46    4.2507   492.3    7.407      49.396
2015   10       18    11  54    4.2565   492.7    7.401      49.523
2015   10       18    12   1    4.2623   493.2    7.393      49.647
2015   10       18    12   9    4.2680   493.7    7.386      49.768
2015   10       18    12  17    4.2737   494.2    7.378      49.887
2015   10       18    12  24    4.2794   494.7    7.370      50.005
2015   10       18    12  32    4.2850   495.2    7.362      50.123
2015   10       18    12  39    4.2908   495.7    7.355      50.242
2015   10       18    12  47    4.2965   496.2    7.347      50.361
2015   10       18    12  55    4.3022   496.7    7.339      50.482
2015   10       18    13   2    4.3079   497.2    7.331      50.605
2015   10       18    13  10    4.3135   497.8    7.324      50.731
2015   10       18    13  17    4.3190   498.3    7.315      50.856
2015   10       18    13  25    4.3244   498.9    7.307      50.980
2015   10       18    13  33    4.3296   499.4    7.298      51.099
2015   10       18    13  40    4.3347   500.0    7.288      51.216
2015   10       18    13  48    4.3395   500.5    7.278      51.327
2015   10       18    13  56    4.3442   501.1    7.268      51.435
2015   10       18    14   3    4.3488   501.6    7.257      51.539
2015   10       18    14  11    4.3533   502.1    7.247      51.641
2015   10       18    14  18    4.3577   502.6    7.237      51.739
2015   10       18    14  26    4.3620   503.1    7.226      51.837
2015   10       18    14  34    4.3664   503.6    7.217      51.934
2015   10       18    14  41    4.3707   504.0    7.207      52.031
2015   10       18    14  49    4.3749   504.5    7.197      52.127
2015   10       18    14  56    4.3791   505.0    7.188      52.223
2015   10       18    15   4    4.3833   505.5    7.180      52.319
2015   10       18    15  12    4.3874   505.9    7.172      52.415
2015   10       18    15  19    4.3916   506.4    7.165      52.510
2015   10       18    15  27    4.3956   506.8    7.158      52.607
2015   10       18    15  34    4.3997   507.3    7.153      52.704
2015   10       18    15  42    4.4037   507.7    7.148      52.802
2015   10       18    15  50    4.4078   508.2    7.144      52.901
2015   10       18    15  57    4.4118   508.6    7.142      53.005
2015   10       18    16   5    4.4159   509.1    7.140      53.112
2015   10       18    16  13    4.4200   509.5    7.139      53.224
2015   10       18    16  20    4.4241   509.9    7.140      53.338
2015   10       18    16  28    4.4283   510.4    7.141      53.456
2015   10       18    16  35    4.4326   510.8    7.143      53.583
2015   10       18    16  43    4.4367   511.3    7.144      53.717
2015   10       18    16  51    4.4409   511.8    7.146      53.856
2015   10       18    16  58    4.4448   512.3    7.146      54.004
2015   10       18    17   6    4.4486   512.8    7.146      54.156
2015   10       18    17  13    4.4520   513.4    7.145      54.304
2015   10       18    17  21    4.4552   513.9    7.142      54.448
2015   10       18    17  29    4.4581   514.4    7.139      54.589
2015   10       18    17  36    4.4608   515.0    7.134      54.728
2015   10       18    17  44    4.4632   515.6    7.129      54.865
2015   10       18    17  51    4.4655   516.1    7.122      54.998
2015   10       18    17  59    4.4675   516.7    7.115      55.130
2015   10       18    18   7    4.4694   517.2    7.107      55.260
2015   10       18    18  14    4.4711   517.8    7.098      55.388
2015   10       18    18  22    4.4728   518.4    7.088      55.516
2015   10       18    18  30    4.4742   518.9    7.078      55.644
2015   10       18    18  37    4.4756   519.5    7.068      55.770
2015   10       18    18  45    4.4769   520.1    7.056      55.896
2015   10       18    18  52    4.4781   520.7    7.044      56.020
2015   10       18    19   0    4.4791   521.3    7.032      56.143
2015   10       18    19   8    4.4801   521.9    7.020      56.265
2015   10       18    19  15    4.4810   522.5    7.007      56.386
2015   10       18    19  23    4.4820   523.2    6.994      56.507
2015   10       18    19  30    4.4828   523.8    6.982      56.627
2015   10       18    19  38    4.4837   524.4    6.970      56.748
2015   10       18    19  46    4.4844   525.0    6.957      56.870
2015   10       18    19  53    4.4851   525.6    6.945      56.994
2015   10       18    20   1    4.4857   526.3    6.933      57.122
2015   10       18    20   8    4.4862   526.9    6.920      57.253
2015   10       18    20  16    4.4864   527.6    6.907      57.386
2015   10       18    20  24    4.4865   528.3    6.894      57.516
2015   10       18    20  31    4.4863   529.0    6.880      57.643
2015   10       18    20  39    4.4858   529.7    6.864      57.764
2015   10       18    20  47    4.4850   530.4    6.848      57.880
2015   10       18    20  54    4.4840   531.1    6.831      57.989
2015   10       18    21   2    4.4826   531.8    6.813      58.092
2015   10       18    21   9    4.4812   532.5    6.795      58.190
2015   10       18    21  17    4.4794   533.2    6.776      58.282
2015   10       18    21  25    4.4776   533.9    6.757      58.369
2015   10       18    21  32    4.4756   534.6    6.737      58.454
2015   10       18    21  40    4.4734   535.2    6.716      58.537
2015   10       18    21  47    4.4709   536.0    6.695      58.618
2015   10       18    21  55    4.4683   536.7    6.672      58.699
2015   10       18    22   3    4.4653   537.4    6.649      58.780
2015   10       18    22  10    4.4619   538.1    6.624      58.858
2015   10       18    22  18    4.4580   538.8    6.598      58.935
2015   10       18    22  25    4.4536   539.6    6.570      59.006
2015   10       18    22  33    4.4486   540.3    6.540      59.068
2015   10       18    22  41    4.4431   541.0    6.509      59.119
2015   10       18    22  48    4.4368   541.7    6.475      59.163
2015   10       18    22  56    4.4301   542.4    6.440      59.197
2015   10       18    23   4    4.4227   543.1    6.403      59.214
2015   10       18    23  11    4.4150   543.8    6.366      59.219
2015   10       18    23  19    4.4069   544.4    6.329      59.214
2015   10       18    23  26    4.3988   545.0    6.293      59.198
2015   10       18    23  34    4.3908   545.5    6.258      59.182
2015   10       18    23  42    4.3832   546.1    6.224      59.172
2015   10       18    23  49    4.3757   546.7    6.192      59.166
2015   10       18    23  57    4.3685   547.3    6.161      59.164
2015   10       19     0   4    4.3612   547.8    6.131      59.163
2015   10       19     0  12    4.3543   548.4    6.102      59.167
2015   10       19     0  20    4.3472   549.0    6.074      59.172
2015   10       19     0  27    4.3404   549.5    6.047      59.177
2015   10       19     0  35    4.3335   550.1    6.020      59.184
2015   10       19     0  43    4.3268   550.6    5.995      59.193
2015   10       19     0  50    4.3200   551.2    5.970      59.202
2015   10       19     0  58    4.3134   551.7    5.947      59.213
2015   10       19     1   5    4.3068   552.2    5.923      59.226
2015   10       19     1  13    4.3003   552.7    5.901      59.240
2015   10       19     1  21    4.2938   553.3    5.879      59.257
2015   10       19     1  28    4.2874   553.8    5.858      59.273
2015   10       19     1  36    4.2809   554.3    5.837      59.291
2015   10       19     1  43    4.2745   554.8    5.816      59.310
2015   10       19     1  51    4.2681   555.3    5.796      59.329
2015   10       19     1  59    4.2618   555.8    5.777      59.348
2015   10       19     2   6    4.2554   556.2    5.757      59.368
2015   10       19     2  14    4.2491   556.7    5.738      59.387
2015   10       19     2  21    4.2427   557.2    5.720      59.407
2015   10       19     2  29    4.2363   557.7    5.701      59.428
2015   10       19     2  37    4.2299   558.2    5.683      59.450
2015   10       19     2  44    4.2235   558.7    5.665      59.472
2015   10       19     2  52    4.2170   559.2    5.647      59.495
2015   10       19     3   0    4.2105   559.7    5.629      59.516
2015   10       19     3   7    4.2039   560.3    5.611      59.535
2015   10       19     3  15    4.1973   560.8    5.593      59.549
2015   10       19     3  22    4.1905   561.3    5.575      59.559
2015   10       19     3  30    4.1837   561.9    5.557      59.564
2015   10       19     3  38    4.1766   562.4    5.539      59.567
2015   10       19     3  45    4.1694   562.9    5.520      59.566
2015   10       19     3  53    4.1619   563.5    5.502      59.565
2015   10       19     4   0    4.1543   564.0    5.482      59.564
2015   10       19     4   8    4.1465   564.6    5.463      59.560
2015   10       19     4  16    4.1385   565.2    5.443      59.555
2015   10       19     4  23    4.1302   565.8    5.423      59.547
2015   10       19     4  31    4.1219   566.3    5.403      59.538
2015   10       19     4  38    4.1132   566.9    5.382      59.526
2015   10       19     4  46    4.1045   567.4    5.361      59.515
2015   10       19     4  54    4.0956   567.9    5.340      59.505
2015   10       19     5   1    4.0867   568.5    5.319      59.497
2015   10       19     5   9    4.0775   569.0    5.297      59.487
2015   10       19     5  17    4.0682   569.6    5.275      59.476
2015   10       19     5  24    4.0586   570.1    5.252      59.463
2015   10       19     5  32    4.0488   570.7    5.228      59.448
2015   10       19     5  39    4.0387   571.3    5.204      59.425
2015   10       19     5  47    4.0283   571.9    5.179      59.397
2015   10       19     5  55    4.0176   572.5    5.153      59.361
2015   10       19     6   2    4.0066   573.2    5.126      59.321
2015   10       19     6  10    3.9953   573.8    5.099      59.265
2015   10       19     6  17    3.9838   574.4    5.071      59.195
2015   10       19     6  25    3.9720   574.9    5.043      59.114
2015   10       19     6  33    3.9602   575.4    5.015      59.022
2015   10       19     6  40    3.9484   575.9    4.988      58.922
2015   10       19     6  48    3.9369   576.4    4.962      58.827
2015   10       19     6  56    3.9255   576.9    4.936      58.736
2015   10       19     7   3    3.9145   577.4    4.912      58.648
2015   10       19     7  11    3.9036   577.8    4.888      58.563
2015   10       19     7  18    3.8929   578.3    4.865      58.481
2015   10       19     7  26    3.8824   578.7    4.843      58.402
2015   10       19     7  34    3.8721   579.1    4.821      58.325
2015   10       19     7  41    3.8620   579.5    4.801      58.250
2015   10       19     7  49    3.8522   579.9    4.781      58.179
2015   10       19     7  56    3.8425   580.2    4.762      58.110
2015   10       19     8   4    3.8331   580.6    4.745      58.047
2015   10       19     8  12    3.8238   580.9    4.728      57.986
2015   10       19     8  19    3.8148   581.2    4.711      57.931
2015   10       19     8  27    3.8059   581.5    4.696      57.878
2015   10       19     8  34    3.7971   581.8    4.681      57.829
2015   10       19     8  42    3.7884   582.1    4.666      57.782
2015   10       19     8  50    3.7799   582.4    4.652      57.739
2015   10       19     8  57    3.7715   582.7    4.638      57.699
2015   10       19     9   5    3.7631   583.1    4.624      57.659
2015   10       19     9  13    3.7547   583.4    4.610      57.622
2015   10       19     9  20    3.7464   583.7    4.597      57.586
2015   10       19     9  28    3.7381   584.0    4.583      57.550
2015   10       19     9  35    3.7298   584.3    4.569      57.511
2015   10       19     9  43    3.7215   584.6    4.556      57.468
2015   10       19     9  51    3.7133   584.9    4.542      57.423
2015   10       19     9  58    3.7053   585.2    4.529      57.376
2015   10       19    10   6    3.6974   585.4    4.517      57.328
2015   10       19    10  13    3.6896   585.6    4.505      57.280
2015   10       19    10  21    3.6820   585.8    4.493      57.235
2015   10       19    10  29    3.6745   586.0    4.482      57.193
2015   10       19    10  36    3.6672   586.2    4.471      57.156
2015   10       19    10  44    3.6601   586.5    4.460      57.125
2015   10       19    10  51    3.6529   586.7    4.450      57.102
2015   10       19    10  59    3.6459   587.0    4.440      57.084
2015   10       19    11   7    3.6389   587.3    4.430      57.069
2015   10       19    11  14    3.6318   587.6    4.420      57.054
2015   10       19    11  22    3.6248   588.0    4.409      57.035
2015   10       19    11  30    3.6178   588.2    4.399      57.010
2015   10       19    11  37    3.6107   588.5    4.388      56.981
2015   10       19    11  45    3.6035   588.8    4.378      56.948
2015   10       19    11  52    3.5963   589.0    4.367      56.913
2015   10       19    12   0    3.5891   589.3    4.356      56.878
2015   10       19    12   8    3.5819   589.5    4.345      56.842
2015   10       19    12  15    3.5747   589.8    4.334      56.805
2015   10       19    12  23    3.5675   590.0    4.324      56.767
2015   10       19    12  30    3.5605   590.2    4.313      56.727
2015   10       19    12  38    3.5536   590.5    4.303      56.686
2015   10       19    12  46    3.5468   590.7    4.292      56.645
2015   10       19    12  53    3.5401   590.9    4.282      56.605
2015   10       19    13   1    3.5335   591.1    4.272      56.566
2015   10       19    13   8    3.5269   591.3    4.263      56.528
2015   10       19    13  16    3.5206   591.5    4.253      56.490
2015   10       19    13  24    3.5142   591.7    4.244      56.454
2015   10       19    13  31    3.5081   591.9    4.235      56.419
2015   10       19    13  39    3.5020   592.1    4.226      56.385
2015   10       19    13  47    3.4960   592.3    4.217      56.351
2015   10       19    13  54    3.4901   592.5    4.209      56.317
2015   10       19    14   2    3.4843   592.7    4.201      56.283
2015   10       19    14   9    3.4786   592.9    4.193      56.251
2015   10       19    14  17    3.4731   593.1    4.185      56.218
2015   10       19    14  25    3.4675   593.3    4.178      56.187
2015   10       19    14  32    3.4621   593.5    4.171      56.156
2015   10       19    14  40    3.4567   593.7    4.163      56.126
2015   10       19    14  47    3.4515   593.8    4.156      56.098
2015   10       19    14  55    3.4463   594.0    4.149      56.071
2015   10       19    15   3    3.4411   594.2    4.142      56.044
2015   10       19    15  10    3.4360   594.4    4.135      56.017
2015   10       19    15  18    3.4309   594.6    4.128      55.992
2015   10       19    15  26    3.4259   594.7    4.121      55.965
2015   10       19    15  33    3.4209   594.9    4.114      55.938
2015   10       19    15  41    3.4159   595.1    4.107      55.911
2015   10       19    15  48    3.4110   595.3    4.100      55.883
2015   10       19    15  56    3.4060   595.5    4.093      55.856
2015   10       19    16   4    3.4011   595.6    4.086      55.828
2015   10       19    16  11    3.3962   595.8    4.079      55.800
2015   10       19    16  19    3.3912   596.0    4.072      55.772
2015   10       19    16  26    3.3863   596.2    4.065      55.744
2015   10       19    16  34    3.3814   596.3    4.057      55.715
2015   10       19    16  42    3.3764   596.5    4.050      55.685
2015   10       19    16  49    3.3715   596.7    4.043      55.655
2015   10       19    16  57    3.3666   596.9    4.036      55.624
2015   10       19    17   4    3.3617   597.0    4.028      55.593
2015   10       19    17  12    3.3567   597.2    4.021      55.561
2015   10       19    17  20    3.3518   597.4    4.014      55.529
2015   10       19    17  27    3.3469   597.5    4.006      55.496
2015   10       19    17  35    3.3420   597.7    3.999      55.462
2015   10       19    17  43    3.3371   597.9    3.992      55.428
2015   10       19    17  50    3.3322   598.0    3.984      55.394
2015   10       19    17  58    3.3273   598.2    3.977      55.359
2015   10       19    18   5    3.3224   598.4    3.970      55.324
2015   10       19    18  13    3.3176   598.5    3.963      55.288
2015   10       19    18  21    3.3128   598.7    3.955      55.252
2015   10       19    18  28    3.3080   598.8    3.948      55.215
2015   10       19    18  36    3.3033   599.0    3.941      55.179
2015   10       19    18  43    3.2986   599.1    3.934      55.142
2015   10       19    18  51    3.2940   599.3    3.926      55.104
2015   10       19    18  59    3.2894   599.4    3.919      55.066
2015   10       19    19   6    3.2848   599.6    3.912      55.028
2015   10       19    19  14    3.2802   599.7    3.905      54.990
2015   10       19    19  21    3.2757   599.9    3.898      54.952
2015   10       19    19  29    3.2712   600.0    3.891      54.913
2015   10       19    19  37    3.2668   600.2    3.884      54.875
2015   10       19    19  44    3.2624   600.3    3.877      54.836
2015   10       19    19  52    3.2580   600.5    3.870      54.797
2015   10       19    19  59    3.2537   600.6    3.863      54.758
2015   10       19    20   7    3.2494   600.7    3.856      54.719
2015   10       19    20  15    3.2452   600.9    3.849      54.681
2015   10       19    20  22    3.2410   601.0    3.842      54.642
2015   10       19    20  30    3.2368   601.1    3.835      54.603
2015   10       19    20  38    3.2327   601.3    3.828      54.564
2015   10       19    20  45    3.2287   601.4    3.822      54.526
2015   10       19    20  53    3.2247   601.5    3.815      54.488
2015   10       19    21   0    3.2208   601.6    3.809      54.450
2015   10       19    21   8    3.2169   601.8    3.803      54.413
2015   10       19    21  16    3.2130   601.9    3.797      54.376
2015   10       19    21  23    3.2093   602.0    3.791      54.340
2015   10       19    21  31    3.2055   602.1    3.785      54.305
2015   10       19    21  38    3.2018   602.2    3.779      54.271
2015   10       19    21  46    3.1982   602.3    3.774      54.238
2015   10       19    21  54    3.1946   602.4    3.768      54.206
2015   10       19    22   1    3.1910   602.5    3.763      54.175
2015   10       19    22   9    3.1875   602.7    3.758      54.145
2015   10       19    22  17    3.1841   602.8    3.753      54.116
2015   10       19    22  24    3.1806   602.9    3.748      54.088
2015   10       19    22  32    3.1773   603.0    3.743      54.062
2015   10       19    22  39    3.1739   603.1    3.739      54.036
2015   10       19    22  47    3.1707   603.2    3.735      54.011
2015   10       19    22  55    3.1674   603.3    3.730      53.988
2015   10       19    23   2    3.1642   603.3    3.726      53.966
2015   10       19    23  10    3.1611   603.4    3.722      53.944
2015   10       19    23  17    3.1580   603.5    3.718      53.923
2015   10       19    23  25    3.1549   603.6    3.714      53.903
2015   10       19    23  33    3.1519   603.7    3.711      53.883
2015   10       19    23  40    3.1489   603.8    3.707      53.864
2015   10       19    23  48    3.1459   603.9    3.703      53.845
2015   10       19    23  55    3.1430   604.0    3.699      53.826
2015   10       20     0   3    3.1401   604.0    3.696      53.807
2015   10       20     0  11    3.1372   604.1    3.692      53.789
2015   10       20     0  18    3.1344   604.2    3.688      53.771
2015   10       20     0  26    3.1316   604.3    3.685      53.752
2015   10       20     0  34    3.1288   604.4    3.681      53.734
2015   10       20     0  41    3.1260   604.4    3.678      53.715
2015   10       20     0  49    3.1232   604.5    3.674      53.696
2015   10       20     0  56    3.1204   604.6    3.670      53.676
2015   10       20     1   4    3.1176   604.7    3.667      53.657
2015   10       20     1  12    3.1148   604.7    3.663      53.636
2015   10       20     1  19    3.1120   604.8    3.660      53.616
2015   10       20     1  27    3.1093   604.9    3.656      53.595
2015   10       20     1  34    3.1065   604.9    3.652      53.573
2015   10       20     1  42    3.1038   605.0    3.649      53.551
2015   10       20     1  50    3.1011   605.1    3.645      53.528
2015   10       20     1  57    3.0984   605.1    3.642      53.505
2015   10       20     2   5    3.0957   605.2    3.638      53.482
2015   10       20     2  12    3.0930   605.3    3.634      53.457
2015   10       20     2  20    3.0903   605.3    3.631      53.433
2015   10       20     2  28    3.0877   605.4    3.627      53.407
2015   10       20     2  35    3.0850   605.5    3.623      53.382
2015   10       20     2  43    3.0824   605.5    3.620      53.355
2015   10       20     2  50    3.0798   605.6    3.616      53.328
2015   10       20     2  58    3.0772   605.6    3.612      53.301
2015   10       20     3   6    3.0746   605.7    3.609      53.273
2015   10       20     3  13    3.0720   605.7    3.605      53.245
2015   10       20     3  21    3.0695   605.8    3.601      53.217
2015   10       20     3  29    3.0669   605.8    3.597      53.189
2015   10       20     3  36    3.0644   605.9    3.594      53.160
2015   10       20     3  44    3.0619   605.9    3.590      53.131
2015   10       20     3  51    3.0595   606.0    3.586      53.102
2015   10       20     3  59    3.0570   606.0    3.583      53.073
2015   10       20     4   7    3.0546   606.1    3.579      53.044
2015   10       20     4  14    3.0522   606.1    3.576      53.015
2015   10       20     4  22    3.0498   606.2    3.572      52.986
2015   10       20     4  29    3.0474   606.2    3.569      52.957
2015   10       20     4  37    3.0451   606.2    3.565      52.929
2015   10       20     4  45    3.0428   606.3    3.562      52.901
2015   10       20     4  52    3.0405   606.3    3.558      52.873
2015   10       20     5   0    3.0382   606.3    3.555      52.846
2015   10       20     5   8    3.0360   606.4    3.552      52.819
2015   10       20     5  15    3.0338   606.4    3.549      52.793
2015   10       20     5  23    3.0316   606.4    3.545      52.768
2015   10       20     5  30    3.0294   606.5    3.542      52.742
2015   10       20     5  38    3.0273   606.5    3.539      52.718
2015   10       20     5  46    3.0252   606.5    3.537      52.694
2015   10       20     5  53    3.0231   606.6    3.534      52.670
2015   10       20     6   1    3.0211   606.6    3.531      52.648
2015   10       20     6   8    3.0191   606.6    3.528      52.626
2015   10       20     6  16    3.0171   606.6    3.526      52.604
2015   10       20     6  24    3.0151   606.7    3.523      52.583
2015   10       20     6  31    3.0131   606.7    3.520      52.562
2015   10       20     6  39    3.0112   606.7    3.518      52.542
2015   10       20     6  46    3.0093   606.7    3.516      52.523
2015   10       20     6  54    3.0074   606.8    3.513      52.504
2015   10       20     7   2    3.0055   606.8    3.511      52.486
2015   10       20     7   9    3.0037   606.8    3.509      52.468
2015   10       20     7  17    3.0018   606.8    3.507      52.450
2015   10       20     7  25    3.0000   606.8    3.505      52.433
2015   10       20     7  32    2.9982   606.9    3.503      52.416
2015   10       20     7  40    2.9964   606.9    3.501      52.399
2015   10       20     7  47    2.9946   606.9    3.499      52.382
2015   10       20     7  55    2.9928   606.9    3.497      52.365
2015   10       20     8   3    2.9911   606.9    3.495      52.349
2015   10       20     8  10    2.9893   606.9    3.494      52.332
2015   10       20     8  18    2.9875   607.0    3.492      52.316
2015   10       20     8  25    2.9858   607.0    3.490      52.299
2015   10       20     8  33    2.9840   607.0    3.489      52.282
2015   10       20     8  41    2.9823   607.0    3.487      52.265
2015   10       20     8  48    2.9806   607.0    3.485      52.248
2015   10       20     8  56    2.9789   607.0    3.484      52.231
2015   10       20     9   3    2.9771   607.0    3.482      52.213
2015   10       20     9  11    2.9754   607.1    3.480      52.196
2015   10       20     9  19    2.9737   607.1    3.479      52.178
2015   10       20     9  26    2.9721   607.1    3.477      52.160
2015   10       20     9  34    2.9704   607.1    3.476      52.141
2015   10       20     9  41    2.9687   607.1    3.474      52.123
2015   10       20     9  49    2.9671   607.1    3.472      52.104
2015   10       20     9  57    2.9655   607.1    3.471      52.085
2015   10       20    10   4    2.9639   607.1    3.469      52.065
2015   10       20    10  12    2.9623   607.1    3.468      52.045
2015   10       20    10  20    2.9607   607.1    3.466      52.025
2015   10       20    10  27    2.9592   607.1    3.464      52.005
2015   10       20    10  35    2.9576   607.1    3.462      51.984
2015   10       20    10  42    2.9561   607.1    3.461      51.963
2015   10       20    10  50    2.9546   607.1    3.459      51.942
2015   10       20    10  58    2.9532   607.1    3.457      51.920
2015   10       20    11   5    2.9517   607.1    3.455      51.898
2015   10       20    11  13    2.9503   607.1    3.453      51.875
2015   10       20    11  20    2.9489   607.1    3.452      51.852
2015   10       20    11  28    2.9474   607.1    3.450      51.829
2015   10       20    11  36    2.9461   607.1    3.448      51.805
2015   10       20    11  43    2.9447   607.1    3.446      51.781
2015   10       20    11  51    2.9434   607.1    3.444      51.757
2015   10       20    11  58    2.9420   607.1    3.442      51.733
2015   10       20    12   6    2.9407   607.1    3.440      51.708
2015   10       20    12  14    2.9394   607.1    3.437      51.684
2015   10       20    12  21    2.9381   607.1    3.435      51.659
2015   10       20    12  29    2.9368   607.1    3.433      51.634
2015   10       20    12  37    2.9355   607.0    3.431      51.610
2015   10       20    12  44    2.9343   607.0    3.429      51.585
2015   10       20    12  52    2.9330   607.0    3.427      51.560
2015   10       20    12  59    2.9318   607.0    3.425      51.536
2015   10       20    13   7    2.9306   607.0    3.423      51.512
2015   10       20    13  15    2.9294   607.0    3.421      51.488
2015   10       20    13  22    2.9282   606.9    3.419      51.464
2015   10       20    13  30    2.9270   606.9    3.418      51.441
2015   10       20    13  37    2.9259   606.9    3.416      51.418
2015   10       20    13  45    2.9248   606.9    3.414      51.396
2015   10       20    13  53    2.9236   606.9    3.412      51.374
2015   10       20    14   0    2.9225   606.8    3.411      51.352
2015   10       20    14   8    2.9214   606.8    3.409      51.331
2015   10       20    14  15    2.9203   606.8    3.408      51.311
2015   10       20    14  23    2.9192   606.8    3.407      51.290
2015   10       20    14  31    2.9181   606.7    3.405      51.271
2015   10       20    14  38    2.9171   606.7    3.404      51.251
2015   10       20    14  46    2.9160   606.7    3.403      51.232
2015   10       20    14  53    2.9150   606.7    3.402      51.213
2015   10       20    15   1    2.9139   606.6    3.401      51.195
2015   10       20    15   9    2.9129   606.6    3.400      51.176
2015   10       20    15  16    2.9118   606.6    3.399      51.157
2015   10       20    15  24    2.9108   606.6    3.398      51.139
2015   10       20    15  32    2.9097   606.5    3.397      51.120
2015   10       20    15  39    2.9087   606.5    3.396      51.101
2015   10       20    15  47    2.9077   606.5    3.395      51.082
2015   10       20    15  54    2.9066   606.4    3.394      51.063
2015   10       20    16   2    2.9056   606.4    3.393      51.044
2015   10       20    16  10    2.9046   606.4    3.392      51.024
2015   10       20    16  17    2.9036   606.4    3.391      51.005
2015   10       20    16  25    2.9025   606.3    3.390      50.986
2015   10       20    16  32    2.9015   606.3    3.390      50.966
2015   10       20    16  40    2.9006   606.3    3.389      50.947
2015   10       20    16  48    2.8996   606.2    3.388      50.928
2015   10       20    16  55    2.8986   606.2    3.388      50.910
2015   10       20    17   3    2.8977   606.1    3.387      50.892
2015   10       20    17  10    2.8968   606.1    3.386      50.874
2015   10       20    17  18    2.8960   606.1    3.386      50.857
2015   10       20    17  26    2.8951   606.0    3.385      50.840
2015   10       20    17  33    2.8943   606.0    3.385      50.824
2015   10       20    17  41    2.8935   606.0    3.384      50.808
2015   10       20    17  48    2.8927   605.9    3.384      50.793
2015   10       20    17  56    2.8919   605.9    3.384      50.778
2015   10       20    18   4    2.8912   605.9    3.384      50.764
2015   10       20    18  11    2.8905   605.9    3.383      50.750
2015   10       20    18  19    2.8898   605.8    3.383      50.736
2015   10       20    18  27    2.8891   605.8    3.383      50.723
2015   10       20    18  34    2.8884   605.8    3.383      50.709
2015   10       20    18  42    2.8877   605.7    3.383      50.696
2015   10       20    18  49    2.8870   605.7    3.382      50.683
2015   10       20    18  57    2.8863   605.7    3.382      50.670
2015   10       20    19   5    2.8856   605.6    3.382      50.657
2015   10       20    19  12    2.8849   605.6    3.382      50.644
2015   10       20    19  20    2.8842   605.6    3.382      50.630
2015   10       20    19  27    2.8835   605.5    3.381      50.617
2015   10       20    19  35    2.8828   605.5    3.381      50.604
2015   10       20    19  43    2.8821   605.5    3.381      50.590
2015   10       20    19  50    2.8813   605.5    3.380      50.577
2015   10       20    19  58    2.8806   605.4    3.379      50.563
2015   10       20    20   6    2.8799   605.4    3.379      50.549
2015   10       20    20  13    2.8792   605.4    3.378      50.533
2015   10       20    20  21    2.8784   605.3    3.377      50.518
2015   10       20    20  28    2.8777   605.3    3.376      50.501
2015   10       20    20  36    2.8770   605.2    3.376      50.485
2015   10       20    20  44    2.8763   605.2    3.375      50.468
2015   10       20    20  51    2.8756   605.2    3.374      50.450
2015   10       20    20  59    2.8748   605.1    3.373      50.432
2015   10       20    21   6    2.8742   605.1    3.372      50.414
2015   10       20    21  14    2.8735   605.1    3.371      50.395
2015   10       20    21  22    2.8728   605.0    3.370      50.377
2015   10       20    21  29    2.8721   605.0    3.369      50.358
2015   10       20    21  37    2.8714   604.9    3.368      50.338
2015   10       20    21  44    2.8708   604.9    3.368      50.319
2015   10       20    21  52    2.8701   604.9    3.367      50.299
2015   10       20    22   0    2.8695   604.8    3.366      50.279
2015   10       20    22   7    2.8688   604.8    3.365      50.258
2015   10       20    22  15    2.8682   604.7    3.364      50.237
2015   10       20    22  22    2.8676   604.7    3.363      50.216
2015   10       20    22  30    2.8669   604.6    3.362      50.194
2015   10       20    22  38    2.8663   604.6    3.361      50.172
2015   10       20    22  45    2.8657   604.5    3.360      50.150
2015   10       20    22  53    2.8651   604.5    3.359      50.127
2015   10       20    23   1    2.8645   604.4    3.358      50.104
2015   10       20    23   8    2.8639   604.4    3.357      50.080
2015   10       20    23  16    2.8633   604.3    3.356      50.056
2015   10       20    23  23    2.8627   604.3    3.355      50.033
2015   10       20    23  31    2.8621   604.2    3.354      50.009
2015   10       20    23  39    2.8615   604.1    3.353      49.985
2015   10       20    23  46    2.8610   604.1    3.352      49.962
2015   10       20    23  54    2.8605   604.0    3.351      49.939
2015   10       21     0   1    2.8599   604.0    3.350      49.916
2015   10       21     0   9    2.8594   603.9    3.350      49.895
2015   10       21     0  17    2.8590   603.8    3.349      49.874
2015   10       21     0  24    2.8585   603.8    3.349      49.853
2015   10       21     0  32    2.8581   603.7    3.348      49.834
2015   10       21     0  39    2.8577   603.7    3.348      49.815
2015   10       21     0  47    2.8573   603.6    3.348      49.797
2015   10       21     0  55    2.8569   603.6    3.347      49.780
2015   10       21     1   2    2.8565   603.5    3.347      49.764
2015   10       21     1  10    2.8561   603.5    3.347      49.748
2015   10       21     1  18    2.8558   603.4    3.347      49.733
2015   10       21     1  25    2.8554   603.4    3.347      49.718
2015   10       21     1  33    2.8550   603.3    3.347      49.703
2015   10       21     1  40    2.8547   603.2    3.348      49.690
2015   10       21     1  48    2.8543   603.2    3.348      49.676
2015   10       21     1  56    2.8540   603.1    3.348      49.662
2015   10       21     2   3    2.8536   603.1    3.348      49.649
2015   10       21     2  11    2.8532   603.0    3.349      49.636
2015   10       21     2  18    2.8529   603.0    3.349      49.623
2015   10       21     2  26    2.8525   602.9    3.349      49.610
2015   10       21     2  34    2.8521   602.9    3.349      49.598
2015   10       21     2  41    2.8516   602.8    3.350      49.586
2015   10       21     2  49    2.8512   602.8    3.350      49.575
2015   10       21     2  56    2.8508   602.7    3.350      49.564
2015   10       21     3   4    2.8504   602.7    3.351      49.554
2015   10       21     3  12    2.8499   602.6    3.351      49.544
2015   10       21     3  19    2.8495   602.6    3.351      49.534
2015   10       21     3  27    2.8491   602.5    3.351      49.525
2015   10       21     3  35    2.8487   602.5    3.352      49.515
2015   10       21     3  42    2.8483   602.4    3.352      49.506
2015   10       21     3  50    2.8480   602.4    3.352      49.497
2015   10       21     3  57    2.8476   602.3    3.353      49.488
2015   10       21     4   5    2.8472   602.3    3.353      49.479
2015   10       21     4  13    2.8469   602.2    3.354      49.470
2015   10       21     4  20    2.8466   602.2    3.354      49.461
2015   10       21     4  28    2.8463   602.1    3.355      49.453
2015   10       21     4  35    2.8461   602.1    3.355      49.444
2015   10       21     4  43    2.8458   602.0    3.356      49.436
2015   10       21     4  51    2.8456   602.0    3.356      49.428
2015   10       21     4  58    2.8453   601.9    3.357      49.421
2015   10       21     5   6    2.8451   601.9    3.358      49.414
2015   10       21     5  13    2.8449   601.8    3.358      49.408
2015   10       21     5  21    2.8446   601.8    3.358      49.402
2015   10       21     5  29    2.8444   601.7    3.358      49.395
2015   10       21     5  36    2.8441   601.7    3.358      49.387
2015   10       21     5  44    2.8438   601.7    3.358      49.378
2015   10       21     5  51    2.8435   601.6    3.358      49.367
2015   10       21     5  59    2.8432   601.6    3.358      49.355
2015   10       21     6   7    2.8429   601.5    3.357      49.342
2015   10       21     6  14    2.8426   601.5    3.357      49.328
2015   10       21     6  22    2.8423   601.4    3.356      49.314
2015   10       21     6  30    2.8420   601.4    3.356      49.298
2015   10       21     6  37    2.8416   601.3    3.355      49.282
2015   10       21     6  45    2.8413   601.3    3.355      49.265
2015   10       21     6  52    2.8410   601.2    3.354      49.248
2015   10       21     7   0    2.8407   601.2    3.353      49.230
2015   10       21     7   8    2.8403   601.1    3.353      49.212
2015   10       21     7  15    2.8400   601.0    3.352      49.194
2015   10       21     7  23    2.8397   601.0    3.351      49.176
2015   10       21     7  30    2.8394   600.9    3.351      49.157
2015   10       21     7  38    2.8391   600.9    3.350      49.139
2015   10       21     7  46    2.8388   600.8    3.349      49.120
2015   10       21     7  53    2.8385   600.8    3.349      49.101
2015   10       21     8   1    2.8382   600.7    3.348      49.082
2015   10       21     8   8    2.8380   600.7    3.348      49.063
2015   10       21     8  16    2.8377   600.6    3.347      49.043
2015   10       21     8  24    2.8374   600.5    3.346      49.023
2015   10       21     8  31    2.8371   600.5    3.346      49.002
2015   10       21     8  39    2.8368   600.4    3.345      48.981
2015   10       21     8  47    2.8365   600.4    3.344      48.960
2015   10       21     8  54    2.8362   600.3    3.344      48.938
2015   10       21     9   2    2.8359   600.2    3.343      48.917
2015   10       21     9   9    2.8356   600.2    3.342      48.895
2015   10       21     9  17    2.8353   600.1    3.342      48.873
2015   10       21     9  25    2.8350   600.0    3.341      48.851
2015   10       21     9  32    2.8347   600.0    3.340      48.829
2015   10       21     9  40    2.8344   599.9    3.340      48.808
2015   10       21     9  47    2.8341   599.9    3.339      48.787
2015   10       21     9  55    2.8338   599.8    3.339      48.767
2015   10       21    10   3    2.8336   599.7    3.339      48.748
2015   10       21    10  10    2.8333   599.7    3.338      48.730
2015   10       21    10  18    2.8331   599.6    3.338      48.713
2015   10       21    10  25    2.8329   599.5    3.338      48.697
2015   10       21    10  33    2.8326   599.5    3.339      48.682
2015   10       21    10  41    2.8324   599.4    3.339      48.669
2015   10       21    10  48    2.8323   599.3    3.339      48.656
2015   10       21    10  56    2.8321   599.3    3.340      48.645
2015   10       21    11   4    2.8320   599.2    3.340      48.635
2015   10       21    11  11    2.8318   599.1    3.341      48.626
2015   10       21    11  19    2.8317   599.1    3.342      48.618
2015   10       21    11  26    2.8317   599.0    3.343      48.611
2015   10       21    11  34    2.8316   598.9    3.344      48.606
2015   10       21    11  42    2.8316   598.9    3.345      48.602
2015   10       21    11  49    2.8316   598.8    3.346      48.599
2015   10       21    11  57    2.8315   598.8    3.348      48.596
2015   10       21    12   4    2.8316   598.7    3.349      48.596
2015   10       21    12  12    2.8316   598.7    3.351      48.596
2015   10       21    12  20    2.8315   598.6    3.352      48.598
2015   10       21    12  27    2.8315   598.6    3.353      48.601
2015   10       21    12  35    2.8315   598.5    3.354      48.603
2015   10       21    12  42    2.8314   598.5    3.355      48.605
2015   10       21    12  50    2.8313   598.4    3.356      48.606
2015   10       21    12  58    2.8312   598.4    3.357      48.606
2015   10       21    13   5    2.8311   598.3    3.358      48.605
2015   10       21    13  13    2.8310   598.3    3.359      48.603
2015   10       21    13  21    2.8309   598.3    3.359      48.600
2015   10       21    13  28    2.8307   598.2    3.360      48.596
2015   10       21    13  36    2.8306   598.2    3.361      48.592
2015   10       21    13  43    2.8304   598.1    3.361      48.587
2015   10       21    13  51    2.8302   598.1    3.361      48.581
2015   10       21    13  59    2.8300   598.0    3.361      48.574
2015   10       21    14   6    2.8298   598.0    3.362      48.567
2015   10       21    14  14    2.8296   597.9    3.362      48.559
2015   10       21    14  21    2.8294   597.9    3.362      48.550
2015   10       21    14  29    2.8291   597.8    3.362      48.541
2015   10       21    14  37    2.8289   597.8    3.362      48.531
2015   10       21    14  44    2.8287   597.7    3.362      48.521
2015   10       21    14  52    2.8285   597.7    3.362      48.510
2015   10       21    14  59    2.8283   597.6    3.362      48.499
2015   10       21    15   7    2.8281   597.6    3.361      48.487
2015   10       21    15  15    2.8279   597.5    3.361      48.475
2015   10       21    15  22    2.8276   597.4    3.361      48.462
2015   10       21    15  30    2.8274   597.4    3.361      48.449
2015   10       21    15  37    2.8272   597.3    3.360      48.435
2015   10       21    15  45    2.8270   597.3    3.360      48.422
2015   10       21    15  53    2.8268   597.2    3.360      48.408
2015   10       21    16   0    2.8266   597.2    3.359      48.394
2015   10       21    16   8    2.8264   597.1    3.359      48.380
2015   10       21    16  16    2.8262   597.0    3.359      48.366
2015   10       21    16  23    2.8260   597.0    3.359      48.352
2015   10       21    16  31    2.8258   596.9    3.358      48.338
2015   10       21    16  38    2.8256   596.9    3.358      48.324
2015   10       21    16  46    2.8254   596.8    3.358      48.310
2015   10       21    16  54    2.8252   596.8    3.357      48.297
2015   10       21    17   1    2.8250   596.7    3.357      48.284
2015   10       21    17   9    2.8248   596.7    3.357      48.271
2015   10       21    17  16    2.8246   596.6    3.357      48.259
2015   10       21    17  24    2.8244   596.6    3.356      48.246
2015   10       21    17  32    2.8242   596.5    3.356      48.234
2015   10       21    17  39    2.8240   596.5    3.356      48.221
2015   10       21    17  47    2.8238   596.4    3.356      48.208
2015   10       21    17  54    2.8237   596.3    3.355      48.196
2015   10       21    18   2    2.8235   596.3    3.355      48.183
2015   10       21    18  10    2.8233   596.2    3.355      48.170
2015   10       21    18  17    2.8231   596.2    3.355      48.158
2015   10       21    18  25    2.8229   596.1    3.355      48.145
2015   10       21    18  33    2.8228   596.1    3.355      48.133
2015   10       21    18  40    2.8226   596.0    3.355      48.121
2015   10       21    18  48    2.8224   596.0    3.355      48.109
2015   10       21    18  55    2.8223   595.9    3.355      48.097
2015   10       21    19   3    2.8221   595.9    3.355      48.085
2015   10       21    19  11    2.8219   595.8    3.355      48.074
2015   10       21    19  18    2.8218   595.8    3.355      48.062
2015   10       21    19  26    2.8216   595.7    3.355      48.051
2015   10       21    19  33    2.8215   595.6    3.356      48.040
2015   10       21    19  41    2.8213   595.6    3.356      48.029
2015   10       21    19  49    2.8212   595.5    3.356      48.019
2015   10       21    19  56    2.8210   595.5    3.357      48.009
2015   10       21    20   4    2.8209   595.4    3.357      48.000
2015   10       21    20  11    2.8208   595.4    3.358      47.991
2015   10       21    20  19    2.8206   595.3    3.358      47.983
2015   10       21    20  27    2.8205   595.2    3.359      47.975
2015   10       21    20  34    2.8204   595.2    3.360      47.969
2015   10       21    20  42    2.8202   595.1    3.360      47.963
2015   10       21    20  50    2.8201   595.1    3.361      47.957
2015   10       21    20  57    2.8200   595.0    3.362      47.952
2015   10       21    21   5    2.8198   595.0    3.363      47.948
2015   10       21    21  12    2.8197   594.9    3.363      47.944
2015   10       21    21  20    2.8196   594.9    3.364      47.939
2015   10       21    21  28    2.8195   594.8    3.365      47.935
2015   10       21    21  35    2.8193   594.8    3.366      47.931
2015   10       21    21  43    2.8192   594.7    3.367      47.927
2015   10       21    21  50    2.8191   594.6    3.367      47.923
2015   10       21    21  58    2.8189   594.6    3.368      47.919
2015   10       21    22   6    2.8188   594.5    3.369      47.915
2015   10       21    22  13    2.8187   594.5    3.369      47.910
2015   10       21    22  21    2.8185   594.4    3.370      47.906
2015   10       21    22  28    2.8184   594.4    3.370      47.902
2015   10       21    22  36    2.8182   594.3    3.371      47.897
2015   10       21    22  44    2.8180   594.3    3.371      47.893
2015   10       21    22  51    2.8179   594.2    3.372      47.888
2015   10       21    22  59    2.8177   594.2    3.372      47.884
2015   10       21    23   6    2.8175   594.1    3.372      47.879
2015   10       21    23  14    2.8174   594.1    3.373      47.874
2015   10       21    23  22    2.8172   594.0    3.373      47.869
2015   10       21    23  29    2.8170   594.0    3.373      47.864
2015   10       21    23  37    2.8168   593.9    3.373      47.858
2015   10       21    23  45    2.8166   593.9    3.373      47.853
2015   10       21    23  52    2.8163   593.8    3.373      47.846
2015   10       22     0   0    2.8161   593.8    3.373      47.840
2015   10       22     0   7    2.8159   593.7    3.373      47.832
2015   10       22     0  15    2.8156   593.7    3.373      47.825
2015   10       22     0  23    2.8154   593.7    3.373      47.817
2015   10       22     0  30    2.8151   593.6    3.372      47.808
2015   10       22     0  38    2.8149   593.6    3.372      47.799
2015   10       22     0  45    2.8146   593.5    3.371      47.789
2015   10       22     0  53    2.8143   593.5    3.371      47.778
2015   10       22     1   1    2.8140   593.4    3.371      47.766
2015   10       22     1   8    2.8137   593.4    3.370      47.754
2015   10       22     1  16    2.8135   593.3    3.369      47.741
2015   10       22     1  23    2.8132   593.3    3.369      47.728
2015   10       22     1  31    2.8129   593.2    3.368      47.714
2015   10       22     1  39    2.8126   593.2    3.368      47.699
2015   10       22     1  46    2.8123   593.1    3.367      47.684
2015   10       22     1  54    2.8120   593.0    3.367      47.669
2015   10       22     2   2    2.8117   593.0    3.366      47.653
2015   10       22     2   9    2.8114   592.9    3.365      47.636
2015   10       22     2  17    2.8111   592.9    3.365      47.620
2015   10       22     2  24    2.8108   592.8    3.364      47.603
2015   10       22     2  32    2.8104   592.8    3.364      47.586
2015   10       22     2  40    2.8101   592.7    3.364      47.569
2015   10       22     2  47    2.8098   592.6    3.363      47.552
2015   10       22     2  55    2.8095   592.6    3.363      47.535
2015   10       22     3   2    2.8092   592.5    3.363      47.519
2015   10       22     3  10    2.8089   592.4    3.363      47.503
2015   10       22     3  18    2.8087   592.4    3.363      47.487
2015   10       22     3  25    2.8084   592.3    3.363      47.473
2015   10       22     3  33    2.8081   592.3    3.363      47.459
2015   10       22     3  40    2.8079   592.2    3.363      47.445
2015   10       22     3  48    2.8076   592.1    3.363      47.433
2015   10       22     3  56    2.8073   592.1    3.364      47.422
2015   10       22     4   3    2.8071   592.0    3.364      47.411
2015   10       22     4  11    2.8068   592.0    3.365      47.401
2015   10       22     4  18    2.8066   591.9    3.365      47.391
2015   10       22     4  26    2.8063   591.8    3.366      47.382
2015   10       22     4  34    2.8061   591.8    3.366      47.373
2015   10       22     4  41    2.8058   591.7    3.367      47.364
2015   10       22     4  49    2.8056   591.7    3.367      47.356
2015   10       22     4  57    2.8053   591.6    3.367      47.347
2015   10       22     5   4    2.8050   591.5    3.368      47.339
2015   10       22     5  12    2.8048   591.5    3.368      47.331
2015   10       22     5  19    2.8045   591.4    3.369      47.323
2015   10       22     5  27    2.8042   591.4    3.369      47.315
2015   10       22     5  35    2.8039   591.3    3.370      47.308
2015   10       22     5  42    2.8035   591.3    3.370      47.300
2015   10       22     5  50    2.8032   591.2    3.370      47.292
2015   10       22     5  57    2.8029   591.2    3.370      47.285
2015   10       22     6   5    2.8025   591.1    3.371      47.277
2015   10       22     6  13    2.8022   591.0    3.371      47.269
2015   10       22     6  20    2.8018   591.0    3.371      47.261
2015   10       22     6  28    2.8015   590.9    3.371      47.254
2015   10       22     6  35    2.8011   590.9    3.371      47.245
2015   10       22     6  43    2.8007   590.8    3.371      47.237
2015   10       22     6  51    2.8004   590.7    3.371      47.228
2015   10       22     6  58    2.8000   590.7    3.371      47.219
2015   10       22     7   6    2.7996   590.6    3.371      47.210
2015   10       22     7  14    2.7992   590.6    3.370      47.200
2015   10       22     7  21    2.7989   590.5    3.370      47.190
2015   10       22     7  29    2.7985   590.4    3.370      47.180
2015   10       22     7  36    2.7981   590.4    3.370      47.169
2015   10       22     7  44    2.7978   590.3    3.370      47.159
2015   10       22     7  52    2.7974   590.3    3.370      47.148
2015   10       22     7  59    2.7970   590.2    3.370      47.136
2015   10       22     8   7    2.7966   590.1    3.369      47.124
2015   10       22     8  14    2.7962   590.1    3.369      47.112
2015   10       22     8  22    2.7959   590.0    3.369      47.100
2015   10       22     8  30    2.7955   589.9    3.369      47.088
2015   10       22     8  37    2.7951   589.9    3.369      47.075
2015   10       22     8  45    2.7947   589.8    3.369      47.062
2015   10       22     8  52    2.7943   589.7    3.368      47.048
2015   10       22     9   0    2.7939   589.7    3.368      47.035
2015   10       22     9   8    2.7936   589.6    3.368      47.021
2015   10       22     9  15    2.7932   589.5    3.368      47.007
2015   10       22     9  23    2.7928   589.5    3.368      46.993
2015   10       22     9  31    2.7924   589.4    3.368      46.979
2015   10       22     9  38    2.7920   589.3    3.368      46.965
2015   10       22     9  46    2.7916   589.3    3.368      46.950
2015   10       22     9  53    2.7912   589.2    3.368      46.936
2015   10       22    10   1    2.7908   589.1    3.368      46.922
2015   10       22    10   9    2.7904   589.1    3.368      46.908
2015   10       22    10  16    2.7901   589.0    3.368      46.894
2015   10       22    10  24    2.7897   588.9    3.369      46.880
2015   10       22    10  31    2.7893   588.9    3.369      46.866
2015   10       22    10  39    2.7889   588.8    3.369      46.853
2015   10       22    10  47    2.7885   588.7    3.369      46.839
2015   10       22    10  54    2.7881   588.6    3.369      46.825
2015   10       22    11   2    2.7877   588.6    3.369      46.812
2015   10       22    11   9    2.7872   588.5    3.369      46.798
2015   10       22    11  17    2.7868   588.5    3.369      46.785
2015   10       22    11  25    2.7864   588.4    3.369      46.771
2015   10       22    11  32    2.7859   588.3    3.369      46.757
2015   10       22    11  40    2.7854   588.3    3.369      46.744
2015   10       22    11  48    2.7850   588.2    3.369      46.730
2015   10       22    11  55    2.7845   588.1    3.369      46.716
2015   10       22    12   3    2.7840   588.0    3.369      46.702
2015   10       22    12  10    2.7835   588.0    3.369      46.688
2015   10       22    12  18    2.7830   587.9    3.369      46.673
2015   10       22    12  26    2.7825   587.8    3.368      46.658
2015   10       22    12  33    2.7820   587.8    3.368      46.644
2015   10       22    12  41    2.7815   587.7    3.368      46.629
2015   10       22    12  48    2.7810   587.6    3.367      46.613
2015   10       22    12  56    2.7805   587.6    3.367      46.598
2015   10       22    13   4    2.7799   587.5    3.367      46.583
2015   10       22    13  11    2.7794   587.4    3.366      46.567
2015   10       22    13  19    2.7789   587.4    3.366      46.551
2015   10       22    13  26    2.7783   587.3    3.366      46.535
2015   10       22    13  34    2.7778   587.2    3.365      46.520
2015   10       22    13  42    2.7773   587.1    3.365      46.504
2015   10       22    13  49    2.7767   587.1    3.365      46.488
2015   10       22    13  57    2.7762   587.0    3.365      46.473
2015   10       22    14   5    2.7757   586.9    3.364      46.457
2015   10       22    14  12    2.7752   586.8    3.364      46.443
2015   10       22    14  20    2.7747   586.8    3.364      46.428
2015   10       22    14  27    2.7742   586.7    3.364      46.414
2015   10       22    14  35    2.7737   586.6    3.364      46.400
2015   10       22    14  43    2.7733   586.5    3.365      46.386
2015   10       22    14  50    2.7728   586.5    3.365      46.373
2015   10       22    14  58    2.7724   586.4    3.365      46.361
2015   10       22    15   5    2.7719   586.3    3.365      46.349
2015   10       22    15  13    2.7715   586.2    3.366      46.337
2015   10       22    15  21    2.7711   586.2    3.366      46.325
2015   10       22    15  28    2.7707   586.1    3.367      46.314
2015   10       22    15  36    2.7703   586.0    3.368      46.303
2015   10       22    15  43    2.7699   585.9    3.368      46.292
2015   10       22    15  51    2.7695   585.9    3.369      46.281
2015   10       22    15  59    2.7691   585.8    3.369      46.270
2015   10       22    16   6    2.7687   585.7    3.370      46.259
2015   10       22    16  14    2.7683   585.6    3.371      46.247
2015   10       22    16  22    2.7679   585.6    3.371      46.236
2015   10       22    16  29    2.7674   585.5    3.372      46.224
2015   10       22    16  37    2.7670   585.4    3.372      46.212
2015   10       22    16  44    2.7665   585.3    3.373      46.201
2015   10       22    16  52    2.7660   585.3    3.374      46.189
2015   10       22    17   0    2.7656   585.2    3.374      46.177
2015   10       22    17   7    2.7651   585.1    3.374      46.165
2015   10       22    17  15    2.7647   585.0    3.375      46.153
2015   10       22    17  22    2.7642   585.0    3.375      46.140
2015   10       22    17  30    2.7637   584.9    3.375      46.128
2015   10       22    17  38    2.7632   584.8    3.376      46.115
2015   10       22    17  45    2.7627   584.7    3.376      46.102
2015   10       22    17  53    2.7622   584.6    3.376      46.088
2015   10       22    18   0    2.7617   584.6    3.376      46.075
2015   10       22    18   8    2.7612   584.5    3.376      46.061
2015   10       22    18  16    2.7607   584.4    3.376      46.047
2015   10       22    18  23    2.7602   584.3    3.376      46.032
2015   10       22    18  31    2.7596   584.3    3.376      46.018
2015   10       22    18  38    2.7591   584.2    3.376      46.003
2015   10       22    18  46    2.7585   584.1    3.376      45.987
2015   10       22    18  54    2.7580   584.0    3.376      45.972
2015   10       22    19   1    2.7574   584.0    3.376      45.956
2015   10       22    19   9    2.7568   583.9    3.375      45.940
2015   10       22    19  17    2.7562   583.8    3.375      45.923
2015   10       22    19  24    2.7557   583.7    3.374      45.906
2015   10       22    19  32    2.7551   583.6    3.374      45.888
2015   10       22    19  39    2.7545   583.6    3.374      45.870
2015   10       22    19  47    2.7539   583.5    3.373      45.851
2015   10       22    19  55    2.7533   583.4    3.372      45.832
2015   10       22    20   2    2.7527   583.3    3.372      45.812
2015   10       22    20  10    2.7521   583.3    3.371      45.792
2015   10       22    20  17    2.7515   583.2    3.371      45.772
2015   10       22    20  25    2.7509   583.1    3.370      45.751
2015   10       22    20  33    2.7503   583.0    3.369      45.730
2015   10       22    20  40    2.7497   582.9    3.369      45.708
2015   10       22    20  48    2.7491   582.8    3.368      45.686
2015   10       22    20  55    2.7485   582.8    3.367      45.664
2015   10       22    21   3    2.7479   582.7    3.367      45.642
2015   10       22    21  11    2.7473   582.6    3.366      45.621
2015   10       22    21  18    2.7467   582.5    3.366      45.599
2015   10       22    21  26    2.7461   582.4    3.365      45.577
2015   10       22    21  33    2.7455   582.3    3.365      45.556
2015   10       22    21  41    2.7449   582.2    3.365      45.536
2015   10       22    21  49    2.7444   582.1    3.364      45.515
2015   10       22    21  56    2.7438   582.1    3.364      45.496
2015   10       22    22   4    2.7433   582.0    3.364      45.477
2015   10       22    22  12    2.7428   581.9    3.364      45.458
2015   10       22    22  19    2.7422   581.8    3.364      45.440
2015   10       22    22  27    2.7417   581.7    3.365      45.423
2015   10       22    22  34    2.7412   581.6    3.365      45.406
2015   10       22    22  42    2.7407   581.5    3.365      45.390
2015   10       22    22  50    2.7402   581.5    3.366      45.374
2015   10       22    22  57    2.7397   581.4    3.366      45.359
2015   10       22    23   5    2.7391   581.3    3.367      45.344
2015   10       22    23  12    2.7386   581.2    3.368      45.330
2015   10       22    23  20    2.7381   581.1    3.368      45.316
2015   10       22    23  28    2.7375   581.1    3.369      45.302
2015   10       22    23  35    2.7370   581.0    3.370      45.288
2015   10       22    23  43    2.7364   580.9    3.370      45.275
2015   10       22    23  51    2.7358   580.8    3.371      45.261
2015   10       22    23  58    2.7352   580.7    3.372      45.248
2015   10       23     0   6    2.7348   580.6    3.373      45.236
2015   10       23     0  13    2.7344   580.5    3.374      45.225
2015   10       23     0  21    2.7341   580.5    3.375      45.215
2015   10       23     0  29    2.7337   580.4    3.376      45.204
2015   10       23     0  36    2.7333   580.3    3.377      45.193
2015   10       23     0  44    2.7329   580.2    3.378      45.181
2015   10       23     0  51    2.7325   580.1    3.378      45.170
2015   10       23     0  59    2.7321   580.0    3.379      45.159
2015   10       23     1   7    2.7317   579.9    3.380      45.148
2015   10       23     1  14    2.7313   579.8    3.381      45.136
2015   10       23     1  22    2.7309   579.7    3.382      45.125
2015   10       23     1  29    2.7305   579.6    3.383      45.114
2015   10       23     1  37    2.7302   579.5    3.384      45.102
2015   10       23     1  45    2.7298   579.4    3.384      45.091
2015   10       23     1  52    2.7294   579.3    3.385      45.079
2015   10       23     2   0    2.7291   579.2    3.386      45.068
2015   10       23     2   7    2.7288   579.1    3.386      45.056
2015   10       23     2  15    2.7284   579.1    3.387      45.044
2015   10       23     2  23    2.7281   579.0    3.388      45.032
2015   10       23     2  30    2.7278   578.9    3.388      45.020
2015   10       23     2  38    2.7275   578.8    3.389      45.008
2015   10       23     2  46    2.7272   578.7    3.390      44.995
2015   10       23     2  53    2.7269   578.6    3.390      44.982
2015   10       23     3   1    2.7266   578.5    3.391      44.969
2015   10       23     3   8    2.7262   578.4    3.391      44.955
2015   10       23     3  16    2.7259   578.3    3.391      44.941
2015   10       23     3  24    2.7256   578.2    3.392      44.927
2015   10       23     3  31    2.7252   578.1    3.392      44.913
2015   10       23     3  39    2.7249   578.0    3.392      44.898
2015   10       23     3  46    2.7245   577.9    3.392      44.882
2015   10       23     3  54    2.7241   577.9    3.393      44.866
2015   10       23     4   2    2.7237   577.8    3.393      44.850
2015   10       23     4   9    2.7234   577.7    3.393      44.833
2015   10       23     4  17    2.7230   577.6    3.393      44.815
2015   10       23     4  24    2.7226   577.5    3.393      44.797
2015   10       23     4  32    2.7222   577.4    3.393      44.778
2015   10       23     4  40    2.7218   577.3    3.393      44.759
2015   10       23     4  47    2.7214   577.2    3.393      44.740
2015   10       23     4  55    2.7209   577.1    3.393      44.720
2015   10       23     5   3    2.7205   577.0    3.392      44.700
2015   10       23     5  10    2.7201   576.9    3.392      44.680
2015   10       23     5  18    2.7196   576.8    3.392      44.659
2015   10       23     5  25    2.7192   576.7    3.392      44.638
2015   10       23     5  33    2.7187   576.6    3.392      44.617
2015   10       23     5  41    2.7182   576.5    3.392      44.596
2015   10       23     5  48    2.7178   576.4    3.392      44.575
2015   10       23     5  56    2.7173   576.3    3.392      44.554
2015   10       23     6   3    2.7168   576.2    3.392      44.533
2015   10       23     6  11    2.7163   576.1    3.392      44.511
2015   10       23     6  19    2.7158   576.0    3.392      44.490
2015   10       23     6  26    2.7153   575.9    3.392      44.469
2015   10       23     6  34    2.7148   575.8    3.393      44.447
2015   10       23     6  41    2.7143   575.7    3.393      44.426
2015   10       23     6  49    2.7137   575.6    3.393      44.405
2015   10       23     6  57    2.7132   575.5    3.393      44.384
2015   10       23     7   4    2.7127   575.4    3.394      44.363
2015   10       23     7  12    2.7121   575.3    3.394      44.342
2015   10       23     7  20    2.7116   575.2    3.394      44.322
2015   10       23     7  27    2.7110   575.1    3.395      44.302
2015   10       23     7  35    2.7105   575.0    3.395      44.282
2015   10       23     7  42    2.7100   574.9    3.396      44.263
2015   10       23     7  50    2.7095   574.8    3.397      44.245
2015   10       23     7  58    2.7090   574.6    3.398      44.227
2015   10       23     8   5    2.7085   574.5    3.398      44.210
2015   10       23     8  13    2.7080   574.4    3.399      44.193
2015   10       23     8  20    2.7076   574.3    3.400      44.178
2015   10       23     8  28    2.7071   574.2    3.401      44.163
2015   10       23     8  36    2.7067   574.1    3.403      44.148
2015   10       23     8  43    2.7063   574.0    3.404      44.135
2015   10       23     8  51    2.7059   573.9    3.405      44.122
2015   10       23     8  58    2.7055   573.7    3.407      44.110
2015   10       23     9   6    2.7052   573.6    3.408      44.098
2015   10       23     9  14    2.7048   573.5    3.409      44.087
2015   10       23     9  21    2.7045   573.4    3.411      44.076
2015   10       23     9  29    2.7042   573.3    3.412      44.066
2015   10       23     9  36    2.7038   573.2    3.414      44.056
2015   10       23     9  44    2.7035   573.1    3.415      44.046
2015   10       23     9  52    2.7032   573.0    3.417      44.037
2015   10       23     9  59    2.7029   572.9    3.418      44.027
2015   10       23    10   7    2.7025   572.8    3.420      44.018
2015   10       23    10  15    2.7022   572.7    3.421      44.009
2015   10       23    10  22    2.7018   572.6    3.423      43.999
2015   10       23    10  30    2.7014   572.5    3.424      43.990
2015   10       23    10  37    2.7010   572.4    3.425      43.980
2015   10       23    10  45    2.7006   572.3    3.426      43.971
2015   10       23    10  53    2.7002   572.2    3.428      43.961
2015   10       23    11   0    2.6998   572.0    3.429      43.950
2015   10       23    11   8    2.6994   571.9    3.430      43.939
2015   10       23    11  15    2.6989   571.8    3.430      43.927
2015   10       23    11  23    2.6985   571.7    3.431      43.915
2015   10       23    11  31    2.6980   571.6    3.432      43.902
2015   10       23    11  38    2.6975   571.5    3.433      43.888
2015   10       23    11  46    2.6970   571.4    3.433      43.873
2015   10       23    11  53    2.6966   571.3    3.434      43.858
2015   10       23    12   1    2.6961   571.2    3.434      43.842
2015   10       23    12   9    2.6956   571.1    3.435      43.825
2015   10       23    12  16    2.6951   571.0    3.435      43.807
2015   10       23    12  24    2.6945   570.9    3.435      43.788
2015   10       23    12  32    2.6940   570.8    3.435      43.769
2015   10       23    12  39    2.6935   570.7    3.436      43.749
2015   10       23    12  47    2.6929   570.6    3.436      43.728
2015   10       23    12  54    2.6924   570.5    3.436      43.706
2015   10       23    13   2    2.6918   570.4    3.436      43.684
2015   10       23    13  10    2.6913   570.2    3.436      43.661
2015   10       23    13  17    2.6907   570.1    3.436      43.637
2015   10       23    13  25    2.6902   570.0    3.435      43.613
2015   10       23    13  32    2.6896   569.9    3.435      43.589
2015   10       23    13  40    2.6890   569.8    3.435      43.563
2015   10       23    13  48    2.6885   569.7    3.435      43.538
2015   10       23    13  55    2.6879   569.6    3.435      43.513
2015   10       23    14   3    2.6874   569.4    3.435      43.487
2015   10       23    14  10    2.6868   569.3    3.435      43.461
2015   10       23    14  18    2.6862   569.2    3.435      43.435
2015   10       23    14  26    2.6857   569.1    3.435      43.410
2015   10       23    14  33    2.6851   569.0    3.435      43.384
2015   10       23    14  41    2.6846   568.8    3.435      43.359
2015   10       23    14  49    2.6841   568.7    3.435      43.334
2015   10       23    14  56    2.6835   568.6    3.435      43.309
2015   10       23    15   4    2.6830   568.5    3.435      43.285
2015   10       23    15  11    2.6825   568.4    3.436      43.261
2015   10       23    15  19    2.6820   568.2    3.436      43.238
2015   10       23    15  27    2.6814   568.1    3.437      43.214
2015   10       23    15  34    2.6809   568.0    3.437      43.192
2015   10       23    15  42    2.6804   567.9    3.438      43.169
2015   10       23    15  49    2.6799   567.7    3.439      43.148
2015   10       23    15  57    2.6795   567.6    3.440      43.126
2015   10       23    16   5    2.6790   567.5    3.441      43.105
2015   10       23    16  12    2.6785   567.3    3.442      43.085
2015   10       23    16  20    2.6780   567.2    3.443      43.065
2015   10       23    16  27    2.6776   567.1    3.444      43.045
2015   10       23    16  35    2.6771   567.0    3.445      43.026
2015   10       23    16  43    2.6767   566.8    3.446      43.008
2015   10       23    16  50    2.6763   566.7    3.447      42.990
2015   10       23    16  58    2.6758   566.6    3.449      42.972
2015   10       23    17   5    2.6754   566.4    3.450      42.955
2015   10       23    17  13    2.6750   566.3    3.452      42.939
2015   10       23    17  21    2.6746   566.2    3.453      42.923
2015   10       23    17  28    2.6742   566.1    3.455      42.907
2015   10       23    17  36    2.6738   565.9    3.456      42.892
2015   10       23    17  44    2.6734   565.8    3.458      42.878
2015   10       23    17  51    2.6730   565.7    3.460      42.864
2015   10       23    17  59    2.6726   565.5    3.461      42.851
2015   10       23    18   6    2.6722   565.4    3.463      42.838
2015   10       23    18  14    2.6718   565.3    3.465      42.825
2015   10       23    18  22    2.6714   565.1    3.466      42.813
2015   10       23    18  29    2.6710   565.0    3.468      42.800
2015   10       23    18  37    2.6706   564.9    3.469      42.788
2015   10       23    18  44    2.6701   564.8    3.471      42.775
2015   10       23    18  52    2.6697   564.6    3.473      42.761
2015   10       23    19   0    2.6693   564.5    3.474      42.748
2015   10       23    19   7    2.6688   564.4    3.475      42.734
2015   10       23    19  15    2.6683   564.3    3.477      42.719
2015   10       23    19  22    2.6679   564.1    3.478      42.704
2015   10       23    19  30    2.6674   564.0    3.479      42.688
2015   10       23    19  38    2.6669   563.9    3.480      42.672
2015   10       23    19  45    2.6664   563.7    3.482      42.656
2015   10       23    19  53    2.6659   563.6    3.483      42.638
2015   10       23    20   1    2.6654   563.5    3.484      42.621
2015   10       23    20   8    2.6649   563.3    3.484      42.602
2015   10       23    20  16    2.6644   563.2    3.485      42.584
2015   10       23    20  23    2.6638   563.1    3.486      42.565
2015   10       23    20  31    2.6633   562.9    3.487      42.545
2015   10       23    20  39    2.6628   562.8    3.488      42.525
2015   10       23    20  46    2.6623   562.7    3.488      42.504
2015   10       23    20  54    2.6617   562.6    3.489      42.483
2015   10       23    21   1    2.6612   562.4    3.490      42.462
2015   10       23    21   9    2.6607   562.3    3.490      42.440
2015   10       23    21  17    2.6602   562.2    3.491      42.418
2015   10       23    21  24    2.6596   562.0    3.492      42.395
2015   10       23    21  32    2.6591   561.9    3.492      42.373
2015   10       23    21  39    2.6586   561.8    3.493      42.350
2015   10       23    21  47    2.6580   561.6    3.493      42.327
2015   10       23    21  55    2.6575   561.5    3.494      42.304
2015   10       23    22   2    2.6570   561.4    3.494      42.280
2015   10       23    22  10    2.6565   561.2    3.495      42.257
2015   10       23    22  18    2.6559   561.1    3.496      42.233
2015   10       23    22  25    2.6554   561.0    3.496      42.209
2015   10       23    22  33    2.6549   560.8    3.497      42.185
2015   10       23    22  40    2.6544   560.7    3.497      42.161
2015   10       23    22  48    2.6539   560.6    3.498      42.137
2015   10       23    22  56    2.6534   560.4    3.499      42.113
2015   10       23    23   3    2.6529   560.3    3.499      42.089
2015   10       23    23  11    2.6524   560.1    3.500      42.065
2015   10       23    23  18    2.6519   560.0    3.501      42.040
2015   10       23    23  26    2.6514   559.9    3.502      42.016
2015   10       23    23  34    2.6510   559.7    3.502      41.991
2015   10       23    23  41    2.6505   559.6    3.503      41.967
2015   10       23    23  49    2.6500   559.4    3.504      41.943
2015   10       23    23  56    2.6496   559.3    3.505      41.918
2015   10       24     0   4    2.6490   559.2    3.505      41.892
2015   10       24     0  12    2.6483   559.0    3.506      41.866
2015   10       24     0  19    2.6476   558.9    3.506      41.840
2015   10       24     0  27    2.6469   558.7    3.507      41.814
2015   10       24     0  34    2.6462   558.6    3.507      41.788
2015   10       24     0  42    2.6456   558.5    3.508      41.763
2015   10       24     0  50    2.6449   558.3    3.509      41.737
2015   10       24     0  57    2.6443   558.2    3.510      41.713
2015   10       24     1   5    2.6436   558.0    3.510      41.688
2015   10       24     1  13    2.6430   557.9    3.511      41.664
2015   10       24     1  20    2.6423   557.8    3.512      41.639
2015   10       24     1  28    2.6417   557.6    3.513      41.616
2015   10       24     1  35    2.6411   557.5    3.514      41.592
2015   10       24     1  43    2.6404   557.3    3.515      41.569
2015   10       24     1  51    2.6398   557.2    3.516      41.546
2015   10       24     1  58    2.6392   557.1    3.517      41.523
2015   10       24     2   6    2.6385   556.9    3.518      41.500
2015   10       24     2  13    2.6379   556.8    3.519      41.478
2015   10       24     2  21    2.6372   556.6    3.520      41.456
2015   10       24     2  29    2.6365   556.5    3.521      41.435
2015   10       24     2  36    2.6359   556.3    3.522      41.413
2015   10       24     2  44    2.6352   556.2    3.524      41.392
2015   10       24     2  51    2.6345   556.0    3.525      41.372
2015   10       24     2  59    2.6339   555.9    3.526      41.352
2015   10       24     3   7    2.6332   555.8    3.527      41.331
2015   10       24     3  14    2.6325   555.6    3.528      41.312
2015   10       24     3  22    2.6319   555.5    3.530      41.292
2015   10       24     3  30    2.6312   555.3    3.531      41.272
2015   10       24     3  37    2.6305   555.2    3.532      41.252
2015   10       24     3  45    2.6298   555.0    3.533      41.233
2015   10       24     3  52    2.6292   554.9    3.534      41.213
2015   10       24     4   0    2.6285   554.7    3.536      41.193
2015   10       24     4   8    2.6278   554.6    3.537      41.172
2015   10       24     4  15    2.6271   554.4    3.538      41.152
2015   10       24     4  23    2.6264   554.3    3.539      41.132
2015   10       24     4  30    2.6257   554.2    3.540      41.111
2015   10       24     4  38    2.6250   554.0    3.541      41.089
2015   10       24     4  46    2.6243   553.9    3.542      41.068
2015   10       24     4  53    2.6236   553.7    3.543      41.046
2015   10       24     5   1    2.6229   553.6    3.543      41.024
2015   10       24     5   8    2.6222   553.4    3.544      41.002
2015   10       24     5  16    2.6215   553.3    3.545      40.980
2015   10       24     5  24    2.6208   553.1    3.546      40.957
2015   10       24     5  31    2.6202   553.0    3.546      40.934
2015   10       24     5  39    2.6195   552.8    3.547      40.911
2015   10       24     5  47    2.6188   552.7    3.548      40.888
2015   10       24     5  54    2.6182   552.5    3.549      40.865
2015   10       24     6   2    2.6175   552.4    3.549      40.842
2015   10       24     6   9    2.6169   552.2    3.550      40.819
2015   10       24     6  17    2.6162   552.1    3.551      40.795
2015   10       24     6  25    2.6156   552.0    3.552      40.772
2015   10       24     6  32    2.6150   551.8    3.552      40.748
2015   10       24     6  40    2.6143   551.7    3.553      40.724
2015   10       24     6  47    2.6137   551.5    3.554      40.700
2015   10       24     6  55    2.6131   551.4    3.554      40.675
2015   10       24     7   3    2.6124   551.2    3.555      40.651
2015   10       24     7  10    2.6117   551.1    3.556      40.625
2015   10       24     7  18    2.6111   550.9    3.556      40.599
2015   10       24     7  25    2.6104   550.8    3.557      40.573
2015   10       24     7  33    2.6098   550.6    3.557      40.546
2015   10       24     7  41    2.6091   550.5    3.558      40.519
2015   10       24     7  48    2.6084   550.4    3.558      40.491
2015   10       24     7  56    2.6077   550.2    3.559      40.463
2015   10       24     8   3    2.6070   550.1    3.559      40.434
2015   10       24     8  11    2.6063   549.9    3.560      40.405
2015   10       24     8  19    2.6056   549.8    3.560      40.375
2015   10       24     8  26    2.6049   549.6    3.561      40.346
2015   10       24     8  34    2.6042   549.5    3.561      40.316
2015   10       24     8  42    2.6036   549.3    3.561      40.286
2015   10       24     8  49    2.6029   549.1    3.562      40.256
2015   10       24     8  57    2.6022   549.0    3.562      40.227
2015   10       24     9   4    2.6015   548.8    3.563      40.197
2015   10       24     9  12    2.6008   548.7    3.564      40.168
2015   10       24     9  20    2.6002   548.5    3.564      40.140
2015   10       24     9  27    2.5995   548.4    3.565      40.112
2015   10       24     9  35    2.5988   548.2    3.566      40.084
2015   10       24     9  42    2.5982   548.1    3.567      40.057
2015   10       24     9  50    2.5975   547.9    3.567      40.031
2015   10       24     9  58    2.5969   547.8    3.568      40.005
2015   10       24    10   5    2.5962   547.6    3.569      39.980
2015   10       24    10  13    2.5956   547.5    3.570      39.955
2015   10       24    10  20    2.5950   547.3    3.572      39.931
2015   10       24    10  28    2.5943   547.2    3.573      39.907
2015   10       24    10  36    2.5937   547.0    3.574      39.885
2015   10       24    10  43    2.5931   546.9    3.575      39.862
2015   10       24    10  51    2.5924   546.7    3.576      39.840
2015   10       24    10  59    2.5918   546.5    3.577      39.818
2015   10       24    11   6    2.5911   546.4    3.579      39.796
2015   10       24    11  14    2.5905   546.2    3.580      39.775
2015   10       24    11  21    2.5899   546.1    3.581      39.754
2015   10       24    11  29    2.5892   545.9    3.582      39.732
2015   10       24    11  37    2.5886   545.8    3.583      39.711
2015   10       24    11  44    2.5879   545.6    3.585      39.690
2015   10       24    11  52    2.5873   545.5    3.586      39.669
2015   10       24    11  59    2.5867   545.3    3.587      39.648
2015   10       24    12   7    2.5860   545.2    3.588      39.627
2015   10       24    12  15    2.5854   545.0    3.589      39.605
2015   10       24    12  22    2.5848   544.8    3.590      39.584
2015   10       24    12  30    2.5842   544.7    3.591      39.562
2015   10       24    12  37    2.5835   544.5    3.592      39.540
2015   10       24    12  45    2.5829   544.4    3.593      39.519
2015   10       24    12  53    2.5824   544.2    3.594      39.496
2015   10       24    13   0    2.5818   544.1    3.595      39.474
2015   10       24    13   8    2.5812   543.9    3.596      39.452
2015   10       24    13  16    2.5806   543.7    3.597      39.429
2015   10       24    13  23    2.5800   543.6    3.598      39.406
2015   10       24    13  31    2.5795   543.4    3.599      39.383
2015   10       24    13  38    2.5789   543.3    3.599      39.359
2015   10       24    13  46    2.5783   543.1    3.600      39.336
2015   10       24    13  54    2.5777   543.0    3.601      39.312
2015   10       24    14   1    2.5771   542.8    3.602      39.288
2015   10       24    14   9    2.5766   542.6    3.603      39.263
2015   10       24    14  16    2.5760   542.5    3.604      39.238
2015   10       24    14  24    2.5754   542.3    3.605      39.213
2015   10       24    14  32    2.5748   542.2    3.606      39.188
2015   10       24    14  39    2.5742   542.0    3.607      39.163
2015   10       24    14  47    2.5736   541.8    3.608      39.137
2015   10       24    14  54    2.5730   541.7    3.609      39.111
2015   10       24    15   2    2.5724   541.5    3.610      39.085
2015   10       24    15  10    2.5718   541.4    3.611      39.059
2015   10       24    15  17    2.5712   541.2    3.612      39.033
2015   10       24    15  25    2.5706   541.0    3.613      39.007
2015   10       24    15  32    2.5700   540.9    3.614      38.981
2015   10       24    15  40    2.5694   540.7    3.615      38.955
2015   10       24    15  48    2.5687   540.6    3.616      38.928
2015   10       24    15  55    2.5681   540.4    3.617      38.902
2015   10       24    16   3    2.5675   540.2    3.618      38.877
2015   10       24    16  11    2.5668   540.1    3.619      38.851
2015   10       24    16  18    2.5662   539.9    3.621      38.825
2015   10       24    16  26    2.5656   539.7    3.622      38.800
2015   10       24    16  33    2.5650   539.6    3.623      38.774
2015   10       24    16  41    2.5643   539.4    3.624      38.749
2015   10       24    16  49    2.5637   539.3    3.625      38.724
2015   10       24    16  56    2.5631   539.1    3.626      38.699
2015   10       24    17   4    2.5625   538.9    3.627      38.675
2015   10       24    17  11    2.5618   538.8    3.629      38.650
2015   10       24    17  19    2.5612   538.6    3.630      38.625
2015   10       24    17  27    2.5606   538.5    3.631      38.601
2015   10       24    17  34    2.5600   538.3    3.632      38.577
2015   10       24    17  42    2.5593   538.1    3.633      38.552
2015   10       24    17  49    2.5587   538.0    3.634      38.528
2015   10       24    17  57    2.5581   537.8    3.635      38.503
2015   10       24    18   5    2.5575   537.6    3.636      38.479
2015   10       24    18  12    2.5569   537.5    3.637      38.454
2015   10       24    18  20    2.5563   537.3    3.638      38.429
2015   10       24    18  28    2.5556   537.2    3.638      38.405
2015   10       24    18  35    2.5550   537.0    3.639      38.380
2015   10       24    18  43    2.5544   536.8    3.640      38.355
2015   10       24    18  50    2.5538   536.7    3.641      38.329
2015   10       24    18  58    2.5532   536.5    3.642      38.304
2015   10       24    19   6    2.5526   536.3    3.642      38.279
2015   10       24    19  13    2.5520   536.2    3.643      38.253
2015   10       24    19  21    2.5514   536.0    3.644      38.227
2015   10       24    19  28    2.5508   535.9    3.644      38.201
2015   10       24    19  36    2.5502   535.7    3.645      38.175
2015   10       24    19  44    2.5496   535.5    3.646      38.149
2015   10       24    19  51    2.5491   535.4    3.646      38.122
2015   10       24    19  59    2.5485   535.2    3.647      38.096
2015   10       24    20   6    2.5479   535.1    3.647      38.069
2015   10       24    20  14    2.5473   534.9    3.648      38.042
2015   10       24    20  22    2.5467   534.7    3.648      38.015
2015   10       24    20  29    2.5462   534.6    3.649      37.988
2015   10       24    20  37    2.5456   534.4    3.649      37.961
2015   10       24    20  44    2.5450   534.2    3.650      37.934
2015   10       24    20  52    2.5444   534.1    3.650      37.907
2015   10       24    21   0    2.5439   533.9    3.651      37.880
2015   10       24    21   7    2.5433   533.8    3.652      37.852
2015   10       24    21  15    2.5427   533.6    3.652      37.826
2015   10       24    21  23    2.5421   533.4    3.653      37.799
2015   10       24    21  30    2.5416   533.3    3.654      37.772
2015   10       24    21  38    2.5410   533.1    3.655      37.746
2015   10       24    21  45    2.5405   532.9    3.655      37.720
2015   10       24    21  53    2.5400   532.8    3.656      37.694
2015   10       24    22   1    2.5394   532.6    3.657      37.669
2015   10       24    22   8    2.5389   532.4    3.659      37.644
2015   10       24    22  16    2.5384   532.3    3.660      37.619
2015   10       24    22  23    2.5378   532.1    3.661      37.595
2015   10       24    22  31    2.5373   531.9    3.662      37.571
2015   10       24    22  39    2.5368   531.7    3.664      37.548
2015   10       24    22  46    2.5363   531.6    3.665      37.525
2015   10       24    22  54    2.5357   531.4    3.667      37.502
2015   10       24    23   1    2.5352   531.2    3.668      37.480
2015   10       24    23   9    2.5347   531.1    3.670      37.458
2015   10       24    23  17    2.5342   530.9    3.672      37.436
2015   10       24    23  24    2.5337   530.7    3.674      37.414
2015   10       24    23  32    2.5331   530.6    3.675      37.392
2015   10       24    23  40    2.5326   530.4    3.677      37.370
2015   10       24    23  47    2.5321   530.2    3.679      37.349
2015   10       24    23  55    2.5316   530.1    3.680      37.327
2015   10       25     0   2    2.5310   529.9    3.682      37.305
