year    month   day   hour  minute  B_enl V_enl   n_enl       T_enl
[year] [month] [day] [hour][minute] [nT]  [km/s]  [cm-3]      [kK]
2013    7        4     0   5    3.81   418.1    6.0      31.591
2013    7        4     0  12    3.81   418.0    6.0      31.601
2013    7        4     0  18    3.81   418.0    6.0      31.611
2013    7        4     0  25    3.82   417.9    6.0      31.621
2013    7        4     0  31    3.82   417.9    6.0      31.631
2013    7        4     0  37    3.82   417.8    6.0      31.641
2013    7        4     0  44    3.82   417.8    6.0      31.651
2013    7        4     0  50    3.82   417.8    6.0      31.661
2013    7        4     0  57    3.83   417.7    6.0      31.672
2013    7        4     1   3    3.83   417.7    6.0      31.682
2013    7        4     1  10    3.83   417.6    6.0      31.693
2013    7        4     1  16    3.84   417.6    6.0      31.703
2013    7        4     1  22    3.84   417.5    6.0      31.714
2013    7        4     1  29    3.84   417.5    6.0      31.725
2013    7        4     1  35    3.84   417.5    6.0      31.736
2013    7        4     1  42    3.85   417.4    6.0      31.747
2013    7        4     1  48    3.85   417.4    6.0      31.758
2013    7        4     1  55    3.85   417.3    6.0      31.769
2013    7        4     2   1    3.85   417.3    6.1      31.781
2013    7        4     2   8    3.86   417.3    6.1      31.792
2013    7        4     2  14    3.86   417.2    6.1      31.803
2013    7        4     2  20    3.86   417.2    6.1      31.815
2013    7        4     2  27    3.86   417.1    6.1      31.827
2013    7        4     2  33    3.87   417.1    6.1      31.838
2013    7        4     2  40    3.87   417.1    6.1      31.850
2013    7        4     2  46    3.87   417.0    6.1      31.862
2013    7        4     2  53    3.88   417.0    6.1      31.874
2013    7        4     2  59    3.88   417.0    6.1      31.887
2013    7        4     3   6    3.88   416.9    6.1      31.899
2013    7        4     3  12    3.88   416.9    6.1      31.912
2013    7        4     3  19    3.89   416.9    6.1      31.924
2013    7        4     3  25    3.89   416.8    6.1      31.937
2013    7        4     3  31    3.89   416.8    6.1      31.950
2013    7        4     3  38    3.90   416.8    6.1      31.964
2013    7        4     3  44    3.90   416.8    6.1      31.977
2013    7        4     3  51    3.90   416.7    6.2      31.990
2013    7        4     3  57    3.90   416.7    6.2      32.004
2013    7        4     4   4    3.91   416.7    6.2      32.018
2013    7        4     4  10    3.91   416.6    6.2      32.032
2013    7        4     4  17    3.91   416.6    6.2      32.046
2013    7        4     4  23    3.92   416.6    6.2      32.060
2013    7        4     4  30    3.92   416.6    6.2      32.075
2013    7        4     4  36    3.92   416.5    6.2      32.090
2013    7        4     4  42    3.92   416.5    6.2      32.104
2013    7        4     4  49    3.93   416.5    6.2      32.119
2013    7        4     4  55    3.93   416.5    6.2      32.134
2013    7        4     5   2    3.93   416.4    6.2      32.150
2013    7        4     5   8    3.94   416.4    6.2      32.165
2013    7        4     5  15    3.94   416.4    6.2      32.181
2013    7        4     5  21    3.94   416.4    6.2      32.197
2013    7        4     5  27    3.95   416.3    6.2      32.212
2013    7        4     5  34    3.95   416.3    6.2      32.228
2013    7        4     5  40    3.95   416.3    6.3      32.245
2013    7        4     5  47    3.96   416.3    6.3      32.261
2013    7        4     5  53    3.96   416.3    6.3      32.277
2013    7        4     5  59    3.96   416.2    6.3      32.294
2013    7        4     6   6    3.96   416.2    6.3      32.311
2013    7        4     6  12    3.97   416.2    6.3      32.328
2013    7        4     6  19    3.97   416.2    6.3      32.345
2013    7        4     6  25    3.97   416.2    6.3      32.362
2013    7        4     6  32    3.98   416.2    6.3      32.379
2013    7        4     6  38    3.98   416.1    6.3      32.396
2013    7        4     6  44    3.98   416.1    6.3      32.414
2013    7        4     6  51    3.99   416.1    6.3      32.432
2013    7        4     6  57    3.99   416.1    6.3      32.449
2013    7        4     7   4    3.99   416.1    6.3      32.467
2013    7        4     7  10    4.00   416.1    6.3      32.486
2013    7        4     7  16    4.00   416.0    6.4      32.504
2013    7        4     7  23    4.00   416.0    6.4      32.523
2013    7        4     7  29    4.01   416.0    6.4      32.542
2013    7        4     7  36    4.01   416.0    6.4      32.561
2013    7        4     7  42    4.01   416.0    6.4      32.580
2013    7        4     7  49    4.02   416.0    6.4      32.599
2013    7        4     7  55    4.02   416.0    6.4      32.619
2013    7        4     8   1    4.02   416.0    6.4      32.639
2013    7        4     8   8    4.03   416.0    6.4      32.659
2013    7        4     8  14    4.03   416.0    6.4      32.679
2013    7        4     8  21    4.03   415.9    6.4      32.699
2013    7        4     8  27    4.04   415.9    6.4      32.719
2013    7        4     8  34    4.04   415.9    6.4      32.739
2013    7        4     8  40    4.04   415.9    6.4      32.759
2013    7        4     8  46    4.05   415.9    6.4      32.779
2013    7        4     8  53    4.05   415.9    6.4      32.799
2013    7        4     8  59    4.05   415.9    6.5      32.819
2013    7        4     9   6    4.06   415.9    6.5      32.839
2013    7        4     9  12    4.06   415.9    6.5      32.859
2013    7        4     9  19    4.06   415.9    6.5      32.879
2013    7        4     9  25    4.07   415.9    6.5      32.899
2013    7        4     9  32    4.07   415.9    6.5      32.919
2013    7        4     9  38    4.07   415.9    6.5      32.940
2013    7        4     9  45    4.08   415.9    6.5      32.960
2013    7        4     9  51    4.08   415.9    6.5      32.981
2013    7        4     9  57    4.08   415.9    6.5      33.001
2013    7        4    10   4    4.09   415.9    6.5      33.022
2013    7        4    10  10    4.09   415.9    6.5      33.043
2013    7        4    10  17    4.09   415.9    6.5      33.063
2013    7        4    10  23    4.10   415.9    6.5      33.084
2013    7        4    10  30    4.10   415.9    6.5      33.105
2013    7        4    10  36    4.10   415.9    6.5      33.126
2013    7        4    10  43    4.11   415.9    6.6      33.147
2013    7        4    10  49    4.11   415.9    6.6      33.168
2013    7        4    10  56    4.11   415.9    6.6      33.189
2013    7        4    11   2    4.12   415.9    6.6      33.210
2013    7        4    11   8    4.12   415.9    6.6      33.231
2013    7        4    11  15    4.12   415.9    6.6      33.252
2013    7        4    11  21    4.13   416.0    6.6      33.273
2013    7        4    11  28    4.13   416.0    6.6      33.294
2013    7        4    11  34    4.13   416.0    6.6      33.315
2013    7        4    11  41    4.14   416.0    6.6      33.336
2013    7        4    11  47    4.14   416.0    6.6      33.357
2013    7        4    11  54    4.15   416.0    6.6      33.378
2013    7        4    12   0    4.15   416.0    6.6      33.399
2013    7        4    12   7    4.15   416.0    6.6      33.420
2013    7        4    12  13    4.16   416.0    6.6      33.442
2013    7        4    12  19    4.16   416.0    6.6      33.463
2013    7        4    12  26    4.16   416.1    6.6      33.485
2013    7        4    12  32    4.17   416.1    6.6      33.506
2013    7        4    12  39    4.17   416.1    6.7      33.528
2013    7        4    12  45    4.17   416.1    6.7      33.550
2013    7        4    12  51    4.18   416.1    6.7      33.572
2013    7        4    12  58    4.18   416.1    6.7      33.595
2013    7        4    13   4    4.18   416.1    6.7      33.617
2013    7        4    13  11    4.19   416.2    6.7      33.640
2013    7        4    13  17    4.19   416.2    6.7      33.663
2013    7        4    13  24    4.20   416.2    6.7      33.687
2013    7        4    13  30    4.20   416.2    6.7      33.710
2013    7        4    13  36    4.20   416.2    6.7      33.734
2013    7        4    13  43    4.21   416.3    6.7      33.758
2013    7        4    13  49    4.21   416.3    6.7      33.782
2013    7        4    13  56    4.22   416.3    6.7      33.807
2013    7        4    14   2    4.22   416.3    6.7      33.832
2013    7        4    14   8    4.22   416.4    6.7      33.857
2013    7        4    14  15    4.23   416.4    6.7      33.883
2013    7        4    14  21    4.23   416.4    6.8      33.909
2013    7        4    14  28    4.24   416.4    6.8      33.936
2013    7        4    14  34    4.24   416.5    6.8      33.964
2013    7        4    14  41    4.24   416.5    6.8      33.992
2013    7        4    14  47    4.25   416.5    6.8      34.021
2013    7        4    14  53    4.25   416.6    6.8      34.050
2013    7        4    15   0    4.26   416.6    6.8      34.080
2013    7        4    15   6    4.26   416.6    6.8      34.110
2013    7        4    15  13    4.26   416.7    6.8      34.140
2013    7        4    15  19    4.27   416.7    6.8      34.171
2013    7        4    15  26    4.27   416.8    6.8      34.203
2013    7        4    15  32    4.28   416.8    6.8      34.234
2013    7        4    15  38    4.28   416.8    6.8      34.266
2013    7        4    15  45    4.28   416.9    6.8      34.298
2013    7        4    15  51    4.29   416.9    6.9      34.329
2013    7        4    15  58    4.29   417.0    6.9      34.360
2013    7        4    16   4    4.30   417.0    6.9      34.391
2013    7        4    16  11    4.30   417.0    6.9      34.422
2013    7        4    16  17    4.30   417.1    6.9      34.453
2013    7        4    16  24    4.31   417.1    6.9      34.484
2013    7        4    16  30    4.31   417.2    6.9      34.515
2013    7        4    16  36    4.32   417.2    6.9      34.546
2013    7        4    16  43    4.32   417.3    6.9      34.576
2013    7        4    16  49    4.32   417.3    6.9      34.608
2013    7        4    16  56    4.33   417.3    6.9      34.639
2013    7        4    17   2    4.33   417.4    6.9      34.670
2013    7        4    17   9    4.34   417.4    6.9      34.701
2013    7        4    17  15    4.34   417.5    6.9      34.733
2013    7        4    17  22    4.34   417.5    6.9      34.764
2013    7        4    17  28    4.35   417.6    6.9      34.796
2013    7        4    17  34    4.35   417.6    7.0      34.827
2013    7        4    17  41    4.35   417.6    7.0      34.858
2013    7        4    17  47    4.36   417.7    7.0      34.890
2013    7        4    17  54    4.36   417.7    7.0      34.921
2013    7        4    18   0    4.37   417.8    7.0      34.952
2013    7        4    18   7    4.37   417.8    7.0      34.982
2013    7        4    18  13    4.37   417.9    7.0      35.013
2013    7        4    18  20    4.38   417.9    7.0      35.043
2013    7        4    18  26    4.38   418.0    7.0      35.072
2013    7        4    18  33    4.38   418.0    7.0      35.102
2013    7        4    18  39    4.39   418.1    7.0      35.131
2013    7        4    18  46    4.39   418.1    7.0      35.160
2013    7        4    18  52    4.39   418.1    7.0      35.189
2013    7        4    18  58    4.40   418.2    7.0      35.217
2013    7        4    19   5    4.40   418.2    7.0      35.246
2013    7        4    19  11    4.41   418.3    7.0      35.274
2013    7        4    19  18    4.41   418.3    7.0      35.302
2013    7        4    19  24    4.41   418.4    7.0      35.330
2013    7        4    19  31    4.42   418.4    7.0      35.358
2013    7        4    19  37    4.42   418.5    7.0      35.386
2013    7        4    19  43    4.42   418.5    7.0      35.414
2013    7        4    19  50    4.43   418.6    7.0      35.442
2013    7        4    19  56    4.43   418.6    7.1      35.470
2013    7        4    20   3    4.43   418.7    7.1      35.498
2013    7        4    20   9    4.44   418.8    7.1      35.527
2013    7        4    20  16    4.44   418.8    7.1      35.555
2013    7        4    20  22    4.45   418.9    7.1      35.584
2013    7        4    20  28    4.45   418.9    7.1      35.612
2013    7        4    20  35    4.45   419.0    7.1      35.641
2013    7        4    20  41    4.46   419.0    7.1      35.671
2013    7        4    20  48    4.46   419.1    7.1      35.700
2013    7        4    20  54    4.46   419.2    7.1      35.730
2013    7        4    21   0    4.47   419.2    7.1      35.760
2013    7        4    21   7    4.47   419.3    7.1      35.791
2013    7        4    21  13    4.48   419.4    7.1      35.822
2013    7        4    21  20    4.48   419.4    7.1      35.854
2013    7        4    21  26    4.48   419.5    7.1      35.886
2013    7        4    21  33    4.49   419.6    7.1      35.919
2013    7        4    21  39    4.49   419.6    7.1      35.953
2013    7        4    21  45    4.50   419.7    7.1      35.987
2013    7        4    21  52    4.50   419.8    7.1      36.023
2013    7        4    21  58    4.50   419.9    7.2      36.059
2013    7        4    22   5    4.51   420.0    7.2      36.096
2013    7        4    22  11    4.51   420.0    7.2      36.134
2013    7        4    22  17    4.52   420.1    7.2      36.172
2013    7        4    22  24    4.52   420.2    7.2      36.211
2013    7        4    22  30    4.53   420.3    7.2      36.250
2013    7        4    22  37    4.53   420.4    7.2      36.291
2013    7        4    22  43    4.53   420.5    7.2      36.332
2013    7        4    22  50    4.54   420.6    7.2      36.374
2013    7        4    22  56    4.54   420.7    7.2      36.417
2013    7        4    23   3    4.55   420.8    7.2      36.461
2013    7        4    23   9    4.55   420.9    7.2      36.506
2013    7        4    23  15    4.56   421.0    7.2      36.552
2013    7        4    23  22    4.56   421.1    7.2      36.599
2013    7        4    23  28    4.56   421.2    7.2      36.648
2013    7        4    23  35    4.57   421.3    7.3      36.696
2013    7        4    23  41    4.57   421.4    7.3      36.746
2013    7        4    23  48    4.58   421.5    7.3      36.795
2013    7        4    23  54    4.58   421.6    7.3      36.845
2013    7        5     0   1    4.59   421.7    7.3      36.895
2013    7        5     0   7    4.59   421.8    7.3      36.945
2013    7        5     0  13    4.59   422.0    7.3      36.994
2013    7        5     0  20    4.60   422.1    7.3      37.044
2013    7        5     0  26    4.60   422.2    7.3      37.092
2013    7        5     0  33    4.61   422.3    7.3      37.139
2013    7        5     0  39    4.61   422.4    7.3      37.186
2013    7        5     0  46    4.61   422.5    7.3      37.232
2013    7        5     0  52    4.62   422.6    7.3      37.276
2013    7        5     0  59    4.62   422.8    7.3      37.321
2013    7        5     1   5    4.62   422.9    7.3      37.364
2013    7        5     1  12    4.63   423.0    7.3      37.407
2013    7        5     1  18    4.63   423.1    7.3      37.449
2013    7        5     1  24    4.63   423.2    7.3      37.490
2013    7        5     1  31    4.64   423.3    7.3      37.530
2013    7        5     1  37    4.64   423.4    7.3      37.570
2013    7        5     1  44    4.64   423.5    7.3      37.608
2013    7        5     1  50    4.65   423.7    7.3      37.646
2013    7        5     1  57    4.65   423.8    7.3      37.684
2013    7        5     2   3    4.65   423.9    7.4      37.721
2013    7        5     2  10    4.66   424.0    7.4      37.756
2013    7        5     2  16    4.66   424.1    7.4      37.792
2013    7        5     2  23    4.66   424.2    7.4      37.827
2013    7        5     2  29    4.67   424.3    7.4      37.861
2013    7        5     2  35    4.67   424.4    7.4      37.895
2013    7        5     2  42    4.67   424.5    7.4      37.928
2013    7        5     2  48    4.67   424.7    7.4      37.960
2013    7        5     2  55    4.68   424.8    7.4      37.992
2013    7        5     3   1    4.68   424.9    7.4      38.024
2013    7        5     3   8    4.68   425.0    7.4      38.055
2013    7        5     3  14    4.69   425.1    7.4      38.086
2013    7        5     3  20    4.69   425.2    7.4      38.116
2013    7        5     3  27    4.69   425.3    7.4      38.147
2013    7        5     3  33    4.69   425.4    7.4      38.176
2013    7        5     3  40    4.70   425.5    7.4      38.206
2013    7        5     3  46    4.70   425.7    7.4      38.235
2013    7        5     3  52    4.70   425.8    7.4      38.265
2013    7        5     3  59    4.70   425.9    7.4      38.294
2013    7        5     4   5    4.71   426.0    7.4      38.323
2013    7        5     4  12    4.71   426.1    7.4      38.352
2013    7        5     4  18    4.71   426.2    7.4      38.380
2013    7        5     4  25    4.72   426.3    7.4      38.409
2013    7        5     4  31    4.72   426.4    7.4      38.438
2013    7        5     4  37    4.72   426.6    7.4      38.467
2013    7        5     4  44    4.72   426.7    7.4      38.496
2013    7        5     4  50    4.73   426.8    7.4      38.526
2013    7        5     4  57    4.73   426.9    7.4      38.556
2013    7        5     5   3    4.73   427.0    7.4      38.586
2013    7        5     5   9    4.74   427.1    7.4      38.616
2013    7        5     5  16    4.74   427.3    7.4      38.647
2013    7        5     5  22    4.74   427.4    7.4      38.678
2013    7        5     5  29    4.74   427.5    7.4      38.710
2013    7        5     5  35    4.75   427.6    7.4      38.742
2013    7        5     5  41    4.75   427.7    7.4      38.775
2013    7        5     5  48    4.75   427.9    7.4      38.808
2013    7        5     5  54    4.76   428.0    7.4      38.843
2013    7        5     6   1    4.76   428.1    7.4      38.879
2013    7        5     6   7    4.76   428.2    7.4      38.917
2013    7        5     6  13    4.77   428.3    7.4      38.955
2013    7        5     6  20    4.77   428.5    7.4      38.996
2013    7        5     6  26    4.77   428.6    7.4      39.040
2013    7        5     6  33    4.78   428.7    7.4      39.085
2013    7        5     6  39    4.78   428.9    7.4      39.131
2013    7        5     6  45    4.78   429.0    7.4      39.180
2013    7        5     6  52    4.79   429.1    7.4      39.232
2013    7        5     6  58    4.79   429.3    7.4      39.286
2013    7        5     7   5    4.79   429.4    7.4      39.342
2013    7        5     7  11    4.80   429.6    7.4      39.399
2013    7        5     7  17    4.80   429.7    7.5      39.458
2013    7        5     7  24    4.81   429.9    7.5      39.518
2013    7        5     7  30    4.81   430.1    7.5      39.580
2013    7        5     7  37    4.81   430.2    7.5      39.643
2013    7        5     7  43    4.82   430.4    7.5      39.706
2013    7        5     7  50    4.82   430.6    7.5      39.770
2013    7        5     7  56    4.82   430.8    7.5      39.834
2013    7        5     8   2    4.83   431.0    7.5      39.898
2013    7        5     8   9    4.83   431.1    7.5      39.960
2013    7        5     8  15    4.83   431.3    7.5      40.022
2013    7        5     8  22    4.83   431.5    7.5      40.082
2013    7        5     8  28    4.84   431.7    7.5      40.141
2013    7        5     8  35    4.84   431.9    7.5      40.198
2013    7        5     8  41    4.84   432.1    7.5      40.255
2013    7        5     8  47    4.84   432.3    7.5      40.309
2013    7        5     8  54    4.85   432.5    7.5      40.362
2013    7        5     9   0    4.85   432.7    7.5      40.412
2013    7        5     9   7    4.85   432.9    7.5      40.461
2013    7        5     9  13    4.85   433.0    7.5      40.507
2013    7        5     9  19    4.85   433.2    7.5      40.553
2013    7        5     9  26    4.86   433.4    7.5      40.597
2013    7        5     9  32    4.86   433.6    7.5      40.639
2013    7        5     9  39    4.86   433.8    7.5      40.680
2013    7        5     9  45    4.86   434.0    7.5      40.720
2013    7        5     9  52    4.86   434.2    7.5      40.758
2013    7        5     9  58    4.86   434.3    7.5      40.796
2013    7        5    10   4    4.87   434.5    7.5      40.833
2013    7        5    10  11    4.87   434.7    7.5      40.868
2013    7        5    10  17    4.87   434.9    7.5      40.903
2013    7        5    10  24    4.87   435.1    7.5      40.938
2013    7        5    10  30    4.87   435.3    7.5      40.971
2013    7        5    10  36    4.87   435.4    7.5      41.004
2013    7        5    10  43    4.87   435.6    7.5      41.036
2013    7        5    10  49    4.88   435.8    7.5      41.067
2013    7        5    10  56    4.88   436.0    7.5      41.098
2013    7        5    11   2    4.88   436.2    7.5      41.128
2013    7        5    11   8    4.88   436.3    7.5      41.158
2013    7        5    11  15    4.88   436.5    7.5      41.188
2013    7        5    11  21    4.88   436.7    7.5      41.217
2013    7        5    11  28    4.88   436.9    7.5      41.245
2013    7        5    11  34    4.89   437.0    7.4      41.274
2013    7        5    11  41    4.89   437.2    7.4      41.302
2013    7        5    11  47    4.89   437.4    7.4      41.329
2013    7        5    11  53    4.89   437.6    7.4      41.357
2013    7        5    12   0    4.89   437.7    7.4      41.384
2013    7        5    12   6    4.89   437.9    7.4      41.412
2013    7        5    12  13    4.89   438.1    7.4      41.439
2013    7        5    12  19    4.90   438.3    7.4      41.467
2013    7        5    12  25    4.90   438.4    7.4      41.494
2013    7        5    12  32    4.90   438.6    7.4      41.522
2013    7        5    12  38    4.90   438.8    7.4      41.550
2013    7        5    12  45    4.90   439.0    7.4      41.578
2013    7        5    12  51    4.90   439.1    7.4      41.607
2013    7        5    12  57    4.90   439.3    7.4      41.636
2013    7        5    13   4    4.91   439.5    7.4      41.666
2013    7        5    13  10    4.91   439.6    7.4      41.697
2013    7        5    13  17    4.91   439.8    7.4      41.729
2013    7        5    13  23    4.91   440.0    7.4      41.762
2013    7        5    13  29    4.91   440.2    7.4      41.797
2013    7        5    13  36    4.92   440.3    7.4      41.834
2013    7        5    13  42    4.92   440.5    7.4      41.872
2013    7        5    13  49    4.92   440.7    7.4      41.911
2013    7        5    13  55    4.92   440.9    7.4      41.952
2013    7        5    14   1    4.92   441.0    7.4      41.995
2013    7        5    14   8    4.93   441.2    7.4      42.040
2013    7        5    14  14    4.93   441.4    7.4      42.087
2013    7        5    14  21    4.93   441.6    7.4      42.135
2013    7        5    14  27    4.93   441.8    7.4      42.186
2013    7        5    14  33    4.93   442.0    7.4      42.238
2013    7        5    14  40    4.94   442.2    7.4      42.291
2013    7        5    14  46    4.94   442.4    7.4      42.346
2013    7        5    14  53    4.94   442.6    7.4      42.403
2013    7        5    14  59    4.94   442.8    7.4      42.460
2013    7        5    15   6    4.94   443.0    7.4      42.519
2013    7        5    15  12    4.94   443.2    7.4      42.578
2013    7        5    15  18    4.95   443.5    7.4      42.638
2013    7        5    15  25    4.95   443.7    7.4      42.698
2013    7        5    15  31    4.95   443.9    7.4      42.757
2013    7        5    15  38    4.95   444.1    7.4      42.816
2013    7        5    15  44    4.95   444.4    7.4      42.873
2013    7        5    15  50    4.95   444.6    7.4      42.930
2013    7        5    15  57    4.95   444.9    7.4      42.987
2013    7        5    16   3    4.95   445.1    7.4      43.042
2013    7        5    16  10    4.95   445.3    7.4      43.095
2013    7        5    16  16    4.95   445.6    7.4      43.146
2013    7        5    16  23    4.95   445.8    7.4      43.196
2013    7        5    16  29    4.95   446.1    7.4      43.244
2013    7        5    16  35    4.95   446.3    7.4      43.291
2013    7        5    16  42    4.96   446.6    7.4      43.335
2013    7        5    16  48    4.96   446.8    7.4      43.378
2013    7        5    16  55    4.96   447.0    7.4      43.420
2013    7        5    17   1    4.96   447.3    7.4      43.460
2013    7        5    17   8    4.95   447.5    7.4      43.499
2013    7        5    17  14    4.95   447.8    7.4      43.536
2013    7        5    17  20    4.95   448.0    7.4      43.573
2013    7        5    17  27    4.95   448.2    7.4      43.608
2013    7        5    17  33    4.95   448.5    7.3      43.642
2013    7        5    17  40    4.95   448.7    7.3      43.675
2013    7        5    17  46    4.95   448.9    7.3      43.708
2013    7        5    17  53    4.95   449.2    7.3      43.740
2013    7        5    17  59    4.95   449.4    7.3      43.771
2013    7        5    18   5    4.95   449.6    7.3      43.801
2013    7        5    18  12    4.95   449.9    7.3      43.831
2013    7        5    18  18    4.95   450.1    7.3      43.860
2013    7        5    18  25    4.95   450.3    7.3      43.889
2013    7        5    18  31    4.95   450.5    7.3      43.917
2013    7        5    18  38    4.95   450.8    7.3      43.944
2013    7        5    18  44    4.95   451.0    7.3      43.971
2013    7        5    18  50    4.95   451.2    7.3      43.997
2013    7        5    18  57    4.94   451.4    7.3      44.022
2013    7        5    19   3    4.94   451.7    7.2      44.047
2013    7        5    19  10    4.94   451.9    7.2      44.071
2013    7        5    19  16    4.94   452.1    7.2      44.095
2013    7        5    19  23    4.94   452.4    7.2      44.117
2013    7        5    19  29    4.94   452.6    7.2      44.139
2013    7        5    19  35    4.94   452.8    7.2      44.161
2013    7        5    19  42    4.94   453.0    7.2      44.182
2013    7        5    19  48    4.94   453.2    7.2      44.202
2013    7        5    19  55    4.94   453.5    7.2      44.221
2013    7        5    20   1    4.93   453.7    7.2      44.241
2013    7        5    20   7    4.93   453.9    7.2      44.260
2013    7        5    20  14    4.93   454.1    7.2      44.278
2013    7        5    20  20    4.93   454.3    7.1      44.296
2013    7        5    20  27    4.93   454.6    7.1      44.314
2013    7        5    20  33    4.93   454.8    7.1      44.333
2013    7        5    20  40    4.93   455.0    7.1      44.352
2013    7        5    20  46    4.93   455.2    7.1      44.371
2013    7        5    20  52    4.93   455.4    7.1      44.391
2013    7        5    20  59    4.92   455.7    7.1      44.411
2013    7        5    21   5    4.92   455.9    7.1      44.432
2013    7        5    21  12    4.92   456.1    7.1      44.454
2013    7        5    21  18    4.92   456.3    7.1      44.475
2013    7        5    21  25    4.92   456.6    7.1      44.497
2013    7        5    21  31    4.92   456.8    7.1      44.520
2013    7        5    21  37    4.91   457.0    7.0      44.543
2013    7        5    21  44    4.91   457.3    7.0      44.566
2013    7        5    21  50    4.91   457.5    7.0      44.588
2013    7        5    21  57    4.91   457.7    7.0      44.610
2013    7        5    22   3    4.90   458.0    7.0      44.631
2013    7        5    22  10    4.90   458.2    7.0      44.652
2013    7        5    22  16    4.90   458.4    7.0      44.671
2013    7        5    22  22    4.90   458.6    7.0      44.691
2013    7        5    22  29    4.89   458.9    7.0      44.709
2013    7        5    22  35    4.89   459.1    7.0      44.727
2013    7        5    22  42    4.89   459.3    6.9      44.745
2013    7        5    22  48    4.88   459.5    6.9      44.762
2013    7        5    22  54    4.88   459.7    6.9      44.779
2013    7        5    23   1    4.88   459.9    6.9      44.794
2013    7        5    23   7    4.87   460.2    6.9      44.810
2013    7        5    23  14    4.87   460.4    6.9      44.825
2013    7        5    23  20    4.87   460.6    6.9      44.840
2013    7        5    23  27    4.87   460.8    6.9      44.854
2013    7        5    23  33    4.86   461.0    6.9      44.868
2013    7        5    23  39    4.86   461.2    6.8      44.881
2013    7        5    23  46    4.86   461.5    6.8      44.894
2013    7        5    23  52    4.85   461.7    6.8      44.906
2013    7        5    23  59    4.85   461.9    6.8      44.918
2013    7        6     0   5    4.84   462.1    6.8      44.929
2013    7        6     0  12    4.84   462.4    6.8      44.940
2013    7        6     0  18    4.84   462.6    6.8      44.951
2013    7        6     0  24    4.83   462.8    6.8      44.960
2013    7        6     0  31    4.83   463.0    6.8      44.968
2013    7        6     0  37    4.83   463.3    6.7      44.975
2013    7        6     0  44    4.82   463.5    6.7      44.981
2013    7        6     0  50    4.82   463.7    6.7      44.986
2013    7        6     0  57    4.81   463.9    6.7      44.990
2013    7        6     1   3    4.81   464.1    6.7      44.994
2013    7        6     1   9    4.80   464.3    6.7      44.996
2013    7        6     1  16    4.80   464.5    6.7      44.998
2013    7        6     1  22    4.79   464.7    6.6      44.999
2013    7        6     1  29    4.79   464.9    6.6      45.000
2013    7        6     1  35    4.79   465.1    6.6      44.998
2013    7        6     1  41    4.78   465.3    6.6      44.997
2013    7        6     1  48    4.78   465.5    6.6      44.994
2013    7        6     1  54    4.77   465.7    6.6      44.992
2013    7        6     2   1    4.77   465.9    6.6      44.989
2013    7        6     2   7    4.76   466.1    6.6      44.985
2013    7        6     2  14    4.76   466.2    6.5      44.981
2013    7        6     2  20    4.75   466.4    6.5      44.976
2013    7        6     2  26    4.75   466.6    6.5      44.971
2013    7        6     2  33    4.74   466.8    6.5      44.964
2013    7        6     2  39    4.74   467.0    6.5      44.957
2013    7        6     2  46    4.73   467.2    6.5      44.948
2013    7        6     2  52    4.73   467.4    6.5      44.939
2013    7        6     2  59    4.72   467.5    6.5      44.929
2013    7        6     3   5    4.72   467.7    6.4      44.918
2013    7        6     3  11    4.71   467.9    6.4      44.906
2013    7        6     3  18    4.71   468.1    6.4      44.892
2013    7        6     3  24    4.70   468.3    6.4      44.877
2013    7        6     3  31    4.70   468.4    6.4      44.861
2013    7        6     3  37    4.69   468.6    6.4      44.844
2013    7        6     3  44    4.69   468.8    6.4      44.826
2013    7        6     3  50    4.68   468.9    6.3      44.807
2013    7        6     3  56    4.68   469.1    6.3      44.787
2013    7        6     4   3    4.67   469.2    6.3      44.767
2013    7        6     4   9    4.67   469.4    6.3      44.746
2013    7        6     4  16    4.66   469.5    6.3      44.724
2013    7        6     4  22    4.66   469.7    6.3      44.703
2013    7        6     4  28    4.65   469.8    6.3      44.681
2013    7        6     4  35    4.65   470.0    6.2      44.660
2013    7        6     4  41    4.64   470.2    6.2      44.639
2013    7        6     4  48    4.63   470.3    6.2      44.618
2013    7        6     4  54    4.63   470.5    6.2      44.597
2013    7        6     5   1    4.62   470.6    6.2      44.576
2013    7        6     5   7    4.62   470.8    6.2      44.555
2013    7        6     5  13    4.61   470.9    6.2      44.533
2013    7        6     5  20    4.61   471.1    6.2      44.511
2013    7        6     5  26    4.60   471.2    6.1      44.488
2013    7        6     5  33    4.60   471.4    6.1      44.465
2013    7        6     5  39    4.59   471.5    6.1      44.441
2013    7        6     5  46    4.58   471.7    6.1      44.417
2013    7        6     5  52    4.58   471.8    6.1      44.391
2013    7        6     5  58    4.57   472.0    6.1      44.366
2013    7        6     6   5    4.57   472.1    6.1      44.339
2013    7        6     6  11    4.56   472.2    6.0      44.312
2013    7        6     6  18    4.55   472.4    6.0      44.284
2013    7        6     6  24    4.55   472.5    6.0      44.256
2013    7        6     6  31    4.54   472.6    6.0      44.227
2013    7        6     6  37    4.54   472.7    6.0      44.199
2013    7        6     6  43    4.53   472.9    6.0      44.171
2013    7        6     6  50    4.53   473.0    6.0      44.144
2013    7        6     6  56    4.52   473.1    6.0      44.116
2013    7        6     7   3    4.52   473.2    6.0      44.090
2013    7        6     7   9    4.51   473.3    5.9      44.063
2013    7        6     7  15    4.50   473.5    5.9      44.038
2013    7        6     7  22    4.50   473.6    5.9      44.014
2013    7        6     7  28    4.49   473.7    5.9      43.990
2013    7        6     7  35    4.49   473.9    5.9      43.965
2013    7        6     7  41    4.48   474.0    5.9      43.940
2013    7        6     7  48    4.48   474.1    5.9      43.914
2013    7        6     7  54    4.47   474.2    5.9      43.888
2013    7        6     8   0    4.47   474.3    5.9      43.862
2013    7        6     8   7    4.46   474.4    5.8      43.835
2013    7        6     8  13    4.45   474.5    5.8      43.807
2013    7        6     8  20    4.45   474.6    5.8      43.780
2013    7        6     8  26    4.44   474.7    5.8      43.751
2013    7        6     8  33    4.44   474.8    5.8      43.723
2013    7        6     8  39    4.43   474.9    5.8      43.695
2013    7        6     8  45    4.43   475.0    5.8      43.666
2013    7        6     8  52    4.42   475.0    5.8      43.637
2013    7        6     8  58    4.41   475.1    5.8      43.609
2013    7        6     9   5    4.41   475.2    5.8      43.581
2013    7        6     9  11    4.40   475.2    5.7      43.555
2013    7        6     9  18    4.40   475.3    5.7      43.530
2013    7        6     9  24    4.39   475.3    5.7      43.505
2013    7        6     9  30    4.39   475.4    5.7      43.480
2013    7        6     9  37    4.38   475.5    5.7      43.456
2013    7        6     9  43    4.38   475.5    5.7      43.431
2013    7        6     9  50    4.37   475.6    5.7      43.407
2013    7        6     9  56    4.37   475.7    5.7      43.382
2013    7        6    10   2    4.36   475.7    5.7      43.358
2013    7        6    10   9    4.36   475.8    5.7      43.332
2013    7        6    10  15    4.35   475.8    5.7      43.307
2013    7        6    10  22    4.35   475.9    5.6      43.281
2013    7        6    10  28    4.34   476.0    5.6      43.254
2013    7        6    10  35    4.34   476.0    5.6      43.226
2013    7        6    10  41    4.33   476.1    5.6      43.196
2013    7        6    10  47    4.33   476.1    5.6      43.165
2013    7        6    10  54    4.32   476.2    5.6      43.134
2013    7        6    11   0    4.32   476.2    5.6      43.102
2013    7        6    11   7    4.31   476.2    5.6      43.070
2013    7        6    11  13    4.31   476.3    5.6      43.036
2013    7        6    11  19    4.30   476.3    5.6      43.003
2013    7        6    11  26    4.30   476.3    5.6      42.969
2013    7        6    11  32    4.29   476.4    5.5      42.935
2013    7        6    11  39    4.29   476.4    5.5      42.901
2013    7        6    11  45    4.28   476.4    5.5      42.868
2013    7        6    11  52    4.28   476.5    5.5      42.834
2013    7        6    11  58    4.27   476.5    5.5      42.801
2013    7        6    12   4    4.27   476.5    5.5      42.768
2013    7        6    12  11    4.26   476.5    5.5      42.736
2013    7        6    12  17    4.26   476.6    5.5      42.705
2013    7        6    12  24    4.26   476.6    5.5      42.674
2013    7        6    12  30    4.25   476.6    5.5      42.643
2013    7        6    12  37    4.25   476.7    5.5      42.612
2013    7        6    12  43    4.24   476.7    5.5      42.582
2013    7        6    12  49    4.24   476.7    5.5      42.552
2013    7        6    12  56    4.23   476.8    5.4      42.521
2013    7        6    13   2    4.23   476.8    5.4      42.491
2013    7        6    13   9    4.22   476.9    5.4      42.461
2013    7        6    13  15    4.22   476.9    5.4      42.431
2013    7        6    13  22    4.22   476.9    5.4      42.401
2013    7        6    13  28    4.21   477.0    5.4      42.371
2013    7        6    13  34    4.21   477.0    5.4      42.341
2013    7        6    13  41    4.20   477.0    5.4      42.311
2013    7        6    13  47    4.20   477.0    5.4      42.282
2013    7        6    13  54    4.19   477.1    5.4      42.254
2013    7        6    14   0    4.19   477.1    5.4      42.226
2013    7        6    14   6    4.19   477.1    5.4      42.199
2013    7        6    14  13    4.18   477.1    5.4      42.173
2013    7        6    14  19    4.18   477.2    5.4      42.148
2013    7        6    14  26    4.17   477.2    5.4      42.123
2013    7        6    14  32    4.17   477.2    5.4      42.099
2013    7        6    14  39    4.17   477.2    5.4      42.076
2013    7        6    14  45    4.16   477.3    5.4      42.053
2013    7        6    14  51    4.16   477.3    5.3      42.030
2013    7        6    14  58    4.16   477.3    5.3      42.009
2013    7        6    15   4    4.15   477.3    5.3      41.987
2013    7        6    15  11    4.15   477.3    5.3      41.967
2013    7        6    15  17    4.15   477.4    5.3      41.946
2013    7        6    15  24    4.14   477.4    5.3      41.926
2013    7        6    15  30    4.14   477.4    5.3      41.905
2013    7        6    15  36    4.14   477.4    5.3      41.886
2013    7        6    15  43    4.13   477.4    5.3      41.867
2013    7        6    15  49    4.13   477.4    5.3      41.849
2013    7        6    15  56    4.12   477.4    5.3      41.831
2013    7        6    16   2    4.12   477.4    5.3      41.813
2013    7        6    16   9    4.12   477.4    5.3      41.797
2013    7        6    16  15    4.11   477.4    5.3      41.782
2013    7        6    16  21    4.11   477.4    5.3      41.768
2013    7        6    16  28    4.11   477.4    5.3      41.755
2013    7        6    16  34    4.11   477.4    5.3      41.743
2013    7        6    16  41    4.10   477.3    5.3      41.731
2013    7        6    16  47    4.10   477.3    5.3      41.719
2013    7        6    16  53    4.10   477.3    5.3      41.708
2013    7        6    17   0    4.09   477.3    5.3      41.696
2013    7        6    17   6    4.09   477.3    5.3      41.685
2013    7        6    17  13    4.09   477.3    5.3      41.673
2013    7        6    17  19    4.08   477.3    5.3      41.662
2013    7        6    17  26    4.08   477.3    5.3      41.649
2013    7        6    17  32    4.08   477.3    5.3      41.637
2013    7        6    17  38    4.07   477.3    5.3      41.624
2013    7        6    17  45    4.07   477.3    5.3      41.611
2013    7        6    17  51    4.07   477.3    5.3      41.596
2013    7        6    17  58    4.07   477.3    5.3      41.581
2013    7        6    18   4    4.06   477.3    5.3      41.565
2013    7        6    18  10    4.06   477.3    5.3      41.548
2013    7        6    18  17    4.06   477.3    5.2      41.531
2013    7        6    18  23    4.05   477.3    5.2      41.514
2013    7        6    18  30    4.05   477.3    5.2      41.496
2013    7        6    18  36    4.05   477.3    5.2      41.478
2013    7        6    18  43    4.05   477.3    5.2      41.459
2013    7        6    18  49    4.04   477.3    5.2      41.440
2013    7        6    18  55    4.04   477.3    5.2      41.420
2013    7        6    19   2    4.04   477.3    5.2      41.400
2013    7        6    19   8    4.03   477.3    5.2      41.380
2013    7        6    19  15    4.03   477.3    5.2      41.360
2013    7        6    19  21    4.03   477.3    5.2      41.340
2013    7        6    19  28    4.03   477.3    5.2      41.320
2013    7        6    19  34    4.02   477.3    5.2      41.299
2013    7        6    19  40    4.02   477.3    5.2      41.279
2013    7        6    19  47    4.02   477.3    5.2      41.258
2013    7        6    19  53    4.01   477.2    5.2      41.237
2013    7        6    20   0    4.01   477.2    5.2      41.217
2013    7        6    20   6    4.01   477.2    5.2      41.196
2013    7        6    20  12    4.01   477.2    5.2      41.176
2013    7        6    20  19    4.00   477.2    5.2      41.155
2013    7        6    20  25    4.00   477.2    5.2      41.135
2013    7        6    20  32    4.00   477.2    5.2      41.115
2013    7        6    20  38    4.00   477.2    5.2      41.095
2013    7        6    20  45    3.99   477.2    5.2      41.076
2013    7        6    20  51    3.99   477.2    5.2      41.056
2013    7        6    20  57    3.99   477.2    5.2      41.037
2013    7        6    21   4    3.98   477.1    5.2      41.018
2013    7        6    21  10    3.98   477.1    5.1      41.000
2013    7        6    21  17    3.98   477.1    5.1      40.982
2013    7        6    21  23    3.98   477.1    5.1      40.965
2013    7        6    21  30    3.97   477.1    5.1      40.948
2013    7        6    21  36    3.97   477.1    5.1      40.931
2013    7        6    21  42    3.97   477.1    5.1      40.915
2013    7        6    21  49    3.97   477.1    5.1      40.899
2013    7        6    21  55    3.96   477.1    5.1      40.883
2013    7        6    22   2    3.96   477.1    5.1      40.869
2013    7        6    22   8    3.96   477.1    5.1      40.854
2013    7        6    22  15    3.96   477.1    5.1      40.840
2013    7        6    22  21    3.95   477.0    5.1      40.826
2013    7        6    22  27    3.95   477.0    5.1      40.812
2013    7        6    22  34    3.95   477.0    5.1      40.799
2013    7        6    22  40    3.94   477.0    5.1      40.786
2013    7        6    22  47    3.94   477.0    5.1      40.773
2013    7        6    22  53    3.94   477.0    5.1      40.760
2013    7        6    22  59    3.94   477.0    5.1      40.748
2013    7        6    23   6    3.93   477.0    5.1      40.736
2013    7        6    23  12    3.93   477.0    5.1      40.723
2013    7        6    23  19    3.93   477.0    5.1      40.711
2013    7        6    23  25    3.93   477.0    5.1      40.699
2013    7        6    23  32    3.92   477.0    5.1      40.688
2013    7        6    23  38    3.92   476.9    5.1      40.676
2013    7        6    23  44    3.92   476.9    5.1      40.664
2013    7        6    23  51    3.92   476.9    5.1      40.652
2013    7        6    23  57    3.91   476.9    5.1      40.640
2013    7        7     0   4    3.91   476.9    5.1      40.628
2013    7        7     0  10    3.91   476.9    5.1      40.616
2013    7        7     0  17    3.90   476.9    5.1      40.604
2013    7        7     0  23    3.90   476.9    5.1      40.591
2013    7        7     0  29    3.90   476.9    5.1      40.579
2013    7        7     0  36    3.90   476.8    5.1      40.566
2013    7        7     0  42    3.89   476.8    5.1      40.554
2013    7        7     0  49    3.89   476.8    5.1      40.541
2013    7        7     0  55    3.89   476.8    5.1      40.528
2013    7        7     1   1    3.89   476.8    5.1      40.515
2013    7        7     1   8    3.88   476.8    5.1      40.502
2013    7        7     1  14    3.88   476.8    5.1      40.488
2013    7        7     1  21    3.88   476.7    5.1      40.474
2013    7        7     1  27    3.88   476.7    5.1      40.461
2013    7        7     1  34    3.87   476.7    5.1      40.447
2013    7        7     1  40    3.87   476.7    5.1      40.433
2013    7        7     1  46    3.87   476.7    5.0      40.418
2013    7        7     1  53    3.87   476.7    5.0      40.404
2013    7        7     1  59    3.86   476.6    5.0      40.389
2013    7        7     2   6    3.86   476.6    5.0      40.374
2013    7        7     2  12    3.86   476.6    5.0      40.359
2013    7        7     2  18    3.85   476.6    5.0      40.343
2013    7        7     2  25    3.85   476.6    5.0      40.328
2013    7        7     2  31    3.85   476.5    5.0      40.312
2013    7        7     2  38    3.85   476.5    5.0      40.296
2013    7        7     2  44    3.84   476.5    5.0      40.280
2013    7        7     2  51    3.84   476.5    5.0      40.264
2013    7        7     2  57    3.84   476.5    5.0      40.247
2013    7        7     3   3    3.84   476.5    5.0      40.231
2013    7        7     3  10    3.83   476.4    5.0      40.214
2013    7        7     3  16    3.83   476.4    5.0      40.197
2013    7        7     3  23    3.83   476.4    5.0      40.180
2013    7        7     3  29    3.83   476.4    5.0      40.163
2013    7        7     3  35    3.82   476.4    5.0      40.146
2013    7        7     3  42    3.82   476.3    5.0      40.128
2013    7        7     3  48    3.82   476.3    5.0      40.111
2013    7        7     3  55    3.82   476.3    5.0      40.093
2013    7        7     4   1    3.81   476.3    5.0      40.076
2013    7        7     4   8    3.81   476.3    5.0      40.058
2013    7        7     4  14    3.81   476.2    5.0      40.040
2013    7        7     4  20    3.80   476.2    5.0      40.023
2013    7        7     4  27    3.80   476.2    5.0      40.005
2013    7        7     4  33    3.80   476.2    5.0      39.987
2013    7        7     4  40    3.80   476.1    5.0      39.969
2013    7        7     4  46    3.79   476.1    5.0      39.951
2013    7        7     4  53    3.79   476.1    5.0      39.933
2013    7        7     4  59    3.79   476.1    5.0      39.915
2013    7        7     5   5    3.78   476.1    5.0      39.897
2013    7        7     5  12    3.78   476.0    5.0      39.879
2013    7        7     5  18    3.78   476.0    5.0      39.861
2013    7        7     5  25    3.77   476.0    5.0      39.843
2013    7        7     5  31    3.77   476.0    5.0      39.825
2013    7        7     5  38    3.77   475.9    5.0      39.806
2013    7        7     5  44    3.77   475.9    5.0      39.788
2013    7        7     5  50    3.76   475.9    4.9      39.769
2013    7        7     5  57    3.76   475.8    4.9      39.751
2013    7        7     6   3    3.76   475.8    4.9      39.732
2013    7        7     6  10    3.75   475.8    4.9      39.713
2013    7        7     6  16    3.75   475.8    4.9      39.694
2013    7        7     6  22    3.75   475.7    4.9      39.676
2013    7        7     6  29    3.74   475.7    4.9      39.657
2013    7        7     6  35    3.74   475.7    4.9      39.638
2013    7        7     6  42    3.74   475.7    4.9      39.619
2013    7        7     6  48    3.73   475.6    4.9      39.600
2013    7        7     6  55    3.73   475.6    4.9      39.580
2013    7        7     7   1    3.73   475.6    4.9      39.561
2013    7        7     7   7    3.73   475.5    4.9      39.541
2013    7        7     7  14    3.72   475.5    4.9      39.522
2013    7        7     7  20    3.72   475.5    4.9      39.502
2013    7        7     7  27    3.72   475.4    4.9      39.483
2013    7        7     7  33    3.71   475.4    4.9      39.463
2013    7        7     7  39    3.71   475.4    4.9      39.443
2013    7        7     7  46    3.71   475.3    4.9      39.422
2013    7        7     7  52    3.70   475.3    4.9      39.402
2013    7        7     7  59    3.70   475.3    4.9      39.382
2013    7        7     8   5    3.70   475.2    4.9      39.362
2013    7        7     8  12    3.69   475.2    4.9      39.341
2013    7        7     8  18    3.69   475.2    4.9      39.320
2013    7        7     8  24    3.69   475.1    4.9      39.300
2013    7        7     8  31    3.68   475.1    4.9      39.279
2013    7        7     8  37    3.68   475.0    4.9      39.258
2013    7        7     8  44    3.68   475.0    4.9      39.237
2013    7        7     8  50    3.67   475.0    4.9      39.216
2013    7        7     8  56    3.67   474.9    4.9      39.194
2013    7        7     9   3    3.67   474.9    4.9      39.173
2013    7        7     9   9    3.66   474.8    4.9      39.151
2013    7        7     9  16    3.66   474.8    4.9      39.129
2013    7        7     9  22    3.66   474.8    4.8      39.107
2013    7        7     9  29    3.65   474.7    4.8      39.085
2013    7        7     9  35    3.65   474.7    4.8      39.063
2013    7        7     9  41    3.65   474.6    4.8      39.040
2013    7        7     9  48    3.64   474.6    4.8      39.017
2013    7        7     9  54    3.64   474.5    4.8      38.994
2013    7        7    10   1    3.64   474.5    4.8      38.971
2013    7        7    10   7    3.64   474.4    4.8      38.948
2013    7        7    10  13    3.63   474.4    4.8      38.924
2013    7        7    10  20    3.63   474.4    4.8      38.900
2013    7        7    10  26    3.63   474.3    4.8      38.876
2013    7        7    10  33    3.62   474.3    4.8      38.852
2013    7        7    10  39    3.62   474.2    4.8      38.828
2013    7        7    10  46    3.62   474.2    4.8      38.803
2013    7        7    10  52    3.61   474.1    4.8      38.779
2013    7        7    10  58    3.61   474.1    4.8      38.754
2013    7        7    11   5    3.61   474.0    4.8      38.729
2013    7        7    11  11    3.60   474.0    4.8      38.703
2013    7        7    11  18    3.60   473.9    4.8      38.678
2013    7        7    11  24    3.60   473.8    4.8      38.652
2013    7        7    11  31    3.59   473.8    4.8      38.627
2013    7        7    11  37    3.59   473.7    4.8      38.601
2013    7        7    11  43    3.59   473.7    4.8      38.575
2013    7        7    11  50    3.58   473.6    4.8      38.549
2013    7        7    11  56    3.58   473.6    4.8      38.523
2013    7        7    12   3    3.57   473.5    4.8      38.496
2013    7        7    12   9    3.57   473.5    4.8      38.469
2013    7        7    12  16    3.57   473.4    4.8      38.442
2013    7        7    12  22    3.56   473.3    4.8      38.415
2013    7        7    12  28    3.56   473.3    4.8      38.388
2013    7        7    12  35    3.56   473.2    4.8      38.360
2013    7        7    12  41    3.55   473.2    4.8      38.333
2013    7        7    12  48    3.55   473.1    4.7      38.305
2013    7        7    12  54    3.55   473.0    4.7      38.277
2013    7        7    13   0    3.54   473.0    4.7      38.249
2013    7        7    13   7    3.54   472.9    4.7      38.220
2013    7        7    13  13    3.53   472.8    4.7      38.191
2013    7        7    13  20    3.53   472.8    4.7      38.162
2013    7        7    13  26    3.53   472.7    4.7      38.134
2013    7        7    13  33    3.52   472.6    4.7      38.104
2013    7        7    13  39    3.52   472.6    4.7      38.075
2013    7        7    13  45    3.52   472.5    4.7      38.045
2013    7        7    13  52    3.51   472.4    4.7      38.016
2013    7        7    13  58    3.51   472.4    4.7      37.985
2013    7        7    14   5    3.50   472.3    4.7      37.956
2013    7        7    14  11    3.50   472.2    4.7      37.925
2013    7        7    14  17    3.50   472.1    4.7      37.895
2013    7        7    14  24    3.49   472.1    4.7      37.864
2013    7        7    14  30    3.49   472.0    4.7      37.833
2013    7        7    14  37    3.49   471.9    4.7      37.802
2013    7        7    14  43    3.48   471.8    4.7      37.771
2013    7        7    14  50    3.48   471.8    4.7      37.739
2013    7        7    14  56    3.47   471.7    4.7      37.708
2013    7        7    15   2    3.47   471.6    4.7      37.676
2013    7        7    15   9    3.47   471.5    4.7      37.643
2013    7        7    15  15    3.46   471.4    4.7      37.611
2013    7        7    15  22    3.46   471.4    4.7      37.578
2013    7        7    15  28    3.45   471.3    4.7      37.545
2013    7        7    15  34    3.45   471.2    4.6      37.512
2013    7        7    15  41    3.45   471.1    4.6      37.479
2013    7        7    15  47    3.44   471.0    4.6      37.445
2013    7        7    15  54    3.44   470.9    4.6      37.411
2013    7        7    16   0    3.44   470.8    4.6      37.377
2013    7        7    16   7    3.43   470.8    4.6      37.343
2013    7        7    16  13    3.43   470.7    4.6      37.309
2013    7        7    16  19    3.42   470.6    4.6      37.274
2013    7        7    16  26    3.42   470.5    4.6      37.239
2013    7        7    16  32    3.42   470.4    4.6      37.204
2013    7        7    16  39    3.41   470.3    4.6      37.170
2013    7        7    16  45    3.41   470.2    4.6      37.134
2013    7        7    16  51    3.41   470.1    4.6      37.099
2013    7        7    16  58    3.40   470.0    4.6      37.064
2013    7        7    17   4    3.40   469.9    4.6      37.028
2013    7        7    17  11    3.39   469.8    4.6      36.993
2013    7        7    17  17    3.39   469.7    4.6      36.957
2013    7        7    17  24    3.39   469.6    4.6      36.921
2013    7        7    17  30    3.38   469.5    4.6      36.886
2013    7        7    17  36    3.38   469.4    4.6      36.849
2013    7        7    17  43    3.38   469.3    4.6      36.814
2013    7        7    17  49    3.37   469.2    4.6      36.777
2013    7        7    17  56    3.37   469.1    4.6      36.742
2013    7        7    18   2    3.37   469.0    4.6      36.705
2013    7        7    18   8    3.36   468.9    4.6      36.669
2013    7        7    18  15    3.36   468.8    4.6      36.633
2013    7        7    18  21    3.35   468.7    4.6      36.597
2013    7        7    18  28    3.35   468.6    4.6      36.561
2013    7        7    18  34    3.35   468.5    4.6      36.525
2013    7        7    18  41    3.34   468.3    4.5      36.489
2013    7        7    18  47    3.34   468.2    4.5      36.453
2013    7        7    18  53    3.34   468.1    4.5      36.417
2013    7        7    19   0    3.33   468.0    4.5      36.381
2013    7        7    19   6    3.33   467.9    4.5      36.345
2013    7        7    19  13    3.33   467.8    4.5      36.309
2013    7        7    19  19    3.32   467.7    4.5      36.272
2013    7        7    19  26    3.32   467.5    4.5      36.236
2013    7        7    19  32    3.31   467.4    4.5      36.200
2013    7        7    19  38    3.31   467.3    4.5      36.164
2013    7        7    19  45    3.31   467.2    4.5      36.127
2013    7        7    19  51    3.30   467.1    4.5      36.091
2013    7        7    19  58    3.30   466.9    4.5      36.054
2013    7        7    20   4    3.30   466.8    4.5      36.017
2013    7        7    20  11    3.29   466.7    4.5      35.980
2013    7        7    20  17    3.29   466.6    4.5      35.944
2013    7        7    20  23    3.28   466.4    4.5      35.907
2013    7        7    20  30    3.28   466.3    4.5      35.870
2013    7        7    20  36    3.28   466.2    4.5      35.833
2013    7        7    20  43    3.27   466.0    4.5      35.796
2013    7        7    20  49    3.27   465.9    4.5      35.758
2013    7        7    20  55    3.27   465.8    4.5      35.721
2013    7        7    21   2    3.26   465.6    4.5      35.684
2013    7        7    21   8    3.26   465.5    4.5      35.646
2013    7        7    21  15    3.26   465.4    4.5      35.609
2013    7        7    21  21    3.25   465.2    4.5      35.571
2013    7        7    21  28    3.25   465.1    4.5      35.534
2013    7        7    21  34    3.24   465.0    4.5      35.496
2013    7        7    21  40    3.24   464.8    4.5      35.458
2013    7        7    21  47    3.24   464.7    4.5      35.420
2013    7        7    21  53    3.23   464.6    4.5      35.381
2013    7        7    22   0    3.23   464.4    4.5      35.343
2013    7        7    22   6    3.23   464.3    4.5      35.304
2013    7        7    22  12    3.22   464.1    4.5      35.265
2013    7        7    22  19    3.22   464.0    4.5      35.226
2013    7        7    22  25    3.21   463.9    4.5      35.187
2013    7        7    22  32    3.21   463.7    4.4      35.147
2013    7        7    22  38    3.21   463.6    4.4      35.107
2013    7        7    22  44    3.20   463.4    4.4      35.067
2013    7        7    22  51    3.20   463.3    4.4      35.027
2013    7        7    22  57    3.20   463.1    4.4      34.986
2013    7        7    23   4    3.19   463.0    4.4      34.946
2013    7        7    23  10    3.19   462.8    4.4      34.904
2013    7        7    23  17    3.19   462.7    4.4      34.864
2013    7        7    23  23    3.18   462.5    4.4      34.822
2013    7        7    23  29    3.18   462.4    4.4      34.781
2013    7        7    23  36    3.18   462.2    4.4      34.739
2013    7        7    23  42    3.17   462.1    4.4      34.697
2013    7        7    23  49    3.17   461.9    4.4      34.655
2013    7        7    23  55    3.16   461.8    4.4      34.613
2013    7        8     0   1    3.16   461.6    4.4      34.571
2013    7        8     0   8    3.16   461.4    4.4      34.529
2013    7        8     0  14    3.15   461.3    4.4      34.486
2013    7        8     0  21    3.15   461.1    4.4      34.444
2013    7        8     0  27    3.15   461.0    4.4      34.401
2013    7        8     0  33    3.14   460.8    4.4      34.359
2013    7        8     0  40    3.14   460.6    4.4      34.316
2013    7        8     0  46    3.14   460.5    4.4      34.274
2013    7        8     0  53    3.13   460.3    4.4      34.231
2013    7        8     0  59    3.13   460.2    4.4      34.188
2013    7        8     1   6    3.13   460.0    4.4      34.146
2013    7        8     1  12    3.12   459.8    4.4      34.103
2013    7        8     1  18    3.12   459.7    4.4      34.061
2013    7        8     1  25    3.12   459.5    4.4      34.018
2013    7        8     1  31    3.11   459.3    4.4      33.976
2013    7        8     1  38    3.11   459.2    4.4      33.934
2013    7        8     1  44    3.11   459.0    4.4      33.891
2013    7        8     1  51    3.10   458.8    4.4      33.850
2013    7        8     1  57    3.10   458.7    4.4      33.807
2013    7        8     2   3    3.10   458.5    4.4      33.766
2013    7        8     2  10    3.09   458.3    4.4      33.724
2013    7        8     2  16    3.09   458.2    4.4      33.683
2013    7        8     2  23    3.09   458.0    4.4      33.641
2013    7        8     2  29    3.09   457.8    4.4      33.600
2013    7        8     2  36    3.08   457.6    4.4      33.559
2013    7        8     2  42    3.08   457.5    4.4      33.518
2013    7        8     2  48    3.08   457.3    4.4      33.477
2013    7        8     2  55    3.07   457.1    4.3      33.437
2013    7        8     3   1    3.07   457.0    4.3      33.396
2013    7        8     3   8    3.07   456.8    4.3      33.356
2013    7        8     3  14    3.06   456.6    4.3      33.315
2013    7        8     3  20    3.06   456.4    4.3      33.275
2013    7        8     3  27    3.06   456.3    4.3      33.235
2013    7        8     3  33    3.05   456.1    4.3      33.195
2013    7        8     3  40    3.05   455.9    4.3      33.155
2013    7        8     3  46    3.05   455.7    4.3      33.116
2013    7        8     3  53    3.05   455.5    4.3      33.076
2013    7        8     3  59    3.04   455.4    4.3      33.037
2013    7        8     4   5    3.04   455.2    4.3      32.997
2013    7        8     4  12    3.04   455.0    4.3      32.958
2013    7        8     4  18    3.03   454.8    4.3      32.918
2013    7        8     4  25    3.03   454.7    4.3      32.879
2013    7        8     4  31    3.03   454.5    4.3      32.839
2013    7        8     4  37    3.02   454.3    4.3      32.800
2013    7        8     4  44    3.02   454.1    4.3      32.760
2013    7        8     4  50    3.02   453.9    4.3      32.721
2013    7        8     4  57    3.02   453.8    4.3      32.682
2013    7        8     5   3    3.01   453.6    4.3      32.642
2013    7        8     5  10    3.01   453.4    4.3      32.602
2013    7        8     5  16    3.01   453.2    4.3      32.563
2013    7        8     5  22    3.00   453.0    4.3      32.523
2013    7        8     5  29    3.00   452.8    4.3      32.483
2013    7        8     5  35    3.00   452.6    4.3      32.443
2013    7        8     5  42    2.99   452.5    4.3      32.403
2013    7        8     5  48    2.99   452.3    4.3      32.362
2013    7        8     5  54    2.99   452.1    4.3      32.322
2013    7        8     6   1    2.99   451.9    4.3      32.281
2013    7        8     6   7    2.98   451.7    4.3      32.240
2013    7        8     6  14    2.98   451.5    4.3      32.199
2013    7        8     6  20    2.98   451.3    4.3      32.158
2013    7        8     6  26    2.97   451.1    4.3      32.116
2013    7        8     6  33    2.97   450.9    4.3      32.075
2013    7        8     6  39    2.97   450.7    4.3      32.033
2013    7        8     6  46    2.96   450.5    4.3      31.992
2013    7        8     6  52    2.96   450.3    4.3      31.949
2013    7        8     6  59    2.96   450.2    4.3      31.907
2013    7        8     7   5    2.96   450.0    4.3      31.865
2013    7        8     7  11    2.95   449.8    4.3      31.823
2013    7        8     7  18    2.95   449.6    4.3      31.780
2013    7        8     7  24    2.95   449.4    4.3      31.737
2013    7        8     7  31    2.94   449.2    4.3      31.694
2013    7        8     7  37    2.94   449.0    4.3      31.651
2013    7        8     7  43    2.94   448.8    4.3      31.607
2013    7        8     7  50    2.93   448.5    4.3      31.564
2013    7        8     7  56    2.93   448.3    4.3      31.520
2013    7        8     8   3    2.93   448.1    4.3      31.476
2013    7        8     8   9    2.93   447.9    4.3      31.432
2013    7        8     8  16    2.92   447.7    4.3      31.388
2013    7        8     8  22    2.92   447.5    4.3      31.344
2013    7        8     8  28    2.92   447.3    4.3      31.299
2013    7        8     8  35    2.91   447.1    4.3      31.255
2013    7        8     8  41    2.91   446.9    4.3      31.210
2013    7        8     8  48    2.91   446.7    4.3      31.166
2013    7        8     8  54    2.91   446.5    4.3      31.121
2013    7        8     9   1    2.90   446.2    4.3      31.077
2013    7        8     9   7    2.90   446.0    4.3      31.032
2013    7        8     9  13    2.90   445.8    4.3      30.987
2013    7        8     9  20    2.89   445.6    4.3      30.943
2013    7        8     9  26    2.89   445.4    4.3      30.898
2013    7        8     9  33    2.89   445.2    4.3      30.854
2013    7        8     9  39    2.89   445.0    4.3      30.810
2013    7        8     9  46    2.88   444.7    4.3      30.766
2013    7        8     9  52    2.88   444.5    4.3      30.721
2013    7        8     9  58    2.88   444.3    4.3      30.678
2013    7        8    10   5    2.88   444.1    4.3      30.634
2013    7        8    10  11    2.87   443.9    4.3      30.590
2013    7        8    10  18    2.87   443.6    4.3      30.547
2013    7        8    10  24    2.87   443.4    4.3      30.504
2013    7        8    10  30    2.87   443.2    4.3      30.461
2013    7        8    10  37    2.86   443.0    4.3      30.418
2013    7        8    10  43    2.86   442.8    4.3      30.376
2013    7        8    10  50    2.86   442.5    4.3      30.334
2013    7        8    10  56    2.86   442.3    4.3      30.292
2013    7        8    11   3    2.85   442.1    4.3      30.250
2013    7        8    11   9    2.85   441.9    4.3      30.208
2013    7        8    11  15    2.85   441.6    4.3      30.167
2013    7        8    11  22    2.85   441.4    4.3      30.126
2013    7        8    11  28    2.84   441.2    4.3      30.085
2013    7        8    11  35    2.84   441.0    4.3      30.044
2013    7        8    11  41    2.84   440.8    4.3      30.003
2013    7        8    11  48    2.84   440.5    4.3      29.962
2013    7        8    11  54    2.83   440.3    4.3      29.922
2013    7        8    12   0    2.83   440.1    4.3      29.881
2013    7        8    12   7    2.83   439.9    4.3      29.840
2013    7        8    12  13    2.83   439.6    4.3      29.799
2013    7        8    12  20    2.83   439.4    4.3      29.758
2013    7        8    12  26    2.82   439.2    4.3      29.717
2013    7        8    12  32    2.82   439.0    4.3      29.676
2013    7        8    12  39    2.82   438.8    4.2      29.635
2013    7        8    12  45    2.82   438.5    4.2      29.594
2013    7        8    12  52    2.81   438.3    4.2      29.553
2013    7        8    12  58    2.81   438.1    4.2      29.512
2013    7        8    13   5    2.81   437.9    4.2      29.470
2013    7        8    13  11    2.81   437.6    4.2      29.429
2013    7        8    13  17    2.80   437.4    4.2      29.387
2013    7        8    13  24    2.80   437.2    4.2      29.346
2013    7        8    13  30    2.80   437.0    4.2      29.304
2013    7        8    13  37    2.80   436.7    4.2      29.263
2013    7        8    13  43    2.80   436.5    4.2      29.221
2013    7        8    13  49    2.79   436.3    4.2      29.179
2013    7        8    13  56    2.79   436.1    4.2      29.137
2013    7        8    14   2    2.79   435.9    4.2      29.095
2013    7        8    14   9    2.79   435.6    4.2      29.053
2013    7        8    14  15    2.78   435.4    4.2      29.011
2013    7        8    14  21    2.78   435.2    4.2      28.969
2013    7        8    14  28    2.78   435.0    4.2      28.926
2013    7        8    14  34    2.78   434.7    4.2      28.884
2013    7        8    14  41    2.78   434.5    4.2      28.842
2013    7        8    14  47    2.77   434.3    4.2      28.799
2013    7        8    14  53    2.77   434.0    4.2      28.757
2013    7        8    15   0    2.77   433.8    4.2      28.714
2013    7        8    15   6    2.77   433.6    4.2      28.672
2013    7        8    15  13    2.76   433.4    4.2      28.630
2013    7        8    15  19    2.76   433.1    4.2      28.587
2013    7        8    15  26    2.76   432.9    4.2      28.545
2013    7        8    15  32    2.76   432.7    4.2      28.503
2013    7        8    15  38    2.75   432.4    4.2      28.460
2013    7        8    15  45    2.75   432.2    4.2      28.418
2013    7        8    15  51    2.75   432.0    4.2      28.376
2013    7        8    15  58    2.75   431.8    4.2      28.334
2013    7        8    16   4    2.75   431.5    4.2      28.292
2013    7        8    16  11    2.74   431.3    4.2      28.251
2013    7        8    16  17    2.74   431.1    4.2      28.209
2013    7        8    16  23    2.74   430.8    4.2      28.168
2013    7        8    16  30    2.74   430.6    4.2      28.126
2013    7        8    16  36    2.74   430.4    4.2      28.085
2013    7        8    16  43    2.73   430.1    4.2      28.044
2013    7        8    16  49    2.73   429.9    4.2      28.003
2013    7        8    16  56    2.73   429.7    4.2      27.962
2013    7        8    17   2    2.73   429.4    4.2      27.922
2013    7        8    17   8    2.73   429.2    4.2      27.881
2013    7        8    17  15    2.72   429.0    4.2      27.841
2013    7        8    17  21    2.72   428.7    4.2      27.801
2013    7        8    17  28    2.72   428.5    4.2      27.761
2013    7        8    17  34    2.72   428.2    4.2      27.721
2013    7        8    17  41    2.72   428.0    4.2      27.681
2013    7        8    17  47    2.71   427.8    4.2      27.641
2013    7        8    17  53    2.71   427.5    4.2      27.602
2013    7        8    18   0    2.71   427.3    4.2      27.562
2013    7        8    18   6    2.71   427.1    4.2      27.523
2013    7        8    18  13    2.71   426.8    4.2      27.483
2013    7        8    18  19    2.70   426.6    4.2      27.444
2013    7        8    18  25    2.70   426.3    4.2      27.404
2013    7        8    18  32    2.70   426.1    4.2      27.365
2013    7        8    18  38    2.70   425.9    4.2      27.326
2013    7        8    18  45    2.70   425.6    4.2      27.287
2013    7        8    18  51    2.69   425.4    4.2      27.247
2013    7        8    18  58    2.69   425.1    4.2      27.208
2013    7        8    19   4    2.69   424.9    4.2      27.169
2013    7        8    19  10    2.69   424.6    4.2      27.130
2013    7        8    19  17    2.69   424.4    4.2      27.090
2013    7        8    19  23    2.69   424.1    4.2      27.051
2013    7        8    19  30    2.68   423.9    4.2      27.012
2013    7        8    19  36    2.68   423.7    4.2      26.973
2013    7        8    19  42    2.68   423.4    4.2      26.933
2013    7        8    19  49    2.68   423.2    4.2      26.894
2013    7        8    19  55    2.68   422.9    4.2      26.855
2013    7        8    20   2    2.68   422.7    4.2      26.816
2013    7        8    20   8    2.67   422.4    4.2      26.777
2013    7        8    20  15    2.67   422.2    4.2      26.738
2013    7        8    20  21    2.67   421.9    4.2      26.699
2013    7        8    20  27    2.67   421.7    4.2      26.660
2013    7        8    20  34    2.67   421.4    4.2      26.621
2013    7        8    20  40    2.67   421.2    4.2      26.582
2013    7        8    20  47    2.66   420.9    4.2      26.544
2013    7        8    20  53    2.66   420.7    4.2      26.505
2013    7        8    20  59    2.66   420.4    4.2      26.467
2013    7        8    21   6    2.66   420.2    4.2      26.428
2013    7        8    21  12    2.66   419.9    4.2      26.390
2013    7        8    21  19    2.66   419.7    4.2      26.352
2013    7        8    21  25    2.65   419.4    4.2      26.314
2013    7        8    21  31    2.65   419.2    4.2      26.276
2013    7        8    21  38    2.65   418.9    4.2      26.238
2013    7        8    21  44    2.65   418.7    4.2      26.201
2013    7        8    21  51    2.65   418.4    4.2      26.163
2013    7        8    21  57    2.65   418.2    4.2      26.126
2013    7        8    22   3    2.65   417.9    4.2      26.089
2013    7        8    22  10    2.64   417.7    4.2      26.052
2013    7        8    22  16    2.64   417.4    4.2      26.014
2013    7        8    22  23    2.64   417.2    4.2      25.978
2013    7        8    22  29    2.64   416.9    4.2      25.941
2013    7        8    22  36    2.64   416.6    4.2      25.904
2013    7        8    22  42    2.64   416.4    4.2      25.868
2013    7        8    22  48    2.64   416.1    4.2      25.832
2013    7        8    22  55    2.63   415.9    4.2      25.795
2013    7        8    23   1    2.63   415.6    4.2      25.759
2013    7        8    23   8    2.63   415.4    4.2      25.723
2013    7        8    23  14    2.63   415.1    4.2      25.688
2013    7        8    23  21    2.63   414.9    4.2      25.652
2013    7        8    23  27    2.63   414.6    4.2      25.616
2013    7        8    23  33    2.63   414.4    4.2      25.581
2013    7        8    23  40    2.62   414.1    4.2      25.545
2013    7        8    23  46    2.62   413.8    4.2      25.510
2013    7        8    23  53    2.62   413.6    4.2      25.475
2013    7        8    23  59    2.62   413.3    4.2      25.440
2013    7        9     0   5    2.62   413.1    4.2      25.405
2013    7        9     0  12    2.62   412.8    4.2      25.371
2013    7        9     0  18    2.62   412.6    4.2      25.336
2013    7        9     0  25    2.62   412.3    4.2      25.301
2013    7        9     0  31    2.62   412.0    4.2      25.267
2013    7        9     0  38    2.61   411.8    4.2      25.233
2013    7        9     0  44    2.61   411.5    4.2      25.199
2013    7        9     0  50    2.61   411.3    4.2      25.165
2013    7        9     0  57    2.61   411.0    4.2      25.131
2013    7        9     1   3    2.61   410.8    4.2      25.097
2013    7        9     1  10    2.61   410.5    4.2      25.063
2013    7        9     1  16    2.61   410.2    4.2      25.030
2013    7        9     1  23    2.61   410.0    4.2      24.996
2013    7        9     1  29    2.61   409.7    4.2      24.963
2013    7        9     1  35    2.60   409.5    4.2      24.930
2013    7        9     1  42    2.60   409.2    4.2      24.897
2013    7        9     1  48    2.60   408.9    4.2      24.864
2013    7        9     1  55    2.60   408.7    4.2      24.831
2013    7        9     2   1    2.60   408.4    4.2      24.799
2013    7        9     2   7    2.60   408.2    4.2      24.766
2013    7        9     2  14    2.60   407.9    4.3      24.734
2013    7        9     2  20    2.60   407.6    4.3      24.702
2013    7        9     2  27    2.60   407.4    4.3      24.671
2013    7        9     2  33    2.60   407.1    4.3      24.639
2013    7        9     2  40    2.60   406.8    4.3      24.607
2013    7        9     2  46    2.59   406.6    4.3      24.576
2013    7        9     2  52    2.59   406.3    4.3      24.545
2013    7        9     2  59    2.59   406.0    4.3      24.514
2013    7        9     3   5    2.59   405.8    4.3      24.483
2013    7        9     3  12    2.59   405.5    4.3      24.452
2013    7        9     3  18    2.59   405.2    4.3      24.422
2013    7        9     3  24    2.59   405.0    4.3      24.391
2013    7        9     3  31    2.59   404.7    4.3      24.361
2013    7        9     3  37    2.59   404.4    4.3      24.331
2013    7        9     3  44    2.59   404.2    4.3      24.302
2013    7        9     3  50    2.59   403.9    4.3      24.272
2013    7        9     3  56    2.59   403.6    4.3      24.242
2013    7        9     4   3    2.59   403.4    4.3      24.213
2013    7        9     4   9    2.59   403.1    4.3      24.184
2013    7        9     4  16    2.59   402.8    4.3      24.155
2013    7        9     4  22    2.59   402.6    4.3      24.126
2013    7        9     4  28    2.58   402.3    4.3      24.097
2013    7        9     4  35    2.58   402.0    4.3      24.069
2013    7        9     4  41    2.58   401.8    4.3      24.041
2013    7        9     4  48    2.58   401.5    4.3      24.012
2013    7        9     4  54    2.58   401.2    4.3      23.984
2013    7        9     5   1    2.58   400.9    4.3      23.957
2013    7        9     5   7    2.58   400.7    4.3      23.929
2013    7        9     5  13    2.58   400.4    4.3      23.901
2013    7        9     5  20    2.58   400.1    4.3      23.874
2013    7        9     5  26    2.58   399.8    4.3      23.847
2013    7        9     5  33    2.58   399.6    4.3      23.819
2013    7        9     5  39    2.58   399.3    4.3      23.793
2013    7        9     5  45    2.58   399.0    4.3      23.766
2013    7        9     5  52    2.58   398.8    4.3      23.739
2013    7        9     5  58    2.58   398.5    4.3      23.712
2013    7        9     6   5    2.58   398.2    4.4      23.686
2013    7        9     6  11    2.58   397.9    4.4      23.660
2013    7        9     6  18    2.58   397.7    4.4      23.633
2013    7        9     6  24    2.58   397.4    4.4      23.607
2013    7        9     6  30    2.58   397.1    4.4      23.581
2013    7        9     6  37    2.58   396.8    4.4      23.555
2013    7        9     6  43    2.58   396.6    4.4      23.530
2013    7        9     6  50    2.58   396.3    4.4      23.504
2013    7        9     6  56    2.58   396.0    4.4      23.479
2013    7        9     7   3    2.58   395.7    4.4      23.453
2013    7        9     7   9    2.58   395.5    4.4      23.428
2013    7        9     7  15    2.58   395.2    4.4      23.402
2013    7        9     7  22    2.58   394.9    4.4      23.377
2013    7        9     7  28    2.58   394.6    4.4      23.352
2013    7        9     7  35    2.58   394.4    4.4      23.327
2013    7        9     7  41    2.58   394.1    4.4      23.302
2013    7        9     7  47    2.58   393.8    4.4      23.278
2013    7        9     7  54    2.58   393.5    4.4      23.253
2013    7        9     8   0    2.58   393.3    4.4      23.229
2013    7        9     8   7    2.58   393.0    4.4      23.204
2013    7        9     8  13    2.58   392.7    4.4      23.180
2013    7        9     8  20    2.59   392.4    4.4      23.156
2013    7        9     8  26    2.59   392.2    4.4      23.132
2013    7        9     8  32    2.59   391.9    4.5      23.108
2013    7        9     8  39    2.59   391.6    4.5      23.085
2013    7        9     8  45    2.59   391.3    4.5      23.061
2013    7        9     8  52    2.59   391.1    4.5      23.038
2013    7        9     8  58    2.59   390.8    4.5      23.014
2013    7        9     9   4    2.59   390.5    4.5      22.992
2013    7        9     9  11    2.59   390.2    4.5      22.969
2013    7        9     9  17    2.59   390.0    4.5      22.946
2013    7        9     9  24    2.59   389.7    4.5      22.924
2013    7        9     9  30    2.59   389.4    4.5      22.901
2013    7        9     9  37    2.59   389.2    4.5      22.879
2013    7        9     9  43    2.59   388.9    4.5      22.858
2013    7        9     9  49    2.59   388.6    4.5      22.836
2013    7        9     9  56    2.60   388.3    4.5      22.815
2013    7        9    10   2    2.60   388.1    4.5      22.794
2013    7        9    10   9    2.60   387.8    4.5      22.773
2013    7        9    10  15    2.60   387.5    4.5      22.752
2013    7        9    10  21    2.60   387.3    4.5      22.732
2013    7        9    10  28    2.60   387.0    4.6      22.712
2013    7        9    10  34    2.60   386.7    4.6      22.693
2013    7        9    10  41    2.60   386.5    4.6      22.673
2013    7        9    10  47    2.60   386.2    4.6      22.654
2013    7        9    10  53    2.61   385.9    4.6      22.635
2013    7        9    11   0    2.61   385.7    4.6      22.617
2013    7        9    11   6    2.61   385.4    4.6      22.599
2013    7        9    11  13    2.61   385.1    4.6      22.581
2013    7        9    11  19    2.61   384.9    4.6      22.563
2013    7        9    11  25    2.61   384.6    4.6      22.546
2013    7        9    11  32    2.62   384.3    4.6      22.529
2013    7        9    11  38    2.62   384.1    4.6      22.513
2013    7        9    11  45    2.62   383.8    4.6      22.497
2013    7        9    11  51    2.62   383.5    4.6      22.481
2013    7        9    11  57    2.62   383.3    4.7      22.466
2013    7        9    12   4    2.62   383.0    4.7      22.451
2013    7        9    12  10    2.63   382.8    4.7      22.436
2013    7        9    12  17    2.63   382.5    4.7      22.421
2013    7        9    12  23    2.63   382.3    4.7      22.407
2013    7        9    12  29    2.63   382.0    4.7      22.394
2013    7        9    12  36    2.63   381.7    4.7      22.380
2013    7        9    12  42    2.64   381.5    4.7      22.367
2013    7        9    12  49    2.64   381.2    4.7      22.354
2013    7        9    12  55    2.64   381.0    4.7      22.342
2013    7        9    13   2    2.64   380.7    4.7      22.330
2013    7        9    13   8    2.65   380.5    4.7      22.318
2013    7        9    13  14    2.65   380.2    4.8      22.306
2013    7        9    13  21    2.65   380.0    4.8      22.295
2013    7        9    13  27    2.65   379.7    4.8      22.283
2013    7        9    13  34    2.66   379.5    4.8      22.273
2013    7        9    13  40    2.66   379.3    4.8      22.262
2013    7        9    13  47    2.66   379.0    4.8      22.251
2013    7        9    13  53    2.66   378.8    4.8      22.241
2013    7        9    13  59    2.67   378.5    4.8      22.231
2013    7        9    14   6    2.67   378.3    4.8      22.221
2013    7        9    14  12    2.67   378.0    4.8      22.211
2013    7        9    14  19    2.67   377.8    4.9      22.202
2013    7        9    14  25    2.68   377.6    4.9      22.192
2013    7        9    14  32    2.68   377.3    4.9      22.183
2013    7        9    14  38    2.68   377.1    4.9      22.174
2013    7        9    14  44    2.69   376.8    4.9      22.165
2013    7        9    14  51    2.69   376.6    4.9      22.156
2013    7        9    14  57    2.69   376.4    4.9      22.148
2013    7        9    15   4    2.70   376.1    4.9      22.139
2013    7        9    15  10    2.70   375.9    4.9      22.131
2013    7        9    15  16    2.70   375.7    5.0      22.122
2013    7        9    15  23    2.70   375.4    5.0      22.114
2013    7        9    15  29    2.71   375.2    5.0      22.106
2013    7        9    15  36    2.71   375.0    5.0      22.098
2013    7        9    15  42    2.71   374.7    5.0      22.090
2013    7        9    15  49    2.72   374.5    5.0      22.082
2013    7        9    15  55    2.72   374.3    5.0      22.075
2013    7        9    16   1    2.72   374.0    5.0      22.067
2013    7        9    16   8    2.73   373.8    5.0      22.060
2013    7        9    16  14    2.73   373.6    5.1      22.052
2013    7        9    16  21    2.74   373.3    5.1      22.045
2013    7        9    16  27    2.74   373.1    5.1      22.038
2013    7        9    16  33    2.74   372.9    5.1      22.031
2013    7        9    16  40    2.75   372.7    5.1      22.024
2013    7        9    16  46    2.75   372.4    5.1      22.017
2013    7        9    16  53    2.75   372.2    5.1      22.010
2013    7        9    16  59    2.76   372.0    5.1      22.004
2013    7        9    17   6    2.76   371.8    5.2      21.997
2013    7        9    17  12    2.76   371.5    5.2      21.991
2013    7        9    17  18    2.77   371.3    5.2      21.985
2013    7        9    17  25    2.77   371.1    5.2      21.979
2013    7        9    17  31    2.78   370.9    5.2      21.973
2013    7        9    17  38    2.78   370.7    5.2      21.968
2013    7        9    17  44    2.78   370.5    5.2      21.962
2013    7        9    17  50    2.79   370.2    5.2      21.957
2013    7        9    17  57    2.79   370.0    5.2      21.952
2013    7        9    18   3    2.80   369.8    5.3      21.947
2013    7        9    18  10    2.80   369.6    5.3      21.943
2013    7        9    18  16    2.80   369.4    5.3      21.939
2013    7        9    18  22    2.81   369.2    5.3      21.935
2013    7        9    18  29    2.81   369.0    5.3      21.931
2013    7        9    18  35    2.82   368.7    5.3      21.928
2013    7        9    18  42    2.82   368.5    5.3      21.925
2013    7        9    18  48    2.83   368.3    5.4      21.922
2013    7        9    18  54    2.83   368.1    5.4      21.920
2013    7        9    19   1    2.84   367.9    5.4      21.918
2013    7        9    19   7    2.84   367.7    5.4      21.916
2013    7        9    19  14    2.84   367.5    5.4      21.915
2013    7        9    19  20    2.85   367.3    5.4      21.914
2013    7        9    19  26    2.85   367.1    5.4      21.913
2013    7        9    19  33    2.86   366.9    5.4      21.913
2013    7        9    19  39    2.86   366.7    5.5      21.913
2013    7        9    19  46    2.87   366.5    5.5      21.914
2013    7        9    19  52    2.87   366.3    5.5      21.915
2013    7        9    19  58    2.88   366.1    5.5      21.917
2013    7        9    20   5    2.88   365.9    5.5      21.919
2013    7        9    20  11    2.89   365.7    5.5      21.921
2013    7        9    20  18    2.89   365.6    5.6      21.924
2013    7        9    20  24    2.90   365.4    5.6      21.927
2013    7        9    20  31    2.90   365.2    5.6      21.930
2013    7        9    20  37    2.91   365.0    5.6      21.934
2013    7        9    20  43    2.91   364.8    5.6      21.939
2013    7        9    20  50    2.92   364.6    5.6      21.944
2013    7        9    20  56    2.92   364.5    5.7      21.949
2013    7        9    21   3    2.93   364.3    5.7      21.954
2013    7        9    21   9    2.94   364.1    5.7      21.960
2013    7        9    21  15    2.94   363.9    5.7      21.967
2013    7        9    21  22    2.95   363.8    5.7      21.973
2013    7        9    21  28    2.95   363.6    5.7      21.980
2013    7        9    21  35    2.96   363.4    5.8      21.988
2013    7        9    21  41    2.96   363.2    5.8      21.995
2013    7        9    21  48    2.97   363.1    5.8      22.003
2013    7        9    21  54    2.97   362.9    5.8      22.011
2013    7        9    22   0    2.98   362.7    5.8      22.020
2013    7        9    22   7    2.99   362.6    5.8      22.028
2013    7        9    22  13    2.99   362.4    5.9      22.037
2013    7        9    22  20    3.00   362.3    5.9      22.046
2013    7        9    22  26    3.00   362.1    5.9      22.056
2013    7        9    22  33    3.01   361.9    5.9      22.066
2013    7        9    22  39    3.02   361.8    5.9      22.075
2013    7        9    22  45    3.02   361.6    6.0      22.086
2013    7        9    22  52    3.03   361.5    6.0      22.096
2013    7        9    22  58    3.03   361.3    6.0      22.106
2013    7        9    23   5    3.04   361.2    6.0      22.117
2013    7        9    23  11    3.04   361.0    6.0      22.128
2013    7        9    23  17    3.05   360.9    6.0      22.140
2013    7        9    23  24    3.06   360.7    6.1      22.151
2013    7        9    23  30    3.06   360.6    6.1      22.163
2013    7        9    23  37    3.07   360.4    6.1      22.175
2013    7        9    23  43    3.08   360.3    6.1      22.187
2013    7        9    23  50    3.08   360.1    6.1      22.200
2013    7        9    23  56    3.09   360.0    6.2      22.212
2013    7       10     0   2    3.09   359.9    6.2      22.225
2013    7       10     0   9    3.10   359.7    6.2      22.238
2013    7       10     0  15    3.11   359.6    6.2      22.252
2013    7       10     0  22    3.11   359.4    6.2      22.265
2013    7       10     0  28    3.12   359.3    6.2      22.279
2013    7       10     0  34    3.12   359.2    6.3      22.293
2013    7       10     0  41    3.13   359.0    6.3      22.308
2013    7       10     0  47    3.14   358.9    6.3      22.322
2013    7       10     0  54    3.14   358.8    6.3      22.337
2013    7       10     1   0    3.15   358.6    6.3      22.352
2013    7       10     1   6    3.16   358.5    6.3      22.367
2013    7       10     1  13    3.16   358.4    6.4      22.383
2013    7       10     1  19    3.17   358.2    6.4      22.398
2013    7       10     1  26    3.18   358.1    6.4      22.414
2013    7       10     1  32    3.18   358.0    6.4      22.430
2013    7       10     1  39    3.19   357.8    6.4      22.446
2013    7       10     1  45    3.20   357.7    6.4      22.463
2013    7       10     1  51    3.20   357.6    6.5      22.480
2013    7       10     1  58    3.21   357.5    6.5      22.497
2013    7       10     2   4    3.21   357.4    6.5      22.514
2013    7       10     2  11    3.22   357.2    6.5      22.531
2013    7       10     2  17    3.23   357.1    6.5      22.548
2013    7       10     2  23    3.23   357.0    6.5      22.566
2013    7       10     2  30    3.24   356.9    6.6      22.584
2013    7       10     2  36    3.25   356.8    6.6      22.602
2013    7       10     2  43    3.25   356.6    6.6      22.620
2013    7       10     2  49    3.26   356.5    6.6      22.639
2013    7       10     2  55    3.27   356.4    6.6      22.658
2013    7       10     3   2    3.28   356.3    6.6      22.677
2013    7       10     3   8    3.28   356.2    6.7      22.696
2013    7       10     3  15    3.29   356.1    6.7      22.716
2013    7       10     3  21    3.30   356.0    6.7      22.735
2013    7       10     3  27    3.30   355.9    6.7      22.755
2013    7       10     3  34    3.31   355.8    6.7      22.776
2013    7       10     3  40    3.32   355.6    6.8      22.796
2013    7       10     3  47    3.32   355.5    6.8      22.817
2013    7       10     3  53    3.33   355.4    6.8      22.838
2013    7       10     3  59    3.34   355.3    6.8      22.860
2013    7       10     4   6    3.34   355.2    6.8      22.881
2013    7       10     4  12    3.35   355.1    6.8      22.903
2013    7       10     4  19    3.36   355.0    6.9      22.926
2013    7       10     4  25    3.37   354.9    6.9      22.948
2013    7       10     4  32    3.37   354.8    6.9      22.971
2013    7       10     4  38    3.38   354.7    6.9      22.994
2013    7       10     4  44    3.39   354.6    6.9      23.018
2013    7       10     4  51    3.39   354.6    6.9      23.042
2013    7       10     4  57    3.40   354.5    7.0      23.066
2013    7       10     5   4    3.41   354.4    7.0      23.090
2013    7       10     5  10    3.42   354.3    7.0      23.115
2013    7       10     5  17    3.42   354.2    7.0      23.140
2013    7       10     5  23    3.43   354.1    7.0      23.165
2013    7       10     5  29    3.44   354.0    7.1      23.190
2013    7       10     5  36    3.44   353.9    7.1      23.216
2013    7       10     5  42    3.45   353.9    7.1      23.242
2013    7       10     5  49    3.46   353.8    7.1      23.268
2013    7       10     5  55    3.47   353.7    7.1      23.294
2013    7       10     6   1    3.47   353.6    7.2      23.321
2013    7       10     6   8    3.48   353.5    7.2      23.348
2013    7       10     6  14    3.49   353.5    7.2      23.375
2013    7       10     6  21    3.50   353.4    7.2      23.402
2013    7       10     6  27    3.50   353.3    7.2      23.430
2013    7       10     6  34    3.51   353.2    7.2      23.457
2013    7       10     6  40    3.52   353.2    7.3      23.485
2013    7       10     6  46    3.53   353.1    7.3      23.513
2013    7       10     6  53    3.53   353.0    7.3      23.541
2013    7       10     6  59    3.54   352.9    7.3      23.570
2013    7       10     7   6    3.55   352.9    7.3      23.598
2013    7       10     7  12    3.56   352.8    7.4      23.627
2013    7       10     7  18    3.57   352.7    7.4      23.656
2013    7       10     7  25    3.57   352.7    7.4      23.685
2013    7       10     7  31    3.58   352.6    7.4      23.714
2013    7       10     7  38    3.59   352.6    7.4      23.743
2013    7       10     7  44    3.60   352.5    7.5      23.772
2013    7       10     7  51    3.60   352.4    7.5      23.802
2013    7       10     7  57    3.61   352.4    7.5      23.832
2013    7       10     8   3    3.62   352.3    7.5      23.862
2013    7       10     8  10    3.63   352.3    7.5      23.892
2013    7       10     8  16    3.64   352.2    7.6      23.923
2013    7       10     8  23    3.64   352.2    7.6      23.955
2013    7       10     8  29    3.65   352.1    7.6      23.987
2013    7       10     8  35    3.66   352.1    7.6      24.019
2013    7       10     8  42    3.67   352.0    7.6      24.052
2013    7       10     8  48    3.68   352.0    7.7      24.086
2013    7       10     8  55    3.68   351.9    7.7      24.120
2013    7       10     9   1    3.69   351.9    7.7      24.154
2013    7       10     9   7    3.70   351.8    7.7      24.189
2013    7       10     9  14    3.71   351.8    7.7      24.225
2013    7       10     9  20    3.71   351.8    7.8      24.260
2013    7       10     9  27    3.72   351.7    7.8      24.296
2013    7       10     9  33    3.73   351.7    7.8      24.333
2013    7       10     9  39    3.74   351.6    7.8      24.369
2013    7       10     9  46    3.75   351.6    7.8      24.406
2013    7       10     9  52    3.75   351.6    7.9      24.442
2013    7       10     9  59    3.76   351.5    7.9      24.479
2013    7       10    10   5    3.77   351.5    7.9      24.516
2013    7       10    10  11    3.78   351.5    7.9      24.553
2013    7       10    10  18    3.78   351.4    7.9      24.589
2013    7       10    10  24    3.79   351.4    7.9      24.626
2013    7       10    10  31    3.80   351.4    8.0      24.662
2013    7       10    10  37    3.81   351.4    8.0      24.698
2013    7       10    10  43    3.81   351.3    8.0      24.734
2013    7       10    10  50    3.82   351.3    8.0      24.770
2013    7       10    10  56    3.83   351.3    8.0      24.806
2013    7       10    11   3    3.84   351.2    8.1      24.841
2013    7       10    11   9    3.84   351.2    8.1      24.876
2013    7       10    11  16    3.85   351.2    8.1      24.912
2013    7       10    11  22    3.86   351.2    8.1      24.947
2013    7       10    11  28    3.86   351.1    8.1      24.982
2013    7       10    11  35    3.87   351.1    8.1      25.017
2013    7       10    11  41    3.88   351.1    8.2      25.051
2013    7       10    11  48    3.89   351.1    8.2      25.086
2013    7       10    11  54    3.89   351.0    8.2      25.120
2013    7       10    12   1    3.90   351.0    8.2      25.155
2013    7       10    12   7    3.91   351.0    8.2      25.189
2013    7       10    12  13    3.92   351.0    8.2      25.223
2013    7       10    12  20    3.92   351.0    8.3      25.257
2013    7       10    12  26    3.93   350.9    8.3      25.291
2013    7       10    12  33    3.94   350.9    8.3      25.324
2013    7       10    12  39    3.94   350.9    8.3      25.358
2013    7       10    12  45    3.95   350.9    8.3      25.391
2013    7       10    12  52    3.96   350.9    8.3      25.425
2013    7       10    12  58    3.97   350.9    8.3      25.458
2013    7       10    13   5    3.97   350.8    8.4      25.492
2013    7       10    13  11    3.98   350.8    8.4      25.526
2013    7       10    13  18    3.99   350.8    8.4      25.559
2013    7       10    13  24    4.00   350.8    8.4      25.593
2013    7       10    13  30    4.00   350.8    8.4      25.627
2013    7       10    13  37    4.01   350.8    8.4      25.661
2013    7       10    13  43    4.02   350.8    8.5      25.696
2013    7       10    13  50    4.02   350.8    8.5      25.730
2013    7       10    13  56    4.03   350.7    8.5      25.765
2013    7       10    14   2    4.04   350.7    8.5      25.800
2013    7       10    14   9    4.05   350.7    8.5      25.835
2013    7       10    14  15    4.05   350.7    8.5      25.871
2013    7       10    14  22    4.06   350.7    8.6      25.907
2013    7       10    14  28    4.07   350.7    8.6      25.943
2013    7       10    14  34    4.08   350.7    8.6      25.979
2013    7       10    14  41    4.08   350.7    8.6      26.016
2013    7       10    14  47    4.09   350.7    8.6      26.052
2013    7       10    14  54    4.10   350.7    8.6      26.089
2013    7       10    15   0    4.11   350.7    8.7      26.126
2013    7       10    15   7    4.11   350.7    8.7      26.164
2013    7       10    15  13    4.12   350.7    8.7      26.201
2013    7       10    15  19    4.13   350.7    8.7      26.238
2013    7       10    15  26    4.14   350.7    8.7      26.276
2013    7       10    15  32    4.14   350.7    8.7      26.314
2013    7       10    15  39    4.15   350.7    8.8      26.352
2013    7       10    15  45    4.16   350.8    8.8      26.390
2013    7       10    15  51    4.17   350.8    8.8      26.428
2013    7       10    15  58    4.17   350.8    8.8      26.466
2013    7       10    16   4    4.18   350.8    8.8      26.504
2013    7       10    16  11    4.19   350.8    8.8      26.543
2013    7       10    16  17    4.20   350.8    8.9      26.581
2013    7       10    16  23    4.20   350.8    8.9      26.620
2013    7       10    16  30    4.21   350.8    8.9      26.659
2013    7       10    16  36    4.22   350.8    8.9      26.699
2013    7       10    16  43    4.23   350.8    8.9      26.740
2013    7       10    16  49    4.23   350.9    8.9      26.781
2013    7       10    16  55    4.24   350.9    9.0      26.823
2013    7       10    17   2    4.25   350.9    9.0      26.865
2013    7       10    17   8    4.26   350.9    9.0      26.907
2013    7       10    17  15    4.26   350.9    9.0      26.950
2013    7       10    17  21    4.27   351.0    9.0      26.993
2013    7       10    17  27    4.28   351.0    9.0      27.037
2013    7       10    17  34    4.29   351.0    9.1      27.080
2013    7       10    17  40    4.29   351.0    9.1      27.124
2013    7       10    17  47    4.30   351.1    9.1      27.168
2013    7       10    17  53    4.31   351.1    9.1      27.212
2013    7       10    17  59    4.32   351.1    9.1      27.256
2013    7       10    18   6    4.32   351.2    9.1      27.300
2013    7       10    18  12    4.33   351.2    9.2      27.343
2013    7       10    18  19    4.34   351.2    9.2      27.386
2013    7       10    18  25    4.34   351.3    9.2      27.428
2013    7       10    18  32    4.35   351.3    9.2      27.470
2013    7       10    18  38    4.36   351.3    9.2      27.512
2013    7       10    18  44    4.36   351.4    9.2      27.553
2013    7       10    18  51    4.37   351.4    9.2      27.594
2013    7       10    18  57    4.38   351.4    9.3      27.634
2013    7       10    19   4    4.38   351.5    9.3      27.674
2013    7       10    19  10    4.39   351.5    9.3      27.714
2013    7       10    19  16    4.40   351.5    9.3      27.753
2013    7       10    19  23    4.40   351.6    9.3      27.792
2013    7       10    19  29    4.41   351.6    9.3      27.830
2013    7       10    19  36    4.42   351.7    9.3      27.868
2013    7       10    19  42    4.42   351.7    9.3      27.905
2013    7       10    19  49    4.43   351.7    9.3      27.943
2013    7       10    19  55    4.43   351.8    9.4      27.979
2013    7       10    20   1    4.44   351.8    9.4      28.016
2013    7       10    20   8    4.45   351.8    9.4      28.052
2013    7       10    20  14    4.45   351.9    9.4      28.088
2013    7       10    20  21    4.46   351.9    9.4      28.123
2013    7       10    20  27    4.46   352.0    9.4      28.158
2013    7       10    20  34    4.47   352.0    9.4      28.193
2013    7       10    20  40    4.48   352.0    9.4      28.228
2013    7       10    20  46    4.48   352.1    9.4      28.262
2013    7       10    20  53    4.49   352.1    9.4      28.296
2013    7       10    20  59    4.49   352.2    9.5      28.330
2013    7       10    21   6    4.50   352.2    9.5      28.364
2013    7       10    21  12    4.50   352.2    9.5      28.397
2013    7       10    21  18    4.51   352.3    9.5      28.430
2013    7       10    21  25    4.52   352.3    9.5      28.463
2013    7       10    21  31    4.52   352.4    9.5      28.496
2013    7       10    21  38    4.53   352.4    9.5      28.529
2013    7       10    21  44    4.53   352.4    9.5      28.562
2013    7       10    21  50    4.54   352.5    9.5      28.595
2013    7       10    21  57    4.55   352.5    9.5      28.627
2013    7       10    22   3    4.55   352.6    9.6      28.660
2013    7       10    22  10    4.56   352.6    9.6      28.693
2013    7       10    22  16    4.56   352.7    9.6      28.725
2013    7       10    22  23    4.57   352.7    9.6      28.758
2013    7       10    22  29    4.58   352.7    9.6      28.791
2013    7       10    22  35    4.58   352.8    9.6      28.824
2013    7       10    22  42    4.59   352.8    9.6      28.857
2013    7       10    22  48    4.59   352.9    9.6      28.890
2013    7       10    22  55    4.60   352.9    9.6      28.923
2013    7       10    23   1    4.61   353.0    9.6      28.957
2013    7       10    23   7    4.61   353.0    9.7      28.991
2013    7       10    23  14    4.62   353.1    9.7      29.025
2013    7       10    23  20    4.62   353.1    9.7      29.059
2013    7       10    23  27    4.63   353.2    9.7      29.093
2013    7       10    23  33    4.64   353.2    9.7      29.128
2013    7       10    23  39    4.64   353.3    9.7      29.164
2013    7       10    23  46    4.65   353.3    9.7      29.199
2013    7       10    23  52    4.66   353.4    9.7      29.236
2013    7       10    23  59    4.66   353.4    9.8      29.274
2013    7       11     0   5    4.67   353.5    9.8      29.312
2013    7       11     0  11    4.68   353.6    9.8      29.352
2013    7       11     0  18    4.68   353.6    9.8      29.393
2013    7       11     0  24    4.69   353.7    9.8      29.435
2013    7       11     0  31    4.70   353.8    9.8      29.479
2013    7       11     0  37    4.70   353.8    9.9      29.523
2013    7       11     0  43    4.71   353.9    9.9      29.569
2013    7       11     0  50    4.72   354.0    9.9      29.616
2013    7       11     0  56    4.72   354.1    9.9      29.664
2013    7       11     1   3    4.73   354.1    9.9      29.713
2013    7       11     1   9    4.74   354.2    9.9      29.763
2013    7       11     1  15    4.74   354.3    9.9      29.813
2013    7       11     1  22    4.75   354.4   10.0      29.865
2013    7       11     1  28    4.76   354.5   10.0      29.916
2013    7       11     1  35    4.76   354.6   10.0      29.968
2013    7       11     1  41    4.77   354.7   10.0      30.019
2013    7       11     1  48    4.78   354.7   10.0      30.070
2013    7       11     1  54    4.78   354.8   10.0      30.120
2013    7       11     2   0    4.79   354.9   10.0      30.170
2013    7       11     2   7    4.79   355.0   10.1      30.219
2013    7       11     2  13    4.80   355.1   10.1      30.267
2013    7       11     2  20    4.80   355.2   10.1      30.314
2013    7       11     2  26    4.81   355.3   10.1      30.361
2013    7       11     2  32    4.82   355.4   10.1      30.406
2013    7       11     2  39    4.82   355.5   10.1      30.450
2013    7       11     2  45    4.83   355.6   10.1      30.492
2013    7       11     2  52    4.83   355.6   10.1      30.534
2013    7       11     2  58    4.84   355.7   10.1      30.575
2013    7       11     3   5    4.84   355.8   10.1      30.615
2013    7       11     3  11    4.85   355.9   10.1      30.654
2013    7       11     3  17    4.85   356.0   10.1      30.692
2013    7       11     3  24    4.85   356.1   10.1      30.730
2013    7       11     3  30    4.86   356.2   10.2      30.766
2013    7       11     3  37    4.86   356.3   10.2      30.802
2013    7       11     3  43    4.87   356.3   10.2      30.837
2013    7       11     3  49    4.87   356.4   10.2      30.871
2013    7       11     3  56    4.88   356.5   10.2      30.904
2013    7       11     4   2    4.88   356.6   10.2      30.937
2013    7       11     4   9    4.89   356.7   10.2      30.969
2013    7       11     4  15    4.89   356.8   10.2      31.001
2013    7       11     4  22    4.89   356.8   10.2      31.032
2013    7       11     4  28    4.90   356.9   10.2      31.062
2013    7       11     4  34    4.90   357.0   10.2      31.092
2013    7       11     4  41    4.91   357.1   10.2      31.122
2013    7       11     4  47    4.91   357.2   10.2      31.151
2013    7       11     4  54    4.92   357.3   10.2      31.180
2013    7       11     5   0    4.92   357.3   10.2      31.208
2013    7       11     5   6    4.92   357.4   10.2      31.236
2013    7       11     5  13    4.93   357.5   10.2      31.264
2013    7       11     5  19    4.93   357.6   10.2      31.291
2013    7       11     5  26    4.94   357.7   10.2      31.318
2013    7       11     5  32    4.94   357.7   10.2      31.345
2013    7       11     5  38    4.95   357.8   10.2      31.372
2013    7       11     5  45    4.95   357.9   10.2      31.398
2013    7       11     5  51    4.95   358.0   10.2      31.424
2013    7       11     5  58    4.96   358.1   10.2      31.451
2013    7       11     6   4    4.96   358.2   10.2      31.477
2013    7       11     6  10    4.97   358.2   10.2      31.503
2013    7       11     6  17    4.97   358.3   10.2      31.529
2013    7       11     6  23    4.98   358.4   10.2      31.555
2013    7       11     6  30    4.98   358.5   10.2      31.581
2013    7       11     6  36    4.98   358.6   10.2      31.608
2013    7       11     6  43    4.99   358.7   10.2      31.634
2013    7       11     6  49    4.99   358.7   10.2      31.661
2013    7       11     6  55    5.00   358.8   10.3      31.687
2013    7       11     7   2    5.00   358.9   10.3      31.714
2013    7       11     7   8    5.01   359.0   10.3      31.742
2013    7       11     7  15    5.01   359.1   10.3      31.769
2013    7       11     7  21    5.02   359.2   10.3      31.797
2013    7       11     7  27    5.02   359.3   10.3      31.825
2013    7       11     7  34    5.03   359.4   10.3      31.854
2013    7       11     7  40    5.03   359.4   10.3      31.884
2013    7       11     7  47    5.04   359.5   10.3      31.914
2013    7       11     7  53    5.04   359.6   10.3      31.945
2013    7       11     7  59    5.05   359.7   10.3      31.977
2013    7       11     8   6    5.05   359.8   10.3      32.011
2013    7       11     8  12    5.06   359.9   10.3      32.046
2013    7       11     8  19    5.06   360.0   10.3      32.081
2013    7       11     8  25    5.07   360.1   10.3      32.118
2013    7       11     8  31    5.07   360.3   10.4      32.156
2013    7       11     8  38    5.08   360.4   10.4      32.195
2013    7       11     8  44    5.08   360.5   10.4      32.234
2013    7       11     8  51    5.09   360.6   10.4      32.275
2013    7       11     8  57    5.09   360.7   10.4      32.316
2013    7       11     9   3    5.10   360.8   10.4      32.357
2013    7       11     9  10    5.10   360.9   10.4      32.400
2013    7       11     9  16    5.11   361.1   10.4      32.443
2013    7       11     9  23    5.11   361.2   10.4      32.486
2013    7       11     9  29    5.12   361.3   10.4      32.530
2013    7       11     9  36    5.12   361.4   10.4      32.574
2013    7       11     9  42    5.13   361.5   10.5      32.619
2013    7       11     9  48    5.13   361.7   10.5      32.663
2013    7       11     9  55    5.14   361.8   10.5      32.707
2013    7       11    10   1    5.14   361.9   10.5      32.752
2013    7       11    10   8    5.14   362.1   10.5      32.797
2013    7       11    10  14    5.15   362.2   10.5      32.842
2013    7       11    10  21    5.15   362.3   10.5      32.887
2013    7       11    10  27    5.16   362.5   10.5      32.932
2013    7       11    10  33    5.16   362.6   10.5      32.978
2013    7       11    10  40    5.16   362.7   10.5      33.022
2013    7       11    10  46    5.17   362.8   10.5      33.066
2013    7       11    10  53    5.17   363.0   10.5      33.110
2013    7       11    10  59    5.18   363.1   10.5      33.152
2013    7       11    11   5    5.18   363.2   10.5      33.194
2013    7       11    11  12    5.18   363.4   10.5      33.236
2013    7       11    11  18    5.19   363.5   10.5      33.277
2013    7       11    11  25    5.19   363.6   10.5      33.317
2013    7       11    11  31    5.19   363.8   10.5      33.356
2013    7       11    11  37    5.20   363.9   10.5      33.394
2013    7       11    11  44    5.20   364.0   10.5      33.431
2013    7       11    11  50    5.20   364.2   10.5      33.467
2013    7       11    11  57    5.21   364.3   10.5      33.501
2013    7       11    12   3    5.21   364.4   10.5      33.536
2013    7       11    12  10    5.21   364.5   10.5      33.569
2013    7       11    12  16    5.22   364.7   10.5      33.601
2013    7       11    12  22    5.22   364.8   10.5      33.632
2013    7       11    12  29    5.22   364.9   10.5      33.663
2013    7       11    12  35    5.22   365.0   10.5      33.693
2013    7       11    12  42    5.23   365.2   10.5      33.722
2013    7       11    12  48    5.23   365.3   10.5      33.750
2013    7       11    12  54    5.23   365.4   10.5      33.778
2013    7       11    13   1    5.24   365.5   10.5      33.805
2013    7       11    13   7    5.24   365.6   10.5      33.832
2013    7       11    13  14    5.24   365.8   10.5      33.858
2013    7       11    13  20    5.24   365.9   10.5      33.883
2013    7       11    13  26    5.25   366.0   10.5      33.908
2013    7       11    13  33    5.25   366.1   10.5      33.932
2013    7       11    13  39    5.25   366.2   10.5      33.956
2013    7       11    13  46    5.25   366.4   10.5      33.980
2013    7       11    13  52    5.26   366.5   10.5      34.003
2013    7       11    13  58    5.26   366.6   10.5      34.025
2013    7       11    14   5    5.26   366.7   10.5      34.048
2013    7       11    14  11    5.27   366.8   10.5      34.070
2013    7       11    14  18    5.27   366.9   10.5      34.092
2013    7       11    14  24    5.27   367.1   10.5      34.114
2013    7       11    14  30    5.27   367.2   10.5      34.135
2013    7       11    14  37    5.28   367.3   10.5      34.156
2013    7       11    14  43    5.28   367.4   10.5      34.178
2013    7       11    14  50    5.28   367.5   10.5      34.199
2013    7       11    14  56    5.28   367.6   10.5      34.220
2013    7       11    15   2    5.29   367.8   10.5      34.241
2013    7       11    15   9    5.29   367.9   10.5      34.262
2013    7       11    15  15    5.29   368.0   10.5      34.282
2013    7       11    15  22    5.30   368.1   10.5      34.303
2013    7       11    15  28    5.30   368.2   10.5      34.324
2013    7       11    15  35    5.30   368.3   10.5      34.345
2013    7       11    15  41    5.30   368.5   10.5      34.367
2013    7       11    15  47    5.31   368.6   10.5      34.388
2013    7       11    15  54    5.31   368.7   10.5      34.410
2013    7       11    16   0    5.31   368.8   10.5      34.431
2013    7       11    16   7    5.32   368.9   10.5      34.453
2013    7       11    16  13    5.32   369.0   10.5      34.475
2013    7       11    16  19    5.32   369.2   10.5      34.498
2013    7       11    16  26    5.32   369.3   10.5      34.521
2013    7       11    16  32    5.33   369.4   10.5      34.545
2013    7       11    16  39    5.33   369.5   10.5      34.570
2013    7       11    16  45    5.33   369.6   10.5      34.595
2013    7       11    16  52    5.34   369.8   10.5      34.621
2013    7       11    16  58    5.34   369.9   10.5      34.648
2013    7       11    17   4    5.34   370.0   10.5      34.675
2013    7       11    17  11    5.35   370.1   10.5      34.704
2013    7       11    17  17    5.35   370.2   10.5      34.734
2013    7       11    17  24    5.35   370.4   10.5      34.765
2013    7       11    17  30    5.36   370.5   10.5      34.797
2013    7       11    17  36    5.36   370.6   10.5      34.830
2013    7       11    17  43    5.36   370.8   10.5      34.865
2013    7       11    17  49    5.36   370.9   10.5      34.900
2013    7       11    17  56    5.37   371.0   10.5      34.936
2013    7       11    18   2    5.37   371.2   10.5      34.972
2013    7       11    18   9    5.37   371.3   10.5      35.009
2013    7       11    18  15    5.38   371.4   10.5      35.047
2013    7       11    18  21    5.38   371.6   10.5      35.086
2013    7       11    18  28    5.38   371.7   10.5      35.125
2013    7       11    18  34    5.39   371.8   10.5      35.166
2013    7       11    18  41    5.39   372.0   10.5      35.207
2013    7       11    18  47    5.39   372.1   10.5      35.249
2013    7       11    18  53    5.40   372.3   10.6      35.291
2013    7       11    19   0    5.40   372.4   10.6      35.334
2013    7       11    19   6    5.40   372.6   10.6      35.377
2013    7       11    19  13    5.41   372.7   10.6      35.421
2013    7       11    19  19    5.41   372.9   10.6      35.464
2013    7       11    19  25    5.41   373.0   10.6      35.508
2013    7       11    19  32    5.42   373.2   10.6      35.553
2013    7       11    19  38    5.42   373.3   10.6      35.597
2013    7       11    19  45    5.42   373.5   10.6      35.641
2013    7       11    19  51    5.42   373.6   10.6      35.684
2013    7       11    19  58    5.43   373.8   10.6      35.726
2013    7       11    20   4    5.43   374.0   10.6      35.768
2013    7       11    20  10    5.43   374.1   10.6      35.809
2013    7       11    20  17    5.43   374.3   10.6      35.850
2013    7       11    20  23    5.44   374.4   10.6      35.889
2013    7       11    20  30    5.44   374.6   10.6      35.927
2013    7       11    20  36    5.44   374.7   10.6      35.964
2013    7       11    20  42    5.44   374.9   10.6      36.000
2013    7       11    20  49    5.45   375.0   10.6      36.035
2013    7       11    20  55    5.45   375.2   10.6      36.069
2013    7       11    21   2    5.45   375.3   10.6      36.102
2013    7       11    21   8    5.45   375.5   10.6      36.134
2013    7       11    21  14    5.46   375.6   10.6      36.164
2013    7       11    21  21    5.46   375.8   10.6      36.194
2013    7       11    21  27    5.46   375.9   10.6      36.224
2013    7       11    21  34    5.46   376.1   10.6      36.252
2013    7       11    21  40    5.46   376.2   10.6      36.279
2013    7       11    21  46    5.47   376.4   10.5      36.306
2013    7       11    21  53    5.47   376.5   10.5      36.332
2013    7       11    21  59    5.47   376.7   10.5      36.357
2013    7       11    22   6    5.47   376.8   10.5      36.382
2013    7       11    22  12    5.47   377.0   10.5      36.406
2013    7       11    22  18    5.47   377.1   10.5      36.429
2013    7       11    22  25    5.48   377.2   10.5      36.452
2013    7       11    22  31    5.48   377.4   10.5      36.474
2013    7       11    22  38    5.48   377.5   10.5      36.496
2013    7       11    22  44    5.48   377.7   10.5      36.517
2013    7       11    22  50    5.48   377.8   10.5      36.537
2013    7       11    22  57    5.48   378.0   10.5      36.557
2013    7       11    23   3    5.49   378.1   10.5      36.577
2013    7       11    23  10    5.49   378.2   10.5      36.596
2013    7       11    23  16    5.49   378.4   10.5      36.615
2013    7       11    23  23    5.49   378.5   10.5      36.633
2013    7       11    23  29    5.49   378.7   10.5      36.651
2013    7       11    23  35    5.49   378.8   10.4      36.669
2013    7       11    23  42    5.50   378.9   10.4      36.687
2013    7       11    23  48    5.50   379.1   10.4      36.704
2013    7       11    23  55    5.50   379.2   10.4      36.721
2013    7       12     0   1    5.50   379.4   10.4      36.738
2013    7       12     0   7    5.50   379.5   10.4      36.755
2013    7       12     0  14    5.50   379.6   10.4      36.771
2013    7       12     0  20    5.50   379.8   10.4      36.788
2013    7       12     0  27    5.51   379.9   10.4      36.805
2013    7       12     0  33    5.51   380.0   10.4      36.821
2013    7       12     0  40    5.51   380.2   10.4      36.838
2013    7       12     0  46    5.51   380.3   10.4      36.855
2013    7       12     0  52    5.51   380.4   10.4      36.872
2013    7       12     0  59    5.51   380.6   10.4      36.890
2013    7       12     1   5    5.52   380.7   10.4      36.907
2013    7       12     1  12    5.52   380.8   10.4      36.925
2013    7       12     1  18    5.52   381.0   10.4      36.943
2013    7       12     1  25    5.52   381.1   10.4      36.962
2013    7       12     1  31    5.52   381.2   10.4      36.982
2013    7       12     1  37    5.53   381.4   10.4      37.003
2013    7       12     1  44    5.53   381.5   10.4      37.025
2013    7       12     1  50    5.53   381.6   10.4      37.048
2013    7       12     1  57    5.53   381.8   10.4      37.072
2013    7       12     2   3    5.53   381.9   10.4      37.097
2013    7       12     2   9    5.54   382.0   10.4      37.124
2013    7       12     2  16    5.54   382.2   10.4      37.152
2013    7       12     2  22    5.54   382.3   10.4      37.181
2013    7       12     2  29    5.54   382.4   10.4      37.211
2013    7       12     2  35    5.55   382.6   10.4      37.242
2013    7       12     2  41    5.55   382.7   10.4      37.275
2013    7       12     2  48    5.55   382.9   10.4      37.309
2013    7       12     2  54    5.55   383.0   10.4      37.344
2013    7       12     3   1    5.56   383.2   10.4      37.379
2013    7       12     3   7    5.56   383.3   10.4      37.415
2013    7       12     3  14    5.56   383.5   10.4      37.452
2013    7       12     3  20    5.56   383.6   10.4      37.490
2013    7       12     3  26    5.57   383.8   10.4      37.529
2013    7       12     3  33    5.57   383.9   10.4      37.569
2013    7       12     3  39    5.57   384.1   10.4      37.610
2013    7       12     3  46    5.58   384.2   10.4      37.652
2013    7       12     3  52    5.58   384.4   10.4      37.694
2013    7       12     3  58    5.58   384.6   10.4      37.736
2013    7       12     4   5    5.58   384.7   10.4      37.779
2013    7       12     4  11    5.59   384.9   10.4      37.822
2013    7       12     4  18    5.59   385.1   10.4      37.864
2013    7       12     4  24    5.59   385.2   10.4      37.907
2013    7       12     4  30    5.59   385.4   10.4      37.950
2013    7       12     4  37    5.60   385.6   10.4      37.992
2013    7       12     4  43    5.60   385.8   10.4      38.034
2013    7       12     4  50    5.60   385.9   10.4      38.075
2013    7       12     4  56    5.60   386.1   10.4      38.115
2013    7       12     5   2    5.60   386.3   10.4      38.155
2013    7       12     5   9    5.61   386.5   10.4      38.193
2013    7       12     5  15    5.61   386.6   10.4      38.230
2013    7       12     5  22    5.61   386.8   10.4      38.266
2013    7       12     5  28    5.61   387.0   10.4      38.301
2013    7       12     5  34    5.61   387.2   10.4      38.335
2013    7       12     5  41    5.61   387.3   10.4      38.368
2013    7       12     5  47    5.62   387.5   10.4      38.400
2013    7       12     5  54    5.62   387.7   10.3      38.431
2013    7       12     6   0    5.62   387.9   10.3      38.461
2013    7       12     6   6    5.62   388.0   10.3      38.490
2013    7       12     6  13    5.62   388.2   10.3      38.519
2013    7       12     6  19    5.62   388.4   10.3      38.546
2013    7       12     6  26    5.62   388.6   10.3      38.573
2013    7       12     6  32    5.62   388.7   10.3      38.599
2013    7       12     6  38    5.62   388.9   10.3      38.625
2013    7       12     6  45    5.63   389.1   10.3      38.650
2013    7       12     6  51    5.63   389.3   10.3      38.674
2013    7       12     6  58    5.63   389.5   10.3      38.698
2013    7       12     7   4    5.63   389.6   10.3      38.721
2013    7       12     7  11    5.63   389.8   10.3      38.743
2013    7       12     7  17    5.63   390.0   10.2      38.766
2013    7       12     7  23    5.63   390.2   10.2      38.787
2013    7       12     7  30    5.63   390.4   10.2      38.808
2013    7       12     7  36    5.63   390.5   10.2      38.829
2013    7       12     7  43    5.63   390.7   10.2      38.849
2013    7       12     7  49    5.63   390.9   10.2      38.869
2013    7       12     7  56    5.63   391.1   10.2      38.889
2013    7       12     8   2    5.63   391.3   10.2      38.908
2013    7       12     8   8    5.64   391.4   10.2      38.927
2013    7       12     8  15    5.64   391.6   10.2      38.946
2013    7       12     8  21    5.64   391.8   10.2      38.964
2013    7       12     8  28    5.64   392.0   10.1      38.982
2013    7       12     8  34    5.64   392.2   10.1      39.000
2013    7       12     8  40    5.64   392.3   10.1      39.018
2013    7       12     8  47    5.64   392.5   10.1      39.035
2013    7       12     8  53    5.64   392.7   10.1      39.052
2013    7       12     9   0    5.64   392.9   10.1      39.070
2013    7       12     9   6    5.64   393.0   10.1      39.087
2013    7       12     9  13    5.64   393.2   10.1      39.104
2013    7       12     9  19    5.64   393.4   10.1      39.121
2013    7       12     9  25    5.64   393.6   10.1      39.138
2013    7       12     9  32    5.64   393.7   10.1      39.155
2013    7       12     9  38    5.64   393.9   10.1      39.173
2013    7       12     9  45    5.64   394.1   10.0      39.190
2013    7       12     9  51    5.64   394.3   10.0      39.208
2013    7       12     9  57    5.64   394.4   10.0      39.226
2013    7       12    10   4    5.64   394.6   10.0      39.245
2013    7       12    10  10    5.65   394.8   10.0      39.264
2013    7       12    10  17    5.65   394.9   10.0      39.283
2013    7       12    10  23    5.65   395.1   10.0      39.304
2013    7       12    10  29    5.65   395.3   10.0      39.325
2013    7       12    10  36    5.65   395.5   10.0      39.348
2013    7       12    10  42    5.65   395.6   10.0      39.372
2013    7       12    10  49    5.65   395.8   10.0      39.398
2013    7       12    10  55    5.65   396.0   10.0      39.425
2013    7       12    11   2    5.65   396.2   10.0      39.454
2013    7       12    11   8    5.65   396.3   10.0      39.484
2013    7       12    11  14    5.66   396.5   10.0      39.515
2013    7       12    11  21    5.66   396.7   10.0      39.547
2013    7       12    11  27    5.66   396.9   10.0      39.581
2013    7       12    11  34    5.66   397.1   10.0      39.615
2013    7       12    11  40    5.66   397.3   10.0      39.650
2013    7       12    11  46    5.66   397.4   10.0      39.687
2013    7       12    11  53    5.66   397.6   10.0      39.724
2013    7       12    11  59    5.66   397.8    9.9      39.762
2013    7       12    12   6    5.66   398.0    9.9      39.800
2013    7       12    12  12    5.66   398.2    9.9      39.839
2013    7       12    12  18    5.66   398.4    9.9      39.877
2013    7       12    12  25    5.66   398.6    9.9      39.916
2013    7       12    12  31    5.66   398.8    9.9      39.954
2013    7       12    12  38    5.67   399.0    9.9      39.992
2013    7       12    12  44    5.67   399.2    9.9      40.029
2013    7       12    12  50    5.67   399.4    9.9      40.066
2013    7       12    12  57    5.67   399.6    9.9      40.102
2013    7       12    13   3    5.67   399.8    9.9      40.138
2013    7       12    13  10    5.67   400.1    9.9      40.174
2013    7       12    13  16    5.67   400.3    9.9      40.209
2013    7       12    13  22    5.67   400.5    9.9      40.243
2013    7       12    13  29    5.67   400.7    9.9      40.276
2013    7       12    13  35    5.66   400.9    9.9      40.308
2013    7       12    13  42    5.66   401.1    9.8      40.339
2013    7       12    13  48    5.66   401.3    9.8      40.370
2013    7       12    13  54    5.66   401.5    9.8      40.399
2013    7       12    14   1    5.66   401.7    9.8      40.428
2013    7       12    14   7    5.66   402.0    9.8      40.457
2013    7       12    14  14    5.66   402.2    9.8      40.485
2013    7       12    14  20    5.66   402.4    9.8      40.512
2013    7       12    14  27    5.66   402.6    9.8      40.538
2013    7       12    14  33    5.66   402.8    9.8      40.564
2013    7       12    14  39    5.66   403.0    9.8      40.590
2013    7       12    14  46    5.66   403.3    9.7      40.615
2013    7       12    14  52    5.66   403.5    9.7      40.640
2013    7       12    14  59    5.65   403.7    9.7      40.664
2013    7       12    15   5    5.65   403.9    9.7      40.687
2013    7       12    15  12    5.65   404.1    9.7      40.711
2013    7       12    15  18    5.65   404.4    9.7      40.733
2013    7       12    15  24    5.65   404.6    9.7      40.756
2013    7       12    15  31    5.65   404.8    9.7      40.778
2013    7       12    15  37    5.65   405.0    9.6      40.799
2013    7       12    15  44    5.64   405.3    9.6      40.820
2013    7       12    15  50    5.64   405.5    9.6      40.841
2013    7       12    15  56    5.64   405.7    9.6      40.861
2013    7       12    16   3    5.64   405.9    9.6      40.881
2013    7       12    16   9    5.64   406.2    9.6      40.901
2013    7       12    16  16    5.64   406.4    9.6      40.920
2013    7       12    16  22    5.63   406.6    9.6      40.939
2013    7       12    16  29    5.63   406.8    9.5      40.958
2013    7       12    16  35    5.63   407.1    9.5      40.976
2013    7       12    16  41    5.63   407.3    9.5      40.994
2013    7       12    16  48    5.63   407.5    9.5      41.012
2013    7       12    16  54    5.62   407.7    9.5      41.030
2013    7       12    17   1    5.62   408.0    9.5      41.047
2013    7       12    17   7    5.62   408.2    9.5      41.064
2013    7       12    17  13    5.62   408.4    9.5      41.081
2013    7       12    17  20    5.62   408.6    9.4      41.098
2013    7       12    17  26    5.61   408.9    9.4      41.114
2013    7       12    17  33    5.61   409.1    9.4      41.131
2013    7       12    17  39    5.61   409.3    9.4      41.147
2013    7       12    17  45    5.61   409.5    9.4      41.163
2013    7       12    17  52    5.60   409.8    9.4      41.180
2013    7       12    17  58    5.60   410.0    9.4      41.196
2013    7       12    18   5    5.60   410.2    9.3      41.212
2013    7       12    18  11    5.60   410.4    9.3      41.229
2013    7       12    18  17    5.59   410.6    9.3      41.246
2013    7       12    18  24    5.59   410.9    9.3      41.263
2013    7       12    18  30    5.59   411.1    9.3      41.280
2013    7       12    18  37    5.58   411.3    9.3      41.297
2013    7       12    18  43    5.58   411.5    9.3      41.315
2013    7       12    18  50    5.58   411.7    9.3      41.332
2013    7       12    18  56    5.58   412.0    9.2      41.350
2013    7       12    19   2    5.57   412.2    9.2      41.368
2013    7       12    19   9    5.57   412.4    9.2      41.386
2013    7       12    19  15    5.57   412.6    9.2      41.405
2013    7       12    19  22    5.56   412.8    9.2      41.424
2013    7       12    19  28    5.56   413.1    9.2      41.444
2013    7       12    19  34    5.56   413.3    9.2      41.464
2013    7       12    19  41    5.55   413.5    9.2      41.484
2013    7       12    19  47    5.55   413.7    9.2      41.504
2013    7       12    19  54    5.55   413.9    9.1      41.525
2013    7       12    20   0    5.54   414.1    9.1      41.546
2013    7       12    20   6    5.54   414.3    9.1      41.566
2013    7       12    20  13    5.54   414.5    9.1      41.587
2013    7       12    20  19    5.53   414.8    9.1      41.608
2013    7       12    20  26    5.53   415.0    9.1      41.630
2013    7       12    20  32    5.53   415.2    9.1      41.651
2013    7       12    20  38    5.52   415.4    9.1      41.673
2013    7       12    20  45    5.52   415.6    9.0      41.694
2013    7       12    20  51    5.52   415.8    9.0      41.714
2013    7       12    20  58    5.51   416.1    9.0      41.735
2013    7       12    21   4    5.51   416.3    9.0      41.755
2013    7       12    21  10    5.50   416.5    9.0      41.774
2013    7       12    21  17    5.50   416.7    9.0      41.793
2013    7       12    21  23    5.50   416.9    9.0      41.812
2013    7       12    21  30    5.49   417.2    8.9      41.830
2013    7       12    21  36    5.49   417.4    8.9      41.848
2013    7       12    21  42    5.48   417.6    8.9      41.865
2013    7       12    21  49    5.48   417.8    8.9      41.881
2013    7       12    21  55    5.48   418.1    8.9      41.897
2013    7       12    22   2    5.47   418.3    8.9      41.912
2013    7       12    22   8    5.47   418.5    8.9      41.927
2013    7       12    22  15    5.46   418.7    8.8      41.941
2013    7       12    22  21    5.46   418.9    8.8      41.955
2013    7       12    22  27    5.45   419.2    8.8      41.968
2013    7       12    22  34    5.45   419.4    8.8      41.981
2013    7       12    22  40    5.44   419.6    8.8      41.994
2013    7       12    22  47    5.44   419.8    8.8      42.006
2013    7       12    22  53    5.43   420.1    8.8      42.018
2013    7       12    23   0    5.43   420.3    8.7      42.030
2013    7       12    23   6    5.43   420.5    8.7      42.041
2013    7       12    23  12    5.42   420.7    8.7      42.052
2013    7       12    23  19    5.42   421.0    8.7      42.062
2013    7       12    23  25    5.41   421.2    8.7      42.071
2013    7       12    23  32    5.41   421.4    8.7      42.081
2013    7       12    23  38    5.40   421.6    8.7      42.089
2013    7       12    23  44    5.39   421.9    8.6      42.098
2013    7       12    23  51    5.39   422.1    8.6      42.105
2013    7       12    23  57    5.38   422.3    8.6      42.112
2013    7       13     0   4    5.38   422.5    8.6      42.119
2013    7       13     0  10    5.37   422.8    8.6      42.125
2013    7       13     0  16    5.37   423.0    8.6      42.131
2013    7       13     0  23    5.36   423.2    8.5      42.136
2013    7       13     0  29    5.36   423.4    8.5      42.140
2013    7       13     0  36    5.35   423.7    8.5      42.145
2013    7       13     0  42    5.34   423.9    8.5      42.148
2013    7       13     0  49    5.34   424.1    8.5      42.152
2013    7       13     0  55    5.33   424.3    8.5      42.154
2013    7       13     1   1    5.33   424.5    8.4      42.157
2013    7       13     1   8    5.32   424.7    8.4      42.160
2013    7       13     1  14    5.31   424.9    8.4      42.162
2013    7       13     1  21    5.31   425.2    8.4      42.164
2013    7       13     1  27    5.30   425.4    8.4      42.166
2013    7       13     1  33    5.30   425.6    8.4      42.168
2013    7       13     1  40    5.29   425.8    8.3      42.169
2013    7       13     1  46    5.28   426.0    8.3      42.170
2013    7       13     1  53    5.28   426.3    8.3      42.170
2013    7       13     1  59    5.27   426.5    8.3      42.170
2013    7       13     2   5    5.26   426.7    8.3      42.170
2013    7       13     2  12    5.26   426.9    8.3      42.168
2013    7       13     2  18    5.25   427.1    8.2      42.165
2013    7       13     2  25    5.24   427.3    8.2      42.162
2013    7       13     2  31    5.24   427.5    8.2      42.158
2013    7       13     2  37    5.23   427.7    8.2      42.153
2013    7       13     2  44    5.22   427.9    8.2      42.147
2013    7       13     2  50    5.22   428.1    8.2      42.140
2013    7       13     2  57    5.21   428.3    8.1      42.133
2013    7       13     3   3    5.20   428.5    8.1      42.126
2013    7       13     3   9    5.20   428.6    8.1      42.119
2013    7       13     3  16    5.19   428.8    8.1      42.112
2013    7       13     3  22    5.18   429.0    8.1      42.105
2013    7       13     3  29    5.18   429.1    8.1      42.098
2013    7       13     3  35    5.17   429.3    8.0      42.092
2013    7       13     3  41    5.16   429.5    8.0      42.087
2013    7       13     3  48    5.16   429.7    8.0      42.081
2013    7       13     3  54    5.15   429.8    8.0      42.077
2013    7       13     4   1    5.14   430.0    8.0      42.073
2013    7       13     4   7    5.14   430.2    8.0      42.069
2013    7       13     4  14    5.13   430.4    8.0      42.065
2013    7       13     4  20    5.12   430.5    7.9      42.060
2013    7       13     4  26    5.12   430.7    7.9      42.056
2013    7       13     4  33    5.11   430.9    7.9      42.051
2013    7       13     4  39    5.10   431.1    7.9      42.046
2013    7       13     4  46    5.10   431.3    7.9      42.041
2013    7       13     4  52    5.09   431.4    7.9      42.035
2013    7       13     4  58    5.08   431.6    7.8      42.028
2013    7       13     5   5    5.08   431.8    7.8      42.020
2013    7       13     5  11    5.07   432.0    7.8      42.012
2013    7       13     5  18    5.06   432.2    7.8      42.003
2013    7       13     5  24    5.06   432.3    7.8      41.994
2013    7       13     5  31    5.05   432.5    7.8      41.984
2013    7       13     5  37    5.04   432.7    7.8      41.973
2013    7       13     5  43    5.04   432.8    7.7      41.962
2013    7       13     5  50    5.03   433.0    7.7      41.951
2013    7       13     5  56    5.02   433.2    7.7      41.940
2013    7       13     6   3    5.01   433.3    7.7      41.929
2013    7       13     6   9    5.01   433.5    7.7      41.917
2013    7       13     6  15    5.00   433.7    7.7      41.904
2013    7       13     6  22    4.99   433.8    7.6      41.892
2013    7       13     6  28    4.99   434.0    7.6      41.879
2013    7       13     6  35    4.98   434.2    7.6      41.865
2013    7       13     6  41    4.97   434.3    7.6      41.851
2013    7       13     6  48    4.96   434.5    7.6      41.837
2013    7       13     6  54    4.96   434.7    7.6      41.822
2013    7       13     7   0    4.95   434.8    7.6      41.806
2013    7       13     7   7    4.94   435.0    7.5      41.790
2013    7       13     7  13    4.94   435.1    7.5      41.773
2013    7       13     7  20    4.93   435.3    7.5      41.756
2013    7       13     7  26    4.92   435.4    7.5      41.738
2013    7       13     7  32    4.91   435.6    7.5      41.719
2013    7       13     7  39    4.91   435.8    7.5      41.700
2013    7       13     7  45    4.90   435.9    7.4      41.680
2013    7       13     7  52    4.89   436.0    7.4      41.660
2013    7       13     7  58    4.88   436.2    7.4      41.640
2013    7       13     8   5    4.88   436.3    7.4      41.619
2013    7       13     8  11    4.87   436.5    7.4      41.597
2013    7       13     8  17    4.86   436.6    7.4      41.576
2013    7       13     8  24    4.86   436.7    7.4      41.554
2013    7       13     8  30    4.85   436.9    7.3      41.532
2013    7       13     8  37    4.84   437.0    7.3      41.510
2013    7       13     8  43    4.83   437.1    7.3      41.487
2013    7       13     8  49    4.83   437.3    7.3      41.465
2013    7       13     8  56    4.82   437.4    7.3      41.442
2013    7       13     9   2    4.81   437.5    7.3      41.419
2013    7       13     9   9    4.80   437.7    7.2      41.396
2013    7       13     9  15    4.80   437.8    7.2      41.371
2013    7       13     9  21    4.79   437.9    7.2      41.346
2013    7       13     9  28    4.78   438.0    7.2      41.320
2013    7       13     9  34    4.77   438.2    7.2      41.293
2013    7       13     9  41    4.77   438.3    7.2      41.266
2013    7       13     9  47    4.76   438.4    7.2      41.237
2013    7       13     9  53    4.75   438.5    7.1      41.208
2013    7       13    10   0    4.74   438.6    7.1      41.178
2013    7       13    10   6    4.74   438.7    7.1      41.148
2013    7       13    10  13    4.73   438.8    7.1      41.117
2013    7       13    10  19    4.72   438.9    7.1      41.085
2013    7       13    10  25    4.71   439.0    7.1      41.054
2013    7       13    10  32    4.71   439.1    7.1      41.024
2013    7       13    10  38    4.70   439.2    7.0      40.993
2013    7       13    10  45    4.69   439.3    7.0      40.963
2013    7       13    10  51    4.69   439.3    7.0      40.933
2013    7       13    10  57    4.68   439.4    7.0      40.903
2013    7       13    11   4    4.67   439.5    7.0      40.873
2013    7       13    11  10    4.67   439.6    7.0      40.844
2013    7       13    11  17    4.66   439.7    7.0      40.815
2013    7       13    11  23    4.65   439.8    7.0      40.785
2013    7       13    11  29    4.64   439.9    6.9      40.756
2013    7       13    11  36    4.64   440.0    6.9      40.727
2013    7       13    11  42    4.63   440.0    6.9      40.697
2013    7       13    11  49    4.62   440.1    6.9      40.666
2013    7       13    11  55    4.62   440.2    6.9      40.635
2013    7       13    12   2    4.61   440.3    6.9      40.604
2013    7       13    12   8    4.60   440.4    6.9      40.572
2013    7       13    12  14    4.60   440.5    6.8      40.540
2013    7       13    12  21    4.59   440.6    6.8      40.507
2013    7       13    12  27    4.58   440.7    6.8      40.474
2013    7       13    12  34    4.58   440.8    6.8      40.440
2013    7       13    12  40    4.57   440.8    6.8      40.407
2013    7       13    12  46    4.56   440.9    6.8      40.372
2013    7       13    12  53    4.56   441.0    6.8      40.338
2013    7       13    12  59    4.55   441.1    6.8      40.303
2013    7       13    13   6    4.54   441.1    6.7      40.269
2013    7       13    13  12    4.54   441.2    6.7      40.235
2013    7       13    13  19    4.53   441.3    6.7      40.200
2013    7       13    13  25    4.52   441.4    6.7      40.166
2013    7       13    13  31    4.52   441.4    6.7      40.132
2013    7       13    13  38    4.51   441.5    6.7      40.097
2013    7       13    13  44    4.50   441.6    6.7      40.063
2013    7       13    13  51    4.50   441.6    6.7      40.029
2013    7       13    13  57    4.49   441.7    6.6      39.995
2013    7       13    14   3    4.48   441.7    6.6      39.961
2013    7       13    14  10    4.48   441.8    6.6      39.927
2013    7       13    14  16    4.47   441.9    6.6      39.892
2013    7       13    14  23    4.46   441.9    6.6      39.858
2013    7       13    14  29    4.46   442.0    6.6      39.823
2013    7       13    14  36    4.45   442.0    6.6      39.789
2013    7       13    14  42    4.44   442.1    6.6      39.753
2013    7       13    14  48    4.44   442.2    6.6      39.718
2013    7       13    14  55    4.43   442.2    6.5      39.683
2013    7       13    15   1    4.43   442.3    6.5      39.648
2013    7       13    15   8    4.42   442.3    6.5      39.612
2013    7       13    15  14    4.41   442.4    6.5      39.576
2013    7       13    15  20    4.41   442.4    6.5      39.540
2013    7       13    15  27    4.40   442.4    6.5      39.504
2013    7       13    15  33    4.39   442.5    6.5      39.468
2013    7       13    15  40    4.39   442.5    6.5      39.432
2013    7       13    15  46    4.38   442.6    6.5      39.396
2013    7       13    15  52    4.38   442.6    6.4      39.360
2013    7       13    15  59    4.37   442.6    6.4      39.323
2013    7       13    16   5    4.36   442.7    6.4      39.287
2013    7       13    16  12    4.36   442.7    6.4      39.251
2013    7       13    16  18    4.35   442.7    6.4      39.215
2013    7       13    16  25    4.35   442.8    6.4      39.178
2013    7       13    16  31    4.34   442.8    6.4      39.142
2013    7       13    16  37    4.33   442.8    6.4      39.105
2013    7       13    16  44    4.33   442.9    6.4      39.069
2013    7       13    16  50    4.32   442.9    6.4      39.031
2013    7       13    16  57    4.31   442.9    6.3      38.994
2013    7       13    17   3    4.31   442.9    6.3      38.956
2013    7       13    17   9    4.30   443.0    6.3      38.918
2013    7       13    17  16    4.30   443.0    6.3      38.880
2013    7       13    17  22    4.29   443.0    6.3      38.842
2013    7       13    17  29    4.28   443.0    6.3      38.803
2013    7       13    17  35    4.28   443.0    6.3      38.765
2013    7       13    17  41    4.27   443.1    6.3      38.726
2013    7       13    17  48    4.27   443.1    6.3      38.687
2013    7       13    17  54    4.26   443.1    6.3      38.648
2013    7       13    18   1    4.26   443.1    6.3      38.609
2013    7       13    18   7    4.25   443.1    6.2      38.570
2013    7       13    18  13    4.24   443.1    6.2      38.531
2013    7       13    18  20    4.24   443.1    6.2      38.492
2013    7       13    18  26    4.23   443.1    6.2      38.453
2013    7       13    18  33    4.23   443.2    6.2      38.413
2013    7       13    18  39    4.22   443.2    6.2      38.374
2013    7       13    18  45    4.22   443.2    6.2      38.334
2013    7       13    18  52    4.21   443.2    6.2      38.294
2013    7       13    18  58    4.20   443.2    6.2      38.254
2013    7       13    19   5    4.20   443.2    6.2      38.214
2013    7       13    19  11    4.19   443.2    6.1      38.173
2013    7       13    19  17    4.19   443.2    6.1      38.133
2013    7       13    19  24    4.18   443.2    6.1      38.092
2013    7       13    19  30    4.18   443.2    6.1      38.051
2013    7       13    19  37    4.17   443.2    6.1      38.010
2013    7       13    19  43    4.17   443.2    6.1      37.969
2013    7       13    19  50    4.16   443.2    6.1      37.927
2013    7       13    19  56    4.16   443.2    6.1      37.886
2013    7       13    20   2    4.15   443.2    6.1      37.845
2013    7       13    20   9    4.15   443.2    6.1      37.804
2013    7       13    20  15    4.14   443.2    6.1      37.762
2013    7       13    20  22    4.13   443.2    6.1      37.721
2013    7       13    20  28    4.13   443.2    6.0      37.680
2013    7       13    20  34    4.12   443.2    6.0      37.640
2013    7       13    20  41    4.12   443.2    6.0      37.599
2013    7       13    20  47    4.11   443.2    6.0      37.559
2013    7       13    20  54    4.11   443.1    6.0      37.519
2013    7       13    21   0    4.10   443.1    6.0      37.481
2013    7       13    21   7    4.10   443.1    6.0      37.442
2013    7       13    21  13    4.09   443.1    6.0      37.404
2013    7       13    21  19    4.09   443.1    6.0      37.365
2013    7       13    21  26    4.08   443.1    6.0      37.328
2013    7       13    21  32    4.08   443.0    6.0      37.291
2013    7       13    21  39    4.07   443.0    6.0      37.254
2013    7       13    21  45    4.07   443.0    6.0      37.217
2013    7       13    21  51    4.06   443.0    6.0      37.180
2013    7       13    21  58    4.06   442.9    5.9      37.144
2013    7       13    22   4    4.05   442.9    5.9      37.108
2013    7       13    22  11    4.05   442.9    5.9      37.072
2013    7       13    22  17    4.05   442.9    5.9      37.036
2013    7       13    22  24    4.04   442.8    5.9      36.999
2013    7       13    22  30    4.04   442.8    5.9      36.963
2013    7       13    22  36    4.03   442.8    5.9      36.927
2013    7       13    22  43    4.03   442.8    5.9      36.891
2013    7       13    22  49    4.02   442.7    5.9      36.855
2013    7       13    22  56    4.02   442.7    5.9      36.818
2013    7       13    23   2    4.01   442.7    5.9      36.781
2013    7       13    23   8    4.01   442.7    5.9      36.745
2013    7       13    23  15    4.00   442.6    5.9      36.708
2013    7       13    23  21    4.00   442.6    5.9      36.671
2013    7       13    23  28    3.99   442.6    5.9      36.634
2013    7       13    23  34    3.99   442.5    5.8      36.597
2013    7       13    23  40    3.98   442.5    5.8      36.560
2013    7       13    23  47    3.98   442.5    5.8      36.523
2013    7       13    23  53    3.97   442.4    5.8      36.485
2013    7       14     0   0    3.97   442.4    5.8      36.448
