year    month   day   hour  minute  B_enl V_enl   n_enl       T_enl
[year] [month] [day] [hour][minute] [nT]  [km/s]  [cm-3]      [kK]
2013    7       14     0   6    3.95   323.0   12.0      26.228
2013    7       14     0  13    3.96   323.0   12.1      26.275
2013    7       14     0  20    3.97   323.1   12.1      26.322
2013    7       14     0  27    3.98   323.1   12.1      26.367
2013    7       14     0  33    3.98   323.2   12.1      26.413
2013    7       14     0  40    3.99   323.3   12.1      26.457
2013    7       14     0  47    4.00   323.3   12.2      26.501
2013    7       14     0  54    4.00   323.4   12.2      26.544
2013    7       14     1   1    4.01   323.4   12.2      26.587
2013    7       14     1   7    4.02   323.5   12.2      26.629
2013    7       14     1  14    4.03   323.6   12.2      26.671
2013    7       14     1  21    4.03   323.6   12.2      26.712
2013    7       14     1  28    4.04   323.7   12.3      26.753
2013    7       14     1  35    4.05   323.7   12.3      26.793
2013    7       14     1  42    4.05   323.8   12.3      26.832
2013    7       14     1  48    4.06   323.9   12.3      26.872
2013    7       14     1  55    4.07   323.9   12.3      26.910
2013    7       14     2   2    4.07   324.0   12.3      26.949
2013    7       14     2   9    4.08   324.0   12.4      26.986
2013    7       14     2  16    4.09   324.1   12.4      27.024
2013    7       14     2  22    4.09   324.2   12.4      27.061
2013    7       14     2  29    4.10   324.2   12.4      27.098
2013    7       14     2  36    4.11   324.3   12.4      27.134
2013    7       14     2  43    4.11   324.3   12.4      27.170
2013    7       14     2  50    4.12   324.4   12.5      27.205
2013    7       14     2  56    4.13   324.5   12.5      27.240
2013    7       14     3   3    4.13   324.5   12.5      27.275
2013    7       14     3  10    4.14   324.6   12.5      27.310
2013    7       14     3  17    4.15   324.6   12.5      27.344
2013    7       14     3  24    4.15   324.7   12.5      27.378
2013    7       14     3  30    4.16   324.8   12.5      27.412
2013    7       14     3  37    4.17   324.8   12.6      27.446
2013    7       14     3  44    4.17   324.9   12.6      27.479
2013    7       14     3  51    4.18   325.0   12.6      27.512
2013    7       14     3  58    4.19   325.0   12.6      27.545
2013    7       14     4   4    4.19   325.1   12.6      27.578
2013    7       14     4  11    4.20   325.1   12.6      27.611
2013    7       14     4  18    4.21   325.2   12.6      27.644
2013    7       14     4  25    4.22   325.3   12.7      27.676
2013    7       14     4  32    4.22   325.3   12.7      27.709
2013    7       14     4  38    4.23   325.4   12.7      27.741
2013    7       14     4  45    4.24   325.4   12.7      27.774
2013    7       14     4  52    4.24   325.5   12.7      27.807
2013    7       14     4  59    4.25   325.6   12.7      27.839
2013    7       14     5   6    4.26   325.6   12.8      27.873
2013    7       14     5  13    4.26   325.7   12.8      27.906
2013    7       14     5  19    4.27   325.8   12.8      27.941
2013    7       14     5  26    4.28   325.8   12.8      27.976
2013    7       14     5  33    4.29   325.9   12.8      28.012
2013    7       14     5  40    4.29   326.0   12.8      28.049
2013    7       14     5  47    4.30   326.1   12.9      28.087
2013    7       14     5  53    4.31   326.1   12.9      28.126
2013    7       14     6   0    4.32   326.2   12.9      28.166
2013    7       14     6   7    4.32   326.3   12.9      28.206
2013    7       14     6  14    4.33   326.4   12.9      28.247
2013    7       14     6  21    4.34   326.5   12.9      28.288
2013    7       14     6  28    4.34   326.5   13.0      28.330
2013    7       14     6  34    4.35   326.6   13.0      28.372
2013    7       14     6  41    4.36   326.7   13.0      28.415
2013    7       14     6  48    4.36   326.8   13.0      28.457
2013    7       14     6  55    4.37   326.9   13.0      28.500
2013    7       14     7   2    4.38   327.0   13.0      28.543
2013    7       14     7   8    4.39   327.1   13.1      28.586
2013    7       14     7  15    4.39   327.2   13.1      28.628
2013    7       14     7  22    4.40   327.2   13.1      28.670
2013    7       14     7  29    4.41   327.3   13.1      28.711
2013    7       14     7  36    4.41   327.4   13.1      28.751
2013    7       14     7  43    4.42   327.5   13.1      28.791
2013    7       14     7  49    4.43   327.6   13.1      28.831
2013    7       14     7  56    4.43   327.7   13.1      28.870
2013    7       14     8   3    4.44   327.8   13.1      28.909
2013    7       14     8  10    4.44   327.9   13.2      28.947
2013    7       14     8  17    4.45   328.0   13.2      28.985
2013    7       14     8  23    4.46   328.0   13.2      29.022
2013    7       14     8  30    4.46   328.1   13.2      29.059
2013    7       14     8  37    4.47   328.2   13.2      29.096
2013    7       14     8  44    4.48   328.3   13.2      29.132
2013    7       14     8  51    4.48   328.4   13.2      29.168
2013    7       14     8  58    4.49   328.5   13.2      29.203
2013    7       14     9   4    4.50   328.6   13.2      29.238
2013    7       14     9  11    4.50   328.7   13.2      29.273
2013    7       14     9  18    4.51   328.8   13.3      29.308
2013    7       14     9  25    4.51   328.9   13.3      29.342
2013    7       14     9  32    4.52   329.0   13.3      29.376
2013    7       14     9  38    4.53   329.0   13.3      29.409
2013    7       14     9  45    4.53   329.1   13.3      29.443
2013    7       14     9  52    4.54   329.2   13.3      29.476
2013    7       14     9  59    4.55   329.3   13.3      29.508
2013    7       14    10   6    4.55   329.4   13.3      29.541
2013    7       14    10  12    4.56   329.5   13.3      29.573
2013    7       14    10  19    4.57   329.6   13.3      29.605
2013    7       14    10  26    4.57   329.7   13.3      29.637
2013    7       14    10  33    4.58   329.8   13.3      29.668
2013    7       14    10  40    4.58   329.9   13.3      29.700
2013    7       14    10  46    4.59   330.0   13.3      29.731
2013    7       14    10  53    4.60   330.0   13.4      29.762
2013    7       14    11   0    4.60   330.1   13.4      29.793
2013    7       14    11   7    4.61   330.2   13.4      29.823
2013    7       14    11  14    4.62   330.3   13.4      29.854
2013    7       14    11  20    4.62   330.4   13.4      29.884
2013    7       14    11  27    4.63   330.5   13.4      29.914
2013    7       14    11  34    4.64   330.6   13.4      29.945
2013    7       14    11  41    4.64   330.7   13.4      29.975
2013    7       14    11  48    4.65   330.8   13.4      30.005
2013    7       14    11  54    4.66   330.9   13.4      30.035
2013    7       14    12   1    4.66   331.0   13.4      30.065
2013    7       14    12   8    4.67   331.0   13.4      30.095
2013    7       14    12  15    4.68   331.1   13.4      30.125
2013    7       14    12  22    4.68   331.2   13.4      30.155
2013    7       14    12  29    4.69   331.3   13.5      30.185
2013    7       14    12  35    4.70   331.4   13.5      30.215
2013    7       14    12  42    4.70   331.5   13.5      30.245
2013    7       14    12  49    4.71   331.6   13.5      30.276
2013    7       14    12  56    4.72   331.7   13.5      30.307
2013    7       14    13   3    4.72   331.8   13.5      30.338
2013    7       14    13   9    4.73   331.9   13.5      30.370
2013    7       14    13  16    4.74   332.0   13.5      30.402
2013    7       14    13  23    4.75   332.1   13.5      30.435
2013    7       14    13  30    4.75   332.2   13.5      30.469
2013    7       14    13  37    4.76   332.3   13.5      30.503
2013    7       14    13  44    4.77   332.4   13.5      30.537
2013    7       14    13  50    4.77   332.5   13.6      30.572
2013    7       14    13  57    4.78   332.6   13.6      30.607
2013    7       14    14   4    4.79   332.7   13.6      30.643
2013    7       14    14  11    4.80   332.8   13.6      30.679
2013    7       14    14  18    4.80   332.9   13.6      30.716
2013    7       14    14  24    4.81   333.0   13.6      30.753
2013    7       14    14  31    4.82   333.1   13.6      30.789
2013    7       14    14  38    4.82   333.3   13.6      30.826
2013    7       14    14  45    4.83   333.4   13.6      30.863
2013    7       14    14  52    4.84   333.5   13.6      30.900
2013    7       14    14  59    4.85   333.6   13.6      30.937
2013    7       14    15   5    4.85   333.7   13.6      30.974
2013    7       14    15  12    4.86   333.8   13.6      31.010
2013    7       14    15  19    4.87   333.9   13.6      31.046
2013    7       14    15  26    4.87   334.0   13.7      31.082
2013    7       14    15  33    4.88   334.1   13.7      31.118
2013    7       14    15  39    4.89   334.2   13.7      31.154
2013    7       14    15  46    4.90   334.3   13.7      31.189
2013    7       14    15  53    4.90   334.4   13.7      31.225
2013    7       14    16   0    4.91   334.6   13.7      31.260
2013    7       14    16   7    4.92   334.7   13.7      31.294
2013    7       14    16  14    4.92   334.8   13.7      31.329
2013    7       14    16  20    4.93   334.9   13.7      31.364
2013    7       14    16  27    4.94   335.0   13.7      31.398
2013    7       14    16  34    4.95   335.1   13.7      31.432
2013    7       14    16  41    4.95   335.2   13.7      31.466
2013    7       14    16  48    4.96   335.3   13.7      31.500
2013    7       14    16  54    4.97   335.4   13.7      31.534
2013    7       14    17   1    4.98   335.5   13.7      31.567
2013    7       14    17   8    4.98   335.6   13.7      31.601
2013    7       14    17  15    4.99   335.7   13.7      31.634
2013    7       14    17  22    5.00   335.9   13.7      31.668
2013    7       14    17  28    5.01   336.0   13.7      31.701
2013    7       14    17  35    5.01   336.1   13.8      31.735
2013    7       14    17  42    5.02   336.2   13.8      31.768
2013    7       14    17  49    5.03   336.3   13.8      31.802
2013    7       14    17  56    5.04   336.4   13.8      31.835
2013    7       14    18   2    5.05   336.5   13.8      31.869
2013    7       14    18   9    5.05   336.6   13.8      31.903
2013    7       14    18  16    5.06   336.8   13.8      31.937
2013    7       14    18  23    5.07   336.9   13.8      31.971
2013    7       14    18  30    5.08   337.0   13.8      32.006
2013    7       14    18  36    5.09   337.1   13.8      32.040
2013    7       14    18  43    5.10   337.2   13.8      32.076
2013    7       14    18  50    5.10   337.3   13.8      32.111
2013    7       14    18  57    5.11   337.5   13.8      32.147
2013    7       14    19   4    5.12   337.6   13.8      32.183
2013    7       14    19  10    5.13   337.7   13.8      32.219
2013    7       14    19  17    5.14   337.8   13.8      32.255
2013    7       14    19  24    5.15   337.9   13.9      32.292
2013    7       14    19  31    5.16   338.0   13.9      32.329
2013    7       14    19  38    5.16   338.2   13.9      32.366
2013    7       14    19  45    5.17   338.3   13.9      32.404
2013    7       14    19  51    5.18   338.4   13.9      32.443
2013    7       14    19  58    5.19   338.5   13.9      32.482
2013    7       14    20   5    5.20   338.7   13.9      32.521
2013    7       14    20  12    5.21   338.8   13.9      32.561
2013    7       14    20  19    5.22   338.9   13.9      32.602
2013    7       14    20  25    5.23   339.0   13.9      32.643
2013    7       14    20  32    5.23   339.2   13.9      32.685
2013    7       14    20  39    5.24   339.3   13.9      32.727
2013    7       14    20  46    5.25   339.4   13.9      32.769
2013    7       14    20  53    5.26   339.6   14.0      32.812
2013    7       14    21   0    5.27   339.7   14.0      32.856
2013    7       14    21   6    5.28   339.9   14.0      32.900
2013    7       14    21  13    5.29   340.0   14.0      32.944
2013    7       14    21  20    5.30   340.1   14.0      32.989
2013    7       14    21  27    5.30   340.3   14.0      33.034
2013    7       14    21  34    5.31   340.4   14.0      33.079
2013    7       14    21  41    5.32   340.6   14.0      33.124
2013    7       14    21  47    5.33   340.7   14.0      33.169
2013    7       14    21  54    5.34   340.9   14.0      33.214
2013    7       14    22   1    5.35   341.0   14.0      33.259
2013    7       14    22   8    5.36   341.2   14.0      33.304
2013    7       14    22  15    5.36   341.3   14.0      33.349
2013    7       14    22  21    5.37   341.5   14.0      33.394
2013    7       14    22  28    5.38   341.6   14.0      33.439
2013    7       14    22  35    5.39   341.7   14.1      33.484
2013    7       14    22  42    5.40   341.9   14.1      33.529
2013    7       14    22  49    5.41   342.0   14.1      33.574
2013    7       14    22  55    5.41   342.2   14.1      33.618
2013    7       14    23   2    5.42   342.3   14.1      33.663
2013    7       14    23   9    5.43   342.5   14.1      33.708
2013    7       14    23  16    5.44   342.6   14.1      33.752
2013    7       14    23  23    5.45   342.8   14.1      33.797
2013    7       14    23  30    5.46   342.9   14.1      33.842
2013    7       14    23  36    5.47   343.1   14.1      33.886
2013    7       14    23  43    5.47   343.2   14.1      33.931
2013    7       14    23  50    5.48   343.4   14.1      33.976
2013    7       14    23  57    5.49   343.5   14.1      34.022
2013    7       15     0   4    5.50   343.7   14.1      34.067
2013    7       15     0  10    5.51   343.8   14.1      34.113
2013    7       15     0  17    5.52   344.0   14.1      34.160
2013    7       15     0  24    5.53   344.2   14.2      34.206
2013    7       15     0  31    5.54   344.3   14.2      34.254
2013    7       15     0  38    5.55   344.5   14.2      34.302
2013    7       15     0  44    5.56   344.6   14.2      34.351
2013    7       15     0  51    5.57   344.8   14.2      34.401
2013    7       15     0  58    5.58   345.0   14.2      34.451
2013    7       15     1   5    5.59   345.1   14.2      34.504
2013    7       15     1  12    5.60   345.3   14.2      34.558
2013    7       15     1  18    5.61   345.5   14.2      34.615
2013    7       15     1  25    5.62   345.7   14.3      34.675
2013    7       15     1  32    5.63   345.8   14.3      34.737
2013    7       15     1  39    5.64   346.0   14.3      34.802
2013    7       15     1  46    5.66   346.2   14.3      34.868
2013    7       15     1  52    5.67   346.4   14.3      34.937
2013    7       15     1  59    5.68   346.6   14.3      35.007
2013    7       15     2   6    5.69   346.8   14.3      35.077
2013    7       15     2  13    5.70   347.0   14.4      35.149
2013    7       15     2  20    5.71   347.2   14.4      35.222
2013    7       15     2  27    5.72   347.4   14.4      35.295
2013    7       15     2  33    5.74   347.6   14.4      35.369
2013    7       15     2  40    5.75   347.8   14.4      35.442
2013    7       15     2  47    5.76   348.0   14.4      35.514
2013    7       15     2  54    5.77   348.2   14.4      35.585
2013    7       15     3   1    5.78   348.4   14.4      35.655
2013    7       15     3   7    5.79   348.6   14.5      35.724
2013    7       15     3  14    5.80   348.8   14.5      35.792
2013    7       15     3  21    5.81   349.0   14.5      35.859
2013    7       15     3  28    5.82   349.3   14.5      35.925
2013    7       15     3  35    5.83   349.5   14.5      35.990
2013    7       15     3  41    5.83   349.7   14.5      36.053
2013    7       15     3  48    5.84   349.9   14.5      36.116
2013    7       15     3  55    5.85   350.1   14.5      36.178
2013    7       15     4   2    5.86   350.3   14.5      36.239
2013    7       15     4   9    5.87   350.5   14.5      36.300
2013    7       15     4  16    5.88   350.7   14.5      36.359
2013    7       15     4  22    5.88   350.9   14.5      36.418
2013    7       15     4  29    5.89   351.1   14.5      36.476
2013    7       15     4  36    5.90   351.3   14.5      36.533
2013    7       15     4  43    5.91   351.5   14.5      36.589
2013    7       15     4  50    5.91   351.7   14.5      36.645
2013    7       15     4  57    5.92   351.9   14.5      36.699
2013    7       15     5   3    5.93   352.1   14.5      36.753
2013    7       15     5  10    5.94   352.3   14.5      36.806
2013    7       15     5  17    5.94   352.5   14.5      36.859
2013    7       15     5  24    5.95   352.7   14.5      36.911
2013    7       15     5  31    5.96   352.9   14.5      36.962
2013    7       15     5  37    5.96   353.1   14.5      37.013
2013    7       15     5  44    5.97   353.3   14.5      37.064
2013    7       15     5  51    5.98   353.5   14.5      37.114
2013    7       15     5  58    5.98   353.7   14.5      37.164
2013    7       15     6   5    5.99   353.9   14.5      37.214
2013    7       15     6  12    6.00   354.1   14.5      37.264
2013    7       15     6  18    6.00   354.3   14.5      37.314
2013    7       15     6  25    6.01   354.5   14.5      37.364
2013    7       15     6  32    6.02   354.7   14.5      37.414
2013    7       15     6  39    6.02   354.9   14.4      37.464
2013    7       15     6  46    6.03   355.1   14.4      37.514
2013    7       15     6  52    6.04   355.4   14.4      37.565
2013    7       15     6  59    6.04   355.6   14.4      37.616
2013    7       15     7   6    6.05   355.8   14.4      37.668
2013    7       15     7  13    6.06   356.0   14.4      37.721
2013    7       15     7  20    6.06   356.2   14.4      37.775
2013    7       15     7  26    6.07   356.4   14.4      37.830
2013    7       15     7  33    6.08   356.6   14.4      37.886
2013    7       15     7  40    6.09   356.8   14.5      37.943
2013    7       15     7  47    6.10   357.0   14.5      38.003
2013    7       15     7  54    6.10   357.3   14.5      38.065
2013    7       15     8   0    6.11   357.5   14.5      38.129
2013    7       15     8   7    6.12   357.7   14.5      38.194
2013    7       15     8  14    6.13   357.9   14.5      38.262
2013    7       15     8  21    6.14   358.2   14.5      38.336
2013    7       15     8  28    6.15   358.4   14.5      38.415
2013    7       15     8  34    6.16   358.7   14.6      38.501
2013    7       15     8  41    6.17   358.9   14.6      38.592
2013    7       15     8  48    6.18   359.2   14.6      38.688
2013    7       15     8  55    6.20   359.5   14.6      38.789
2013    7       15     9   2    6.21   359.8   14.6      38.894
2013    7       15     9   8    6.22   360.1   14.7      39.001
2013    7       15     9  15    6.23   360.4   14.7      39.111
2013    7       15     9  22    6.24   360.7   14.7      39.225
2013    7       15     9  29    6.25   361.0   14.7      39.341
2013    7       15     9  36    6.26   361.4   14.7      39.460
2013    7       15     9  43    6.27   361.7   14.8      39.580
2013    7       15     9  49    6.28   362.0   14.8      39.699
2013    7       15     9  56    6.29   362.4   14.8      39.816
2013    7       15    10   3    6.30   362.7   14.8      39.931
2013    7       15    10  10    6.31   363.0   14.8      40.042
2013    7       15    10  17    6.31   363.4   14.8      40.150
2013    7       15    10  23    6.32   363.7   14.8      40.254
2013    7       15    10  30    6.33   364.0   14.8      40.354
2013    7       15    10  37    6.33   364.4   14.8      40.452
2013    7       15    10  44    6.34   364.7   14.8      40.546
2013    7       15    10  51    6.34   365.0   14.8      40.635
2013    7       15    10  58    6.35   365.3   14.8      40.720
2013    7       15    11   4    6.35   365.6   14.8      40.802
2013    7       15    11  11    6.36   365.9   14.8      40.879
2013    7       15    11  18    6.36   366.2   14.8      40.953
2013    7       15    11  25    6.36   366.5   14.8      41.023
2013    7       15    11  32    6.37   366.8   14.8      41.091
2013    7       15    11  38    6.37   367.0   14.8      41.155
2013    7       15    11  45    6.37   367.3   14.7      41.217
2013    7       15    11  52    6.38   367.6   14.7      41.276
2013    7       15    11  59    6.38   367.8   14.7      41.333
2013    7       15    12   6    6.38   368.1   14.7      41.389
2013    7       15    12  13    6.38   368.4   14.7      41.442
2013    7       15    12  19    6.39   368.7   14.7      41.494
2013    7       15    12  26    6.39   368.9   14.6      41.545
2013    7       15    12  33    6.39   369.2   14.6      41.594
2013    7       15    12  40    6.39   369.5   14.6      41.641
2013    7       15    12  47    6.39   369.7   14.6      41.686
2013    7       15    12  53    6.40   370.0   14.6      41.730
2013    7       15    13   0    6.40   370.3   14.5      41.773
2013    7       15    13   7    6.40   370.5   14.5      41.815
2013    7       15    13  14    6.40   370.8   14.5      41.856
2013    7       15    13  21    6.41   371.0   14.5      41.896
2013    7       15    13  28    6.41   371.2   14.5      41.937
2013    7       15    13  34    6.41   371.5   14.4      41.979
2013    7       15    13  41    6.42   371.7   14.4      42.022
2013    7       15    13  48    6.42   372.0   14.4      42.066
2013    7       15    13  55    6.42   372.2   14.4      42.111
2013    7       15    14   2    6.43   372.5   14.4      42.159
2013    7       15    14   8    6.43   372.7   14.4      42.213
2013    7       15    14  15    6.43   373.0   14.3      42.271
2013    7       15    14  22    6.44   373.3   14.3      42.334
2013    7       15    14  29    6.44   373.6   14.3      42.400
2013    7       15    14  36    6.45   374.0   14.3      42.470
2013    7       15    14  42    6.45   374.3   14.3      42.544
2013    7       15    14  49    6.46   374.6   14.3      42.619
2013    7       15    14  56    6.46   375.0   14.3      42.697
2013    7       15    15   3    6.47   375.3   14.3      42.777
2013    7       15    15  10    6.47   375.7   14.3      42.859
2013    7       15    15  16    6.48   376.0   14.2      42.943
2013    7       15    15  23    6.48   376.4   14.2      43.029
2013    7       15    15  30    6.49   376.8   14.2      43.115
2013    7       15    15  37    6.49   377.1   14.2      43.204
2013    7       15    15  43    6.50   377.5   14.2      43.293
2013    7       15    15  50    6.50   377.8   14.2      43.384
2013    7       15    15  57    6.51   378.2   14.2      43.477
2013    7       15    16   4    6.51   378.6   14.2      43.572
2013    7       15    16  11    6.51   378.9   14.2      43.668
2013    7       15    16  17    6.52   379.3   14.2      43.765
2013    7       15    16  24    6.52   379.7   14.2      43.863
2013    7       15    16  31    6.53   380.0   14.2      43.963
2013    7       15    16  38    6.53   380.4   14.2      44.064
2013    7       15    16  45    6.53   380.8   14.2      44.166
2013    7       15    16  51    6.54   381.2   14.2      44.271
2013    7       15    16  58    6.54   381.6   14.2      44.376
2013    7       15    17   5    6.54   381.9   14.2      44.479
2013    7       15    17  12    6.54   382.3   14.2      44.582
2013    7       15    17  19    6.54   382.7   14.2      44.685
2013    7       15    17  25    6.54   383.1   14.2      44.787
2013    7       15    17  32    6.55   383.5   14.1      44.889
2013    7       15    17  39    6.55   383.9   14.1      44.992
2013    7       15    17  46    6.55   384.3   14.1      45.093
2013    7       15    17  53    6.55   384.7   14.1      45.195
2013    7       15    17  59    6.55   385.1   14.1      45.297
2013    7       15    18   6    6.55   385.5   14.1      45.396
2013    7       15    18  13    6.54   385.9   14.1      45.494
2013    7       15    18  20    6.54   386.3   14.0      45.589
2013    7       15    18  27    6.54   386.7   14.0      45.682
2013    7       15    18  33    6.54   387.1   14.0      45.773
2013    7       15    18  40    6.54   387.5   14.0      45.860
2013    7       15    18  47    6.54   387.9   14.0      45.946
2013    7       15    18  54    6.53   388.3   13.9      46.028
2013    7       15    19   1    6.53   388.7   13.9      46.108
2013    7       15    19   7    6.53   389.1   13.9      46.185
2013    7       15    19  14    6.53   389.5   13.9      46.260
2013    7       15    19  21    6.52   389.9   13.8      46.330
2013    7       15    19  28    6.52   390.3   13.8      46.398
2013    7       15    19  35    6.52   390.7   13.8      46.464
2013    7       15    19  42    6.52   391.1   13.7      46.528
2013    7       15    19  48    6.51   391.5   13.7      46.589
2013    7       15    19  55    6.51   391.9   13.7      46.648
2013    7       15    20   2    6.51   392.3   13.6      46.704
2013    7       15    20   9    6.50   392.7   13.6      46.758
2013    7       15    20  16    6.50   393.1   13.6      46.811
2013    7       15    20  22    6.50   393.5   13.6      46.862
2013    7       15    20  29    6.50   393.9   13.5      46.912
2013    7       15    20  36    6.49   394.3   13.5      46.960
2013    7       15    20  43    6.49   394.6   13.5      47.007
2013    7       15    20  50    6.49   395.0   13.4      47.054
2013    7       15    20  56    6.48   395.4   13.4      47.100
2013    7       15    21   3    6.48   395.8   13.4      47.146
2013    7       15    21  10    6.48   396.2   13.3      47.192
2013    7       15    21  17    6.47   396.6   13.3      47.239
2013    7       15    21  24    6.47   397.0   13.3      47.288
2013    7       15    21  31    6.47   397.4   13.2      47.340
2013    7       15    21  37    6.46   397.8   13.2      47.395
2013    7       15    21  44    6.46   398.3   13.1      47.451
2013    7       15    21  51    6.46   398.7   13.1      47.507
2013    7       15    21  58    6.45   399.2   13.1      47.562
2013    7       15    22   5    6.45   399.7   13.0      47.615
2013    7       15    22  11    6.44   400.1   13.0      47.666
2013    7       15    22  18    6.44   400.6   12.9      47.714
2013    7       15    22  25    6.43   401.1   12.9      47.758
2013    7       15    22  32    6.42   401.6   12.8      47.800
2013    7       15    22  39    6.41   402.0   12.8      47.841
2013    7       15    22  45    6.41   402.5   12.7      47.878
2013    7       15    22  52    6.40   403.0   12.7      47.910
2013    7       15    22  59    6.39   403.5   12.6      47.935
2013    7       15    23   6    6.38   403.9   12.6      47.954
2013    7       15    23  13    6.37   404.4   12.5      47.967
2013    7       15    23  19    6.36   404.8   12.5      47.976
2013    7       15    23  26    6.35   405.2   12.4      47.982
2013    7       15    23  33    6.34   405.6   12.3      47.985
2013    7       15    23  40    6.33   406.1   12.3      47.987
2013    7       15    23  47    6.31   406.5   12.2      47.987
2013    7       15    23  53    6.30   406.9   12.2      47.986
2013    7       16     0   0    6.29   407.3   12.1      47.985
2013    7       16     0   7    6.28   407.7   12.1      47.982
2013    7       16     0  14    6.27   408.1   12.0      47.978
2013    7       16     0  21    6.26   408.4   12.0      47.971
2013    7       16     0  28    6.25   408.8   11.9      47.966
2013    7       16     0  34    6.23   409.1   11.9      47.963
2013    7       16     0  41    6.22   409.5   11.8      47.961
2013    7       16     0  48    6.21   409.9   11.8      47.962
2013    7       16     0  55    6.20   410.2   11.7      47.964
2013    7       16     1   2    6.19   410.6   11.7      47.969
2013    7       16     1   8    6.18   411.0   11.6      47.976
2013    7       16     1  15    6.17   411.4   11.6      47.987
2013    7       16     1  22    6.15   411.8   11.5      47.999
2013    7       16     1  29    6.14   412.1   11.5      48.013
2013    7       16     1  36    6.13   412.5   11.5      48.029
2013    7       16     1  42    6.12   412.9   11.4      48.045
2013    7       16     1  49    6.11   413.3   11.4      48.062
2013    7       16     1  56    6.10   413.7   11.3      48.079
2013    7       16     2   3    6.08   414.1   11.3      48.096
2013    7       16     2  10    6.07   414.5   11.3      48.112
2013    7       16     2  17    6.06   414.9   11.2      48.128
2013    7       16     2  23    6.05   415.3   11.2      48.143
2013    7       16     2  30    6.04   415.7   11.1      48.156
2013    7       16     2  37    6.02   416.1   11.1      48.168
2013    7       16     2  44    6.01   416.4   11.1      48.178
2013    7       16     2  51    6.00   416.8   11.0      48.185
2013    7       16     2  57    5.99   417.2   11.0      48.190
2013    7       16     3   4    5.97   417.6   10.9      48.193
2013    7       16     3  11    5.96   418.0   10.9      48.195
2013    7       16     3  18    5.95   418.4   10.9      48.196
2013    7       16     3  25    5.93   418.8   10.8      48.196
2013    7       16     3  31    5.92   419.2   10.8      48.195
2013    7       16     3  38    5.91   419.6   10.7      48.193
2013    7       16     3  45    5.89   420.0   10.7      48.190
2013    7       16     3  52    5.88   420.4   10.7      48.185
2013    7       16     3  59    5.87   420.8   10.6      48.179
2013    7       16     4   6    5.85   421.2   10.6      48.172
2013    7       16     4  12    5.84   421.6   10.5      48.163
2013    7       16     4  19    5.82   422.0   10.5      48.153
2013    7       16     4  26    5.81   422.4   10.4      48.140
2013    7       16     4  33    5.79   422.8   10.4      48.125
2013    7       16     4  40    5.78   423.2   10.4      48.108
2013    7       16     4  46    5.76   423.6   10.3      48.087
2013    7       16     4  53    5.75   424.0   10.3      48.064
2013    7       16     5   0    5.73   424.5   10.2      48.039
2013    7       16     5   7    5.72   424.9   10.2      48.010
2013    7       16     5  14    5.70   425.3   10.1      47.976
2013    7       16     5  20    5.68   425.7   10.1      47.936
2013    7       16     5  27    5.67   426.1   10.0      47.891
2013    7       16     5  34    5.65   426.5   10.0      47.842
2013    7       16     5  41    5.63   426.9    9.9      47.788
2013    7       16     5  48    5.62   427.3    9.9      47.728
2013    7       16     5  54    5.60   427.7    9.8      47.664
2013    7       16     6   1    5.58   428.1    9.7      47.598
2013    7       16     6   8    5.56   428.4    9.7      47.526
2013    7       16     6  15    5.55   428.8    9.6      47.447
2013    7       16     6  21    5.53   429.2    9.6      47.363
2013    7       16     6  28    5.51   429.5    9.5      47.273
2013    7       16     6  35    5.49   429.9    9.5      47.178
2013    7       16     6  42    5.47   430.2    9.4      47.079
2013    7       16     6  49    5.46   430.5    9.4      46.977
2013    7       16     6  55    5.44   430.8    9.3      46.875
2013    7       16     7   2    5.42   431.1    9.3      46.771
2013    7       16     7   9    5.40   431.4    9.2      46.666
2013    7       16     7  16    5.39   431.7    9.2      46.560
2013    7       16     7  23    5.37   432.0    9.1      46.454
2013    7       16     7  29    5.35   432.3    9.1      46.348
2013    7       16     7  36    5.34   432.6    9.0      46.241
2013    7       16     7  43    5.32   432.8    9.0      46.134
2013    7       16     7  50    5.30   433.1    8.9      46.031
2013    7       16     7  57    5.29   433.3    8.9      45.929
2013    7       16     8   3    5.27   433.6    8.8      45.830
2013    7       16     8  10    5.26   433.8    8.8      45.732
2013    7       16     8  17    5.24   434.1    8.8      45.636
2013    7       16     8  24    5.23   434.3    8.7      45.541
2013    7       16     8  31    5.21   434.6    8.7      45.447
2013    7       16     8  37    5.20   434.8    8.6      45.353
2013    7       16     8  44    5.18   435.0    8.6      45.260
2013    7       16     8  51    5.17   435.3    8.6      45.167
2013    7       16     8  58    5.15   435.5    8.5      45.075
2013    7       16     9   5    5.14   435.8    8.5      44.982
2013    7       16     9  11    5.12   436.0    8.5      44.890
2013    7       16     9  18    5.11   436.2    8.4      44.797
2013    7       16     9  25    5.09   436.5    8.4      44.705
2013    7       16     9  32    5.08   436.7    8.3      44.611
2013    7       16     9  39    5.06   436.9    8.3      44.517
2013    7       16     9  45    5.05   437.1    8.3      44.422
2013    7       16     9  52    5.03   437.4    8.2      44.326
2013    7       16     9  59    5.01   437.6    8.2      44.229
2013    7       16    10   6    5.00   437.8    8.2      44.132
2013    7       16    10  13    4.98   438.0    8.1      44.034
2013    7       16    10  20    4.97   438.2    8.1      43.935
2013    7       16    10  26    4.95   438.4    8.1      43.835
2013    7       16    10  33    4.94   438.6    8.0      43.735
2013    7       16    10  40    4.92   438.8    8.0      43.635
2013    7       16    10  47    4.91   439.0    8.0      43.534
2013    7       16    10  54    4.89   439.1    7.9      43.432
2013    7       16    11   0    4.88   439.3    7.9      43.331
2013    7       16    11   7    4.86   439.5    7.9      43.230
2013    7       16    11  14    4.85   439.6    7.8      43.129
2013    7       16    11  21    4.83   439.8    7.8      43.028
2013    7       16    11  28    4.82   439.9    7.8      42.928
2013    7       16    11  35    4.80   440.1    7.8      42.828
2013    7       16    11  41    4.79   440.2    7.7      42.729
2013    7       16    11  48    4.77   440.4    7.7      42.630
2013    7       16    11  55    4.76   440.5    7.7      42.532
2013    7       16    12   2    4.74   440.6    7.6      42.435
2013    7       16    12   9    4.73   440.8    7.6      42.338
2013    7       16    12  15    4.72   440.9    7.6      42.242
2013    7       16    12  22    4.70   441.0    7.6      42.147
2013    7       16    12  29    4.69   441.1    7.5      42.052
2013    7       16    12  36    4.67   441.2    7.5      41.959
2013    7       16    12  43    4.66   441.3    7.5      41.866
2013    7       16    12  49    4.65   441.4    7.5      41.774
2013    7       16    12  56    4.63   441.5    7.4      41.683
2013    7       16    13   3    4.62   441.6    7.4      41.593
2013    7       16    13  10    4.61   441.7    7.4      41.504
2013    7       16    13  17    4.60   441.7    7.4      41.415
2013    7       16    13  23    4.58   441.8    7.3      41.328
2013    7       16    13  30    4.57   441.9    7.3      41.241
2013    7       16    13  37    4.56   441.9    7.3      41.155
2013    7       16    13  44    4.55   442.0    7.3      41.070
2013    7       16    13  51    4.54   442.0    7.3      40.986
2013    7       16    13  57    4.53   442.1    7.2      40.903
2013    7       16    14   4    4.52   442.1    7.2      40.821
2013    7       16    14  11    4.50   442.2    7.2      40.740
2013    7       16    14  18    4.49   442.2    7.2      40.660
2013    7       16    14  25    4.48   442.3    7.2      40.582
2013    7       16    14  31    4.47   442.3    7.2      40.504
2013    7       16    14  38    4.46   442.3    7.1      40.428
2013    7       16    14  45    4.45   442.4    7.1      40.353
2013    7       16    14  52    4.44   442.4    7.1      40.279
2013    7       16    14  59    4.43   442.4    7.1      40.207
2013    7       16    15   5    4.42   442.5    7.1      40.136
2013    7       16    15  12    4.42   442.5    7.1      40.066
2013    7       16    15  19    4.41   442.5    7.1      39.997
2013    7       16    15  26    4.40   442.6    7.0      39.930
2013    7       16    15  33    4.39   442.6    7.0      39.863
2013    7       16    15  40    4.38   442.6    7.0      39.798
2013    7       16    15  46    4.37   442.6    7.0      39.733
2013    7       16    15  53    4.36   442.7    7.0      39.668
2013    7       16    16   0    4.35   442.7    7.0      39.604
2013    7       16    16   7    4.35   442.7    7.0      39.539
2013    7       16    16  14    4.34   442.8    7.0      39.476
2013    7       16    16  20    4.33   442.8    6.9      39.412
2013    7       16    16  27    4.32   442.8    6.9      39.349
2013    7       16    16  34    4.31   442.9    6.9      39.286
2013    7       16    16  41    4.31   442.9    6.9      39.223
2013    7       16    16  48    4.30   442.9    6.9      39.159
2013    7       16    16  55    4.29   443.0    6.9      39.095
2013    7       16    17   1    4.28   443.0    6.9      39.031
2013    7       16    17   8    4.27   443.1    6.8      38.966
2013    7       16    17  15    4.27   443.1    6.8      38.901
2013    7       16    17  22    4.26   443.1    6.8      38.836
2013    7       16    17  29    4.25   443.2    6.8      38.771
2013    7       16    17  36    4.24   443.2    6.8      38.706
2013    7       16    17  42    4.23   443.2    6.8      38.641
2013    7       16    17  49    4.23   443.2    6.8      38.577
2013    7       16    17  56    4.22   443.2    6.8      38.513
2013    7       16    18   3    4.21   443.2    6.7      38.450
2013    7       16    18  10    4.21   443.3    6.7      38.387
2013    7       16    18  16    4.20   443.3    6.7      38.325
2013    7       16    18  23    4.19   443.3    6.7      38.265
2013    7       16    18  30    4.18   443.3    6.7      38.205
2013    7       16    18  37    4.18   443.3    6.7      38.146
2013    7       16    18  44    4.17   443.3    6.7      38.088
2013    7       16    18  50    4.16   443.3    6.7      38.031
2013    7       16    18  57    4.16   443.3    6.6      37.975
2013    7       16    19   4    4.15   443.3    6.6      37.919
2013    7       16    19  11    4.14   443.3    6.6      37.864
2013    7       16    19  18    4.14   443.3    6.6      37.810
2013    7       16    19  25    4.13   443.3    6.6      37.757
2013    7       16    19  31    4.13   443.3    6.6      37.704
2013    7       16    19  38    4.12   443.3    6.6      37.651
2013    7       16    19  45    4.11   443.3    6.6      37.599
2013    7       16    19  52    4.11   443.3    6.6      37.548
2013    7       16    19  59    4.10   443.3    6.5      37.498
2013    7       16    20   5    4.10   443.2    6.5      37.447
2013    7       16    20  12    4.09   443.2    6.5      37.397
2013    7       16    20  19    4.09   443.2    6.5      37.347
2013    7       16    20  26    4.08   443.2    6.5      37.298
2013    7       16    20  33    4.07   443.2    6.5      37.249
2013    7       16    20  39    4.07   443.2    6.5      37.199
2013    7       16    20  46    4.06   443.2    6.5      37.150
2013    7       16    20  53    4.06   443.2    6.5      37.101
2013    7       16    21   0    4.05   443.2    6.5      37.052
2013    7       16    21   7    4.05   443.2    6.5      37.003
2013    7       16    21  13    4.04   443.1    6.4      36.953
2013    7       16    21  20    4.04   443.1    6.4      36.904
2013    7       16    21  27    4.03   443.1    6.4      36.855
2013    7       16    21  34    4.03   443.1    6.4      36.806
2013    7       16    21  41    4.03   443.1    6.4      36.757
2013    7       16    21  47    4.02   443.1    6.4      36.708
2013    7       16    21  54    4.02   443.1    6.4      36.660
2013    7       16    22   1    4.01   443.1    6.4      36.612
2013    7       16    22   8    4.01   443.1    6.4      36.564
2013    7       16    22  15    4.00   443.1    6.4      36.517
2013    7       16    22  21    4.00   443.0    6.4      36.471
2013    7       16    22  28    3.99   443.0    6.4      36.425
2013    7       16    22  35    3.99   443.0    6.3      36.380
2013    7       16    22  42    3.99   443.0    6.3      36.336
2013    7       16    22  49    3.98   443.0    6.3      36.292
2013    7       16    22  55    3.98   443.0    6.3      36.249
2013    7       16    23   2    3.97   442.9    6.3      36.207
2013    7       16    23   9    3.97   442.9    6.3      36.164
2013    7       16    23  16    3.97   442.9    6.3      36.123
2013    7       16    23  23    3.96   442.8    6.3      36.082
2013    7       16    23  30    3.96   442.8    6.3      36.042
2013    7       16    23  36    3.96   442.8    6.3      36.002
2013    7       16    23  43    3.95   442.8    6.3      35.962
2013    7       16    23  50    3.95   442.7    6.3      35.923
2013    7       16    23  57    3.95   442.7    6.3      35.884
2013    7       17     0   4    3.94   442.6    6.3      35.846
2013    7       17     0  11    3.94   442.6    6.3      35.808
2013    7       17     0  17    3.94   442.6    6.3      35.770
2013    7       17     0  24    3.93   442.5    6.3      35.733
2013    7       17     0  31    3.93   442.5    6.3      35.696
2013    7       17     0  38    3.93   442.4    6.3      35.660
2013    7       17     0  45    3.92   442.4    6.2      35.624
2013    7       17     0  51    3.92   442.3    6.2      35.589
2013    7       17     0  58    3.92   442.3    6.2      35.554
2013    7       17     1   5    3.91   442.2    6.2      35.521
2013    7       17     1  12    3.91   442.2    6.2      35.488
2013    7       17     1  19    3.91   442.1    6.2      35.455
2013    7       17     1  26    3.90   442.1    6.2      35.424
2013    7       17     1  32    3.90   442.0    6.2      35.392
2013    7       17     1  39    3.90   442.0    6.2      35.362
2013    7       17     1  46    3.90   441.9    6.2      35.331
2013    7       17     1  53    3.89   441.9    6.2      35.301
2013    7       17     2   0    3.89   441.8    6.2      35.271
2013    7       17     2   6    3.89   441.8    6.2      35.242
2013    7       17     2  13    3.88   441.7    6.2      35.212
2013    7       17     2  20    3.88   441.7    6.2      35.183
2013    7       17     2  27    3.88   441.6    6.2      35.154
2013    7       17     2  34    3.88   441.6    6.2      35.125
2013    7       17     2  40    3.87   441.5    6.2      35.095
2013    7       17     2  47    3.87   441.4    6.2      35.066
2013    7       17     2  54    3.87   441.4    6.2      35.037
2013    7       17     3   1    3.87   441.3    6.2      35.008
2013    7       17     3   8    3.86   441.3    6.2      34.978
2013    7       17     3  14    3.86   441.2    6.2      34.949
2013    7       17     3  21    3.86   441.2    6.2      34.919
2013    7       17     3  28    3.86   441.1    6.2      34.889
2013    7       17     3  35    3.86   441.0    6.2      34.860
2013    7       17     3  42    3.85   441.0    6.1      34.830
2013    7       17     3  48    3.85   440.9    6.1      34.801
2013    7       17     3  55    3.85   440.9    6.1      34.771
2013    7       17     4   2    3.85   440.8    6.1      34.742
2013    7       17     4   9    3.84   440.8    6.1      34.712
2013    7       17     4  16    3.84   440.7    6.1      34.683
2013    7       17     4  22    3.84   440.6    6.1      34.654
2013    7       17     4  29    3.84   440.6    6.1      34.626
2013    7       17     4  36    3.84   440.5    6.1      34.597
2013    7       17     4  43    3.83   440.5    6.1      34.569
2013    7       17     4  50    3.83   440.4    6.1      34.541
2013    7       17     4  56    3.83   440.3    6.1      34.513
2013    7       17     5   3    3.83   440.3    6.1      34.486
2013    7       17     5  10    3.83   440.2    6.1      34.460
2013    7       17     5  17    3.82   440.2    6.1      34.433
2013    7       17     5  24    3.82   440.1    6.1      34.408
2013    7       17     5  30    3.82   440.0    6.1      34.383
2013    7       17     5  37    3.82   440.0    6.1      34.359
2013    7       17     5  44    3.82   439.9    6.1      34.335
2013    7       17     5  51    3.82   439.8    6.1      34.312
2013    7       17     5  58    3.81   439.8    6.1      34.290
2013    7       17     6   5    3.81   439.7    6.1      34.269
2013    7       17     6  11    3.81   439.7    6.1      34.248
2013    7       17     6  18    3.81   439.6    6.1      34.228
2013    7       17     6  25    3.81   439.5    6.1      34.209
2013    7       17     6  32    3.81   439.5    6.1      34.190
2013    7       17     6  39    3.81   439.4    6.1      34.172
2013    7       17     6  45    3.81   439.3    6.1      34.155
2013    7       17     6  52    3.80   439.3    6.1      34.138
2013    7       17     6  59    3.80   439.2    6.1      34.122
2013    7       17     7   6    3.80   439.2    6.1      34.106
2013    7       17     7  13    3.80   439.1    6.1      34.091
2013    7       17     7  20    3.80   439.0    6.1      34.075
2013    7       17     7  26    3.80   439.0    6.1      34.060
2013    7       17     7  33    3.80   438.9    6.1      34.045
2013    7       17     7  40    3.80   438.8    6.1      34.030
2013    7       17     7  47    3.80   438.8    6.1      34.015
2013    7       17     7  54    3.80   438.7    6.1      34.000
2013    7       17     8   0    3.79   438.7    6.1      33.984
2013    7       17     8   7    3.79   438.6    6.1      33.969
2013    7       17     8  14    3.79   438.5    6.1      33.954
2013    7       17     8  21    3.79   438.5    6.1      33.938
2013    7       17     8  28    3.79   438.4    6.1      33.923
2013    7       17     8  35    3.79   438.3    6.1      33.907
2013    7       17     8  41    3.79   438.3    6.1      33.892
2013    7       17     8  48    3.79   438.2    6.1      33.876
2013    7       17     8  55    3.79   438.1    6.1      33.860
2013    7       17     9   2    3.79   438.1    6.1      33.845
2013    7       17     9   9    3.79   438.0    6.1      33.829
2013    7       17     9  15    3.79   437.9    6.1      33.813
2013    7       17     9  22    3.79   437.9    6.1      33.797
2013    7       17     9  29    3.79   437.8    6.1      33.781
2013    7       17     9  36    3.78   437.8    6.1      33.764
2013    7       17     9  43    3.78   437.7    6.1      33.748
2013    7       17     9  49    3.78   437.6    6.1      33.732
2013    7       17     9  56    3.78   437.6    6.1      33.715
2013    7       17    10   3    3.78   437.5    6.1      33.698
2013    7       17    10  10    3.78   437.4    6.1      33.681
2013    7       17    10  17    3.78   437.4    6.1      33.664
2013    7       17    10  23    3.78   437.3    6.1      33.647
2013    7       17    10  30    3.78   437.3    6.1      33.630
2013    7       17    10  37    3.78   437.2    6.1      33.612
2013    7       17    10  44    3.78   437.1    6.1      33.595
2013    7       17    10  51    3.78   437.1    6.1      33.578
2013    7       17    10  57    3.78   437.0    6.1      33.560
2013    7       17    11   4    3.77   436.9    6.1      33.542
2013    7       17    11  11    3.77   436.9    6.1      33.525
2013    7       17    11  18    3.77   436.8    6.1      33.507
2013    7       17    11  25    3.77   436.7    6.1      33.489
2013    7       17    11  31    3.77   436.7    6.1      33.471
2013    7       17    11  38    3.77   436.6    6.1      33.453
2013    7       17    11  45    3.77   436.5    6.1      33.435
2013    7       17    11  52    3.77   436.5    6.1      33.418
2013    7       17    11  59    3.77   436.4    6.1      33.400
2013    7       17    12   5    3.77   436.3    6.1      33.382
2013    7       17    12  12    3.77   436.2    6.1      33.365
2013    7       17    12  19    3.77   436.2    6.1      33.347
2013    7       17    12  26    3.77   436.1    6.1      33.330
2013    7       17    12  33    3.77   436.0    6.1      33.312
2013    7       17    12  39    3.77   436.0    6.1      33.295
2013    7       17    12  46    3.77   435.9    6.1      33.278
2013    7       17    12  53    3.76   435.8    6.1      33.262
2013    7       17    13   0    3.76   435.7    6.1      33.245
2013    7       17    13   7    3.76   435.7    6.1      33.229
2013    7       17    13  14    3.76   435.6    6.1      33.212
2013    7       17    13  20    3.76   435.5    6.1      33.197
2013    7       17    13  27    3.76   435.5    6.1      33.181
2013    7       17    13  34    3.76   435.4    6.1      33.165
2013    7       17    13  41    3.76   435.3    6.1      33.150
2013    7       17    13  48    3.76   435.2    6.1      33.135
2013    7       17    13  54    3.76   435.2    6.1      33.120
2013    7       17    14   1    3.76   435.1    6.1      33.105
2013    7       17    14   8    3.76   435.0    6.1      33.091
2013    7       17    14  15    3.76   434.9    6.1      33.077
2013    7       17    14  22    3.76   434.9    6.1      33.062
2013    7       17    14  28    3.76   434.8    6.1      33.049
2013    7       17    14  35    3.76   434.7    6.1      33.035
2013    7       17    14  42    3.76   434.6    6.1      33.022
2013    7       17    14  49    3.76   434.6    6.1      33.009
2013    7       17    14  56    3.76   434.5    6.1      32.996
2013    7       17    15   3    3.76   434.4    6.1      32.983
2013    7       17    15   9    3.76   434.3    6.1      32.970
2013    7       17    15  16    3.76   434.3    6.1      32.958
2013    7       17    15  23    3.76   434.2    6.1      32.946
2013    7       17    15  30    3.76   434.1    6.1      32.934
2013    7       17    15  37    3.76   434.0    6.1      32.923
2013    7       17    15  44    3.76   434.0    6.1      32.912
2013    7       17    15  50    3.76   433.9    6.1      32.901
2013    7       17    15  57    3.76   433.8    6.1      32.890
2013    7       17    16   4    3.76   433.7    6.1      32.880
2013    7       17    16  11    3.76   433.7    6.1      32.870
2013    7       17    16  18    3.76   433.6    6.1      32.861
2013    7       17    16  24    3.76   433.5    6.1      32.851
2013    7       17    16  31    3.76   433.5    6.1      32.842
2013    7       17    16  38    3.76   433.4    6.1      32.833
2013    7       17    16  45    3.76   433.3    6.1      32.825
2013    7       17    16  52    3.76   433.3    6.1      32.816
2013    7       17    16  58    3.76   433.2    6.1      32.808
2013    7       17    17   5    3.76   433.1    6.1      32.800
2013    7       17    17  12    3.76   433.1    6.1      32.792
2013    7       17    17  19    3.76   433.0    6.1      32.784
2013    7       17    17  26    3.77   432.9    6.1      32.777
2013    7       17    17  32    3.77   432.9    6.1      32.769
2013    7       17    17  39    3.77   432.8    6.1      32.761
2013    7       17    17  46    3.77   432.8    6.1      32.754
2013    7       17    17  53    3.77   432.7    6.1      32.746
2013    7       17    18   0    3.77   432.6    6.1      32.739
2013    7       17    18   6    3.77   432.6    6.1      32.731
2013    7       17    18  13    3.77   432.5    6.1      32.723
2013    7       17    18  20    3.77   432.4    6.1      32.716
2013    7       17    18  27    3.77   432.4    6.1      32.708
2013    7       17    18  34    3.77   432.3    6.1      32.701
2013    7       17    18  40    3.77   432.3    6.1      32.693
2013    7       17    18  47    3.77   432.2    6.1      32.685
2013    7       17    18  54    3.77   432.1    6.1      32.677
2013    7       17    19   1    3.77   432.1    6.1      32.669
2013    7       17    19   8    3.77   432.0    6.1      32.661
2013    7       17    19  14    3.77   431.9    6.1      32.653
2013    7       17    19  21    3.77   431.9    6.1      32.645
2013    7       17    19  28    3.77   431.8    6.1      32.636
2013    7       17    19  35    3.77   431.7    6.1      32.628
2013    7       17    19  42    3.77   431.7    6.1      32.620
2013    7       17    19  48    3.77   431.6    6.1      32.611
2013    7       17    19  55    3.77   431.5    6.1      32.602
2013    7       17    20   2    3.77   431.5    6.1      32.593
2013    7       17    20   9    3.78   431.4    6.1      32.585
2013    7       17    20  16    3.78   431.3    6.1      32.575
2013    7       17    20  22    3.78   431.3    6.1      32.566
2013    7       17    20  29    3.78   431.2    6.1      32.557
2013    7       17    20  36    3.78   431.1    6.1      32.548
2013    7       17    20  43    3.78   431.1    6.1      32.539
2013    7       17    20  50    3.78   431.0    6.1      32.529
2013    7       17    20  57    3.78   430.9    6.1      32.520
2013    7       17    21   3    3.78   430.9    6.1      32.510
2013    7       17    21  10    3.78   430.8    6.1      32.501
2013    7       17    21  17    3.78   430.7    6.1      32.491
2013    7       17    21  24    3.78   430.6    6.2      32.482
2013    7       17    21  31    3.78   430.6    6.2      32.473
2013    7       17    21  37    3.78   430.5    6.2      32.463
2013    7       17    21  44    3.78   430.4    6.2      32.454
2013    7       17    21  51    3.78   430.4    6.2      32.445
2013    7       17    21  58    3.78   430.3    6.2      32.436
2013    7       17    22   5    3.79   430.2    6.2      32.427
2013    7       17    22  12    3.79   430.1    6.2      32.419
2013    7       17    22  18    3.79   430.1    6.2      32.411
2013    7       17    22  25    3.79   430.0    6.2      32.403
2013    7       17    22  32    3.79   429.9    6.2      32.396
2013    7       17    22  39    3.79   429.8    6.2      32.389
2013    7       17    22  46    3.79   429.8    6.2      32.382
2013    7       17    22  52    3.79   429.7    6.2      32.376
2013    7       17    22  59    3.79   429.6    6.2      32.371
2013    7       17    23   6    3.80   429.6    6.2      32.366
2013    7       17    23  13    3.80   429.5    6.2      32.362
2013    7       17    23  20    3.80   429.4    6.2      32.358
2013    7       17    23  27    3.80   429.4    6.2      32.355
2013    7       17    23  33    3.80   429.3    6.2      32.353
2013    7       17    23  40    3.80   429.2    6.2      32.351
2013    7       17    23  47    3.81   429.2    6.2      32.350
2013    7       17    23  54    3.81   429.1    6.2      32.350
2013    7       18     0   1    3.81   429.0    6.2      32.350
2013    7       18     0   7    3.81   429.0    6.2      32.350
2013    7       18     0  14    3.81   428.9    6.2      32.351
2013    7       18     0  21    3.81   428.9    6.2      32.352
2013    7       18     0  28    3.82   428.8    6.2      32.354
2013    7       18     0  35    3.82   428.7    6.2      32.357
2013    7       18     0  41    3.82   428.7    6.2      32.359
2013    7       18     0  48    3.82   428.6    6.2      32.362
2013    7       18     0  55    3.82   428.6    6.2      32.366
2013    7       18     1   2    3.83   428.5    6.2      32.369
2013    7       18     1   9    3.83   428.5    6.2      32.373
2013    7       18     1  15    3.83   428.4    6.2      32.376
2013    7       18     1  22    3.83   428.4    6.2      32.380
2013    7       18     1  29    3.84   428.3    6.3      32.384
2013    7       18     1  36    3.84   428.3    6.3      32.388
2013    7       18     1  43    3.84   428.2    6.3      32.392
2013    7       18     1  49    3.84   428.2    6.3      32.396
2013    7       18     1  56    3.84   428.1    6.3      32.400
2013    7       18     2   3    3.85   428.1    6.3      32.404
2013    7       18     2  10    3.85   428.1    6.3      32.409
2013    7       18     2  17    3.85   428.0    6.3      32.413
2013    7       18     2  23    3.85   428.0    6.3      32.417
2013    7       18     2  30    3.85   427.9    6.3      32.421
2013    7       18     2  37    3.86   427.9    6.3      32.425
2013    7       18     2  44    3.86   427.8    6.3      32.429
2013    7       18     2  51    3.86   427.8    6.3      32.433
2013    7       18     2  57    3.86   427.7    6.3      32.437
2013    7       18     3   4    3.86   427.7    6.3      32.441
2013    7       18     3  11    3.87   427.6    6.3      32.445
2013    7       18     3  18    3.87   427.6    6.3      32.449
2013    7       18     3  25    3.87   427.6    6.3      32.454
2013    7       18     3  31    3.87   427.5    6.3      32.459
2013    7       18     3  38    3.88   427.5    6.4      32.463
2013    7       18     3  45    3.88   427.4    6.4      32.469
2013    7       18     3  52    3.88   427.4    6.4      32.474
2013    7       18     3  59    3.88   427.3    6.4      32.480
2013    7       18     4   5    3.89   427.3    6.4      32.487
2013    7       18     4  12    3.89   427.3    6.4      32.494
2013    7       18     4  19    3.89   427.2    6.4      32.502
2013    7       18     4  26    3.89   427.2    6.4      32.511
2013    7       18     4  33    3.90   427.2    6.4      32.521
2013    7       18     4  39    3.90   427.1    6.4      32.532
2013    7       18     4  46    3.90   427.1    6.4      32.545
2013    7       18     4  53    3.91   427.1    6.4      32.558
2013    7       18     5   0    3.91   427.1    6.4      32.573
2013    7       18     5   7    3.91   427.0    6.4      32.588
2013    7       18     5  14    3.91   427.0    6.4      32.604
2013    7       18     5  20    3.92   427.0    6.4      32.621
2013    7       18     5  27    3.92   427.0    6.4      32.638
2013    7       18     5  34    3.92   427.0    6.5      32.656
2013    7       18     5  41    3.93   427.0    6.5      32.674
2013    7       18     5  48    3.93   426.9    6.5      32.692
2013    7       18     5  54    3.93   426.9    6.5      32.710
2013    7       18     6   1    3.94   426.9    6.5      32.727
2013    7       18     6   8    3.94   426.9    6.5      32.745
2013    7       18     6  15    3.94   426.9    6.5      32.762
2013    7       18     6  22    3.94   426.9    6.5      32.779
2013    7       18     6  29    3.95   426.9    6.5      32.796
2013    7       18     6  35    3.95   426.9    6.5      32.813
2013    7       18     6  42    3.95   426.8    6.5      32.830
2013    7       18     6  49    3.96   426.8    6.5      32.847
2013    7       18     6  56    3.96   426.8    6.5      32.864
2013    7       18     7   3    3.96   426.8    6.5      32.880
2013    7       18     7   9    3.97   426.8    6.5      32.897
2013    7       18     7  16    3.97   426.8    6.5      32.914
2013    7       18     7  23    3.97   426.8    6.5      32.930
2013    7       18     7  30    3.97   426.8    6.5      32.947
2013    7       18     7  37    3.98   426.8    6.5      32.963
2013    7       18     7  43    3.98   426.8    6.5      32.980
2013    7       18     7  50    3.98   426.8    6.6      32.996
2013    7       18     7  57    3.99   426.8    6.6      33.012
2013    7       18     8   4    3.99   426.8    6.6      33.028
2013    7       18     8  11    3.99   426.8    6.6      33.044
2013    7       18     8  17    4.00   426.8    6.6      33.060
2013    7       18     8  24    4.00   426.8    6.6      33.075
2013    7       18     8  31    4.00   426.8    6.6      33.090
2013    7       18     8  38    4.01   426.8    6.6      33.106
2013    7       18     8  45    4.01   426.8    6.6      33.121
2013    7       18     8  51    4.01   426.8    6.6      33.136
2013    7       18     8  58    4.02   426.8    6.6      33.151
2013    7       18     9   5    4.02   426.8    6.6      33.165
2013    7       18     9  12    4.02   426.8    6.6      33.180
2013    7       18     9  19    4.03   426.8    6.6      33.195
2013    7       18     9  25    4.03   426.8    6.6      33.209
2013    7       18     9  32    4.03   426.8    6.6      33.224
2013    7       18     9  39    4.04   426.8    6.6      33.238
2013    7       18     9  46    4.04   426.8    6.6      33.253
2013    7       18     9  53    4.04   426.8    6.6      33.267
2013    7       18     9  59    4.04   426.8    6.6      33.282
2013    7       18    10   6    4.05   426.8    6.6      33.297
2013    7       18    10  13    4.05   426.8    6.7      33.312
2013    7       18    10  20    4.05   426.8    6.7      33.328
2013    7       18    10  27    4.06   426.8    6.7      33.343
2013    7       18    10  33    4.06   426.8    6.7      33.360
2013    7       18    10  40    4.07   426.8    6.7      33.376
2013    7       18    10  47    4.07   426.8    6.7      33.393
2013    7       18    10  54    4.07   426.8    6.7      33.411
2013    7       18    11   1    4.08   426.9    6.7      33.430
2013    7       18    11   7    4.08   426.9    6.7      33.450
2013    7       18    11  14    4.08   426.9    6.7      33.471
2013    7       18    11  21    4.09   426.9    6.7      33.494
2013    7       18    11  28    4.09   427.0    6.7      33.518
2013    7       18    11  35    4.09   427.0    6.7      33.544
2013    7       18    11  41    4.10   427.0    6.7      33.572
2013    7       18    11  48    4.10   427.1    6.8      33.602
2013    7       18    11  55    4.10   427.1    6.8      33.633
2013    7       18    12   2    4.11   427.2    6.8      33.666
2013    7       18    12   9    4.11   427.2    6.8      33.700
2013    7       18    12  16    4.11   427.3    6.8      33.735
2013    7       18    12  22    4.12   427.3    6.8      33.770
2013    7       18    12  29    4.12   427.4    6.8      33.806
2013    7       18    12  36    4.12   427.4    6.8      33.843
2013    7       18    12  43    4.13   427.5    6.8      33.879
2013    7       18    12  50    4.13   427.6    6.8      33.915
2013    7       18    12  56    4.13   427.6    6.8      33.951
2013    7       18    13   3    4.14   427.7    6.8      33.986
2013    7       18    13  10    4.14   427.7    6.8      34.020
2013    7       18    13  17    4.14   427.8    6.8      34.054
2013    7       18    13  24    4.15   427.8    6.8      34.087
2013    7       18    13  31    4.15   427.9    6.8      34.120
2013    7       18    13  37    4.15   428.0    6.9      34.152
2013    7       18    13  44    4.15   428.0    6.9      34.183
2013    7       18    13  51    4.16   428.1    6.9      34.214
2013    7       18    13  58    4.16   428.1    6.9      34.244
2013    7       18    14   5    4.16   428.2    6.9      34.274
2013    7       18    14  11    4.17   428.3    6.9      34.304
2013    7       18    14  18    4.17   428.3    6.9      34.333
2013    7       18    14  25    4.17   428.4    6.9      34.361
2013    7       18    14  32    4.17   428.5    6.9      34.390
2013    7       18    14  39    4.18   428.5    6.9      34.417
2013    7       18    14  45    4.18   428.6    6.9      34.445
2013    7       18    14  52    4.18   428.6    6.9      34.472
2013    7       18    14  59    4.18   428.7    6.9      34.499
2013    7       18    15   6    4.19   428.8    6.9      34.525
2013    7       18    15  13    4.19   428.8    6.9      34.551
2013    7       18    15  19    4.19   428.9    6.9      34.577
2013    7       18    15  26    4.20   429.0    6.9      34.603
2013    7       18    15  33    4.20   429.0    6.9      34.628
2013    7       18    15  40    4.20   429.1    6.9      34.653
2013    7       18    15  47    4.20   429.2    6.9      34.678
2013    7       18    15  53    4.21   429.2    6.9      34.703
2013    7       18    16   0    4.21   429.3    6.9      34.727
2013    7       18    16   7    4.21   429.4    6.9      34.752
2013    7       18    16  14    4.21   429.5    6.9      34.776
2013    7       18    16  21    4.22   429.5    6.9      34.800
2013    7       18    16  27    4.22   429.6    6.9      34.824
2013    7       18    16  34    4.22   429.7    6.9      34.849
2013    7       18    16  41    4.23   429.7    6.9      34.873
2013    7       18    16  48    4.23   429.8    6.9      34.897
2013    7       18    16  55    4.23   429.9    6.9      34.922
2013    7       18    17   1    4.23   430.0    6.9      34.946
2013    7       18    17   8    4.24   430.1    6.9      34.971
2013    7       18    17  15    4.24   430.1    6.9      34.996
2013    7       18    17  22    4.24   430.2    6.9      35.021
2013    7       18    17  29    4.25   430.3    6.9      35.047
2013    7       18    17  35    4.25   430.4    7.0      35.073
2013    7       18    17  42    4.25   430.4    7.0      35.099
2013    7       18    17  49    4.26   430.5    7.0      35.126
2013    7       18    17  56    4.26   430.6    7.0      35.152
2013    7       18    18   3    4.26   430.7    7.0      35.180
2013    7       18    18   9    4.27   430.8    7.0      35.208
2013    7       18    18  16    4.27   430.9    7.0      35.236
2013    7       18    18  23    4.27   431.0    7.0      35.265
2013    7       18    18  30    4.28   431.0    7.0      35.294
2013    7       18    18  37    4.28   431.1    7.0      35.324
2013    7       18    18  43    4.29   431.2    7.0      35.355
2013    7       18    18  50    4.29   431.3    7.0      35.387
2013    7       18    18  57    4.29   431.4    7.0      35.421
2013    7       18    19   4    4.30   431.5    7.0      35.456
2013    7       18    19  11    4.30   431.6    7.0      35.492
2013    7       18    19  17    4.31   431.7    7.0      35.529
2013    7       18    19  24    4.31   431.8    7.0      35.567
2013    7       18    19  31    4.31   432.0    7.0      35.605
2013    7       18    19  38    4.32   432.1    7.0      35.643
2013    7       18    19  45    4.32   432.2    7.0      35.682
2013    7       18    19  52    4.33   432.3    7.0      35.721
2013    7       18    19  58    4.33   432.4    7.0      35.759
2013    7       18    20   5    4.33   432.5    7.1      35.797
2013    7       18    20  12    4.34   432.6    7.1      35.834
2013    7       18    20  19    4.34   432.7    7.1      35.869
2013    7       18    20  26    4.34   432.9    7.1      35.904
2013    7       18    20  32    4.34   433.0    7.1      35.938
2013    7       18    20  39    4.35   433.1    7.1      35.970
2013    7       18    20  46    4.35   433.2    7.1      36.002
2013    7       18    20  53    4.35   433.3    7.1      36.033
2013    7       18    21   0    4.36   433.4    7.1      36.063
2013    7       18    21   7    4.36   433.5    7.1      36.092
2013    7       18    21  13    4.36   433.6    7.1      36.120
2013    7       18    21  20    4.36   433.7    7.1      36.148
2013    7       18    21  27    4.36   433.8    7.1      36.174
2013    7       18    21  34    4.37   433.9    7.1      36.200
2013    7       18    21  41    4.37   434.0    7.1      36.225
2013    7       18    21  47    4.37   434.1    7.1      36.250
2013    7       18    21  54    4.37   434.2    7.1      36.274
2013    7       18    22   1    4.37   434.2    7.1      36.297
2013    7       18    22   8    4.38   434.3    7.1      36.319
2013    7       18    22  15    4.38   434.4    7.1      36.342
2013    7       18    22  21    4.38   434.5    7.1      36.363
2013    7       18    22  28    4.38   434.6    7.1      36.384
2013    7       18    22  35    4.38   434.7    7.1      36.405
2013    7       18    22  42    4.38   434.8    7.1      36.425
2013    7       18    22  49    4.38   434.9    7.1      36.446
2013    7       18    22  55    4.39   434.9    7.1      36.466
2013    7       18    23   2    4.39   435.0    7.1      36.486
2013    7       18    23   9    4.39   435.1    7.1      36.506
2013    7       18    23  16    4.39   435.2    7.1      36.526
2013    7       18    23  23    4.39   435.3    7.1      36.547
2013    7       18    23  29    4.39   435.3    7.1      36.568
2013    7       18    23  36    4.39   435.4    7.1      36.589
2013    7       18    23  43    4.39   435.5    7.1      36.611
2013    7       18    23  50    4.39   435.6    7.1      36.635
2013    7       18    23  57    4.39   435.7    7.1      36.659
2013    7       19     0   3    4.40   435.8    7.1      36.685
2013    7       19     0  10    4.40   435.9    7.1      36.711
2013    7       19     0  17    4.40   436.0    7.1      36.738
2013    7       19     0  24    4.40   436.1    7.1      36.766
2013    7       19     0  31    4.40   436.2    7.1      36.795
2013    7       19     0  37    4.40   436.3    7.1      36.823
2013    7       19     0  44    4.40   436.4    7.1      36.852
2013    7       19     0  51    4.40   436.5    7.1      36.880
2013    7       19     0  58    4.40   436.6    7.1      36.909
2013    7       19     1   5    4.40   436.7    7.1      36.937
2013    7       19     1  11    4.40   436.8    7.1      36.965
2013    7       19     1  18    4.40   436.9    7.1      36.991
2013    7       19     1  25    4.40   437.0    7.1      37.017
2013    7       19     1  32    4.40   437.1    7.1      37.041
2013    7       19     1  39    4.40   437.3    7.1      37.065
2013    7       19     1  45    4.40   437.4    7.1      37.088
2013    7       19     1  52    4.40   437.5    7.0      37.111
2013    7       19     1  59    4.40   437.6    7.0      37.133
2013    7       19     2   6    4.40   437.7    7.0      37.154
2013    7       19     2  13    4.40   437.8    7.0      37.175
2013    7       19     2  19    4.40   437.9    7.0      37.195
2013    7       19     2  26    4.40   438.0    7.0      37.216
2013    7       19     2  33    4.40   438.2    7.0      37.235
2013    7       19     2  40    4.40   438.3    7.0      37.255
2013    7       19     2  47    4.40   438.4    7.0      37.274
2013    7       19     2  53    4.41   438.5    7.0      37.294
2013    7       19     3   0    4.41   438.6    7.0      37.313
2013    7       19     3   7    4.41   438.7    7.0      37.332
2013    7       19     3  14    4.41   438.8    7.0      37.351
2013    7       19     3  21    4.41   439.0    7.0      37.370
2013    7       19     3  28    4.41   439.1    7.0      37.390
2013    7       19     3  34    4.41   439.2    7.0      37.409
2013    7       19     3  41    4.41   439.3    7.0      37.429
2013    7       19     3  48    4.41   439.4    7.0      37.449
2013    7       19     3  55    4.41   439.5    7.0      37.470
2013    7       19     4   2    4.41   439.6    7.0      37.491
2013    7       19     4   8    4.41   439.8    7.0      37.512
2013    7       19     4  15    4.41   439.9    7.0      37.534
2013    7       19     4  22    4.41   440.0    7.0      37.557
2013    7       19     4  29    4.41   440.1    7.0      37.580
2013    7       19     4  36    4.41   440.2    7.0      37.604
2013    7       19     4  43    4.41   440.4    7.0      37.627
2013    7       19     4  49    4.41   440.5    7.0      37.651
2013    7       19     4  56    4.41   440.6    7.0      37.675
2013    7       19     5   3    4.41   440.8    7.0      37.699
2013    7       19     5  10    4.41   440.9    7.0      37.722
2013    7       19     5  17    4.41   441.0    7.0      37.745
2013    7       19     5  23    4.41   441.2    7.0      37.768
2013    7       19     5  30    4.41   441.3    7.0      37.789
2013    7       19     5  37    4.41   441.4    7.0      37.810
2013    7       19     5  44    4.41   441.6    6.9      37.830
2013    7       19     5  51    4.41   441.7    6.9      37.849
2013    7       19     5  57    4.41   441.8    6.9      37.868
2013    7       19     6   4    4.41   442.0    6.9      37.885
2013    7       19     6  11    4.41   442.1    6.9      37.902
2013    7       19     6  18    4.41   442.2    6.9      37.918
2013    7       19     6  25    4.41   442.4    6.9      37.934
2013    7       19     6  31    4.40   442.5    6.9      37.949
2013    7       19     6  38    4.40   442.6    6.9      37.964
2013    7       19     6  45    4.40   442.8    6.9      37.978
2013    7       19     6  52    4.40   442.9    6.9      37.991
2013    7       19     6  58    4.40   443.0    6.9      38.005
2013    7       19     7   5    4.40   443.2    6.9      38.019
2013    7       19     7  12    4.40   443.3    6.9      38.034
2013    7       19     7  19    4.40   443.4    6.9      38.050
2013    7       19     7  26    4.40   443.6    6.9      38.067
2013    7       19     7  32    4.40   443.7    6.9      38.085
2013    7       19     7  39    4.40   443.9    6.9      38.105
2013    7       19     7  46    4.39   444.0    6.9      38.125
2013    7       19     7  53    4.39   444.1    6.9      38.146
2013    7       19     8   0    4.39   444.3    6.9      38.167
2013    7       19     8   6    4.39   444.4    6.9      38.190
2013    7       19     8  13    4.39   444.6    6.9      38.213
2013    7       19     8  20    4.39   444.7    6.9      38.236
2013    7       19     8  27    4.38   444.9    6.9      38.259
2013    7       19     8  34    4.38   445.0    6.9      38.282
2013    7       19     8  40    4.38   445.2    6.9      38.304
2013    7       19     8  47    4.38   445.3    6.9      38.325
2013    7       19     8  54    4.38   445.4    6.9      38.346
2013    7       19     9   1    4.37   445.6    6.9      38.366
2013    7       19     9   8    4.37   445.7    6.9      38.386
2013    7       19     9  14    4.37   445.9    6.9      38.405
2013    7       19     9  21    4.37   446.0    6.9      38.424
2013    7       19     9  28    4.36   446.2    6.9      38.442
2013    7       19     9  35    4.36   446.3    6.8      38.460
2013    7       19     9  42    4.36   446.4    6.8      38.478
2013    7       19     9  48    4.36   446.6    6.8      38.495
2013    7       19     9  55    4.35   446.7    6.8      38.512
2013    7       19    10   2    4.35   446.9    6.8      38.528
2013    7       19    10   9    4.35   447.0    6.8      38.544
2013    7       19    10  16    4.34   447.1    6.8      38.559
2013    7       19    10  23    4.34   447.3    6.8      38.574
2013    7       19    10  29    4.34   447.4    6.8      38.588
2013    7       19    10  36    4.34   447.5    6.8      38.602
2013    7       19    10  43    4.33   447.7    6.8      38.615
2013    7       19    10  50    4.33   447.8    6.8      38.627
2013    7       19    10  57    4.33   448.0    6.8      38.639
2013    7       19    11   3    4.32   448.1    6.7      38.651
2013    7       19    11  10    4.32   448.2    6.7      38.661
2013    7       19    11  17    4.32   448.4    6.7      38.671
2013    7       19    11  24    4.31   448.5    6.7      38.681
2013    7       19    11  31    4.31   448.6    6.7      38.690
2013    7       19    11  38    4.31   448.8    6.7      38.698
2013    7       19    11  44    4.30   448.9    6.7      38.705
2013    7       19    11  51    4.30   449.0    6.7      38.712
2013    7       19    11  58    4.30   449.2    6.7      38.718
2013    7       19    12   5    4.29   449.3    6.7      38.724
2013    7       19    12  12    4.29   449.5    6.6      38.728
2013    7       19    12  18    4.29   449.6    6.6      38.732
2013    7       19    12  25    4.28   449.7    6.6      38.736
2013    7       19    12  32    4.28   449.9    6.6      38.738
2013    7       19    12  39    4.28   450.0    6.6      38.740
2013    7       19    12  46    4.27   450.1    6.6      38.742
2013    7       19    12  52    4.27   450.3    6.6      38.742
2013    7       19    12  59    4.27   450.4    6.6      38.743
2013    7       19    13   6    4.26   450.5    6.6      38.742
2013    7       19    13  13    4.26   450.7    6.6      38.741
2013    7       19    13  20    4.25   450.8    6.5      38.739
2013    7       19    13  26    4.25   450.9    6.5      38.737
2013    7       19    13  33    4.25   451.0    6.5      38.734
2013    7       19    13  40    4.24   451.2    6.5      38.731
2013    7       19    13  47    4.24   451.3    6.5      38.727
2013    7       19    13  54    4.24   451.4    6.5      38.722
2013    7       19    14   0    4.23   451.5    6.5      38.718
2013    7       19    14   7    4.23   451.7    6.5      38.712
2013    7       19    14  14    4.23   451.8    6.5      38.707
2013    7       19    14  21    4.22   451.9    6.5      38.701
2013    7       19    14  27    4.22   452.0    6.4      38.694
2013    7       19    14  34    4.21   452.2    6.4      38.687
2013    7       19    14  41    4.21   452.3    6.4      38.680
2013    7       19    14  48    4.21   452.4    6.4      38.672
2013    7       19    14  55    4.20   452.5    6.4      38.664
2013    7       19    15   1    4.20   452.6    6.4      38.656
2013    7       19    15   8    4.20   452.7    6.4      38.647
2013    7       19    15  15    4.19   452.9    6.4      38.638
2013    7       19    15  22    4.19   453.0    6.4      38.629
2013    7       19    15  29    4.18   453.1    6.3      38.619
2013    7       19    15  35    4.18   453.2    6.3      38.610
2013    7       19    15  42    4.18   453.3    6.3      38.600
2013    7       19    15  49    4.17   453.4    6.3      38.590
2013    7       19    15  56    4.17   453.5    6.3      38.580
2013    7       19    16   3    4.16   453.6    6.3      38.570
2013    7       19    16   9    4.16   453.7    6.3      38.560
2013    7       19    16  16    4.15   453.8    6.3      38.550
2013    7       19    16  23    4.15   453.9    6.3      38.540
2013    7       19    16  30    4.15   454.0    6.3      38.530
2013    7       19    16  37    4.14   454.1    6.2      38.520
2013    7       19    16  43    4.14   454.2    6.2      38.510
2013    7       19    16  50    4.13   454.3    6.2      38.500
2013    7       19    16  57    4.13   454.3    6.2      38.489
2013    7       19    17   4    4.12   454.4    6.2      38.478
2013    7       19    17  11    4.12   454.5    6.2      38.467
2013    7       19    17  17    4.12   454.6    6.2      38.455
2013    7       19    17  24    4.11   454.7    6.2      38.443
2013    7       19    17  31    4.11   454.7    6.2      38.430
2013    7       19    17  38    4.10   454.8    6.2      38.417
2013    7       19    17  45    4.10   454.9    6.2      38.403
2013    7       19    17  52    4.09   455.0    6.2      38.389
2013    7       19    17  58    4.09   455.0    6.1      38.374
2013    7       19    18   5    4.08   455.1    6.1      38.359
2013    7       19    18  12    4.08   455.2    6.1      38.343
2013    7       19    18  19    4.07   455.2    6.1      38.326
2013    7       19    18  26    4.07   455.3    6.1      38.309
2013    7       19    18  32    4.06   455.4    6.1      38.292
2013    7       19    18  39    4.06   455.4    6.1      38.274
2013    7       19    18  46    4.05   455.5    6.1      38.255
2013    7       19    18  53    4.05   455.5    6.1      38.236
2013    7       19    19   0    4.04   455.6    6.1      38.216
2013    7       19    19   7    4.04   455.6    6.1      38.196
2013    7       19    19  13    4.03   455.7    6.1      38.174
2013    7       19    19  20    4.03   455.7    6.0      38.152
2013    7       19    19  27    4.02   455.8    6.0      38.129
2013    7       19    19  34    4.02   455.8    6.0      38.106
2013    7       19    19  41    4.01   455.9    6.0      38.082
2013    7       19    19  47    4.01   455.9    6.0      38.057
2013    7       19    19  54    4.00   455.9    6.0      38.031
2013    7       19    20   1    3.99   456.0    6.0      38.005
2013    7       19    20   8    3.99   456.0    6.0      37.978
2013    7       19    20  15    3.98   456.0    6.0      37.950
2013    7       19    20  21    3.98   456.1    6.0      37.923
2013    7       19    20  28    3.97   456.1    6.0      37.895
2013    7       19    20  35    3.97   456.1    6.0      37.866
2013    7       19    20  42    3.96   456.1    6.0      37.838
2013    7       19    20  49    3.96   456.1    5.9      37.810
2013    7       19    20  55    3.95   456.1    5.9      37.781
2013    7       19    21   2    3.94   456.2    5.9      37.753
2013    7       19    21   9    3.94   456.2    5.9      37.724
2013    7       19    21  16    3.93   456.2    5.9      37.696
2013    7       19    21  23    3.93   456.2    5.9      37.667
2013    7       19    21  29    3.92   456.2    5.9      37.639
2013    7       19    21  36    3.92   456.2    5.9      37.611
2013    7       19    21  43    3.91   456.2    5.9      37.583
2013    7       19    21  50    3.90   456.2    5.9      37.555
2013    7       19    21  56    3.90   456.2    5.9      37.527
2013    7       19    22   3    3.89   456.2    5.9      37.500
2013    7       19    22  10    3.89   456.2    5.9      37.471
2013    7       19    22  17    3.88   456.2    5.8      37.443
2013    7       19    22  24    3.88   456.1    5.8      37.414
2013    7       19    22  30    3.87   456.1    5.8      37.384
2013    7       19    22  37    3.86   456.1    5.8      37.353
2013    7       19    22  44    3.86   456.1    5.8      37.321
2013    7       19    22  51    3.85   456.1    5.8      37.288
2013    7       19    22  58    3.85   456.1    5.8      37.254
2013    7       19    23   4    3.84   456.1    5.8      37.218
2013    7       19    23  11    3.84   456.1    5.8      37.181
2013    7       19    23  18    3.83   456.0    5.8      37.142
2013    7       19    23  25    3.83   456.0    5.8      37.102
2013    7       19    23  32    3.82   456.0    5.8      37.060
2013    7       19    23  38    3.82   456.0    5.8      37.017
2013    7       19    23  45    3.81   456.0    5.7      36.973
2013    7       19    23  52    3.81   455.9    5.7      36.928
2013    7       19    23  59    3.80   455.9    5.7      36.881
2013    7       20     0   6    3.80   455.9    5.7      36.835
2013    7       20     0  12    3.79   455.9    5.7      36.787
2013    7       20     0  19    3.79   455.8    5.7      36.739
2013    7       20     0  26    3.78   455.8    5.7      36.690
2013    7       20     0  33    3.78   455.8    5.7      36.641
2013    7       20     0  40    3.77   455.8    5.7      36.591
2013    7       20     0  46    3.77   455.7    5.7      36.541
2013    7       20     0  53    3.76   455.7    5.7      36.490
2013    7       20     1   0    3.76   455.7    5.6      36.439
2013    7       20     1   7    3.75   455.6    5.6      36.387
2013    7       20     1  14    3.75   455.6    5.6      36.335
2013    7       20     1  21    3.75   455.5    5.6      36.283
2013    7       20     1  27    3.74   455.5    5.6      36.231
2013    7       20     1  34    3.74   455.5    5.6      36.179
2013    7       20     1  41    3.73   455.4    5.6      36.127
2013    7       20     1  48    3.73   455.4    5.6      36.074
2013    7       20     1  55    3.72   455.3    5.6      36.022
2013    7       20     2   1    3.72   455.3    5.6      35.969
2013    7       20     2   8    3.72   455.2    5.6      35.917
2013    7       20     2  15    3.71   455.2    5.6      35.863
2013    7       20     2  22    3.71   455.1    5.5      35.810
2013    7       20     2  29    3.71   455.1    5.5      35.756
2013    7       20     2  36    3.70   455.0    5.5      35.702
2013    7       20     2  42    3.70   455.0    5.5      35.647
2013    7       20     2  49    3.70   454.9    5.5      35.592
2013    7       20     2  56    3.69   454.8    5.5      35.537
2013    7       20     3   3    3.69   454.8    5.5      35.482
2013    7       20     3  10    3.69   454.7    5.5      35.426
2013    7       20     3  16    3.68   454.6    5.5      35.371
2013    7       20     3  23    3.68   454.5    5.5      35.315
2013    7       20     3  30    3.68   454.5    5.5      35.261
2013    7       20     3  37    3.67   454.4    5.5      35.206
2013    7       20     3  44    3.67   454.3    5.5      35.153
2013    7       20     3  50    3.67   454.2    5.5      35.100
2013    7       20     3  57    3.66   454.1    5.5      35.049
2013    7       20     4   4    3.66   454.0    5.5      34.999
2013    7       20     4  11    3.66   454.0    5.5      34.950
2013    7       20     4  17    3.66   453.9    5.5      34.903
2013    7       20     4  24    3.65   453.8    5.4      34.858
2013    7       20     4  31    3.65   453.7    5.4      34.815
2013    7       20     4  38    3.65   453.6    5.4      34.774
2013    7       20     4  45    3.65   453.5    5.4      34.735
2013    7       20     4  51    3.65   453.4    5.4      34.698
2013    7       20     4  58    3.64   453.3    5.4      34.663
2013    7       20     5   5    3.64   453.3    5.4      34.631
2013    7       20     5  12    3.64   453.2    5.4      34.600
2013    7       20     5  19    3.64   453.1    5.4      34.570
2013    7       20     5  25    3.64   453.0    5.5      34.542
2013    7       20     5  32    3.64   452.9    5.5      34.515
2013    7       20     5  39    3.63   452.8    5.5      34.490
2013    7       20     5  46    3.63   452.7    5.5      34.465
2013    7       20     5  52    3.63   452.6    5.5      34.442
2013    7       20     5  59    3.63   452.5    5.5      34.419
2013    7       20     6   6    3.63   452.4    5.5      34.396
2013    7       20     6  13    3.63   452.4    5.5      34.374
2013    7       20     6  20    3.63   452.3    5.5      34.352
2013    7       20     6  26    3.63   452.2    5.5      34.329
2013    7       20     6  33    3.63   452.1    5.5      34.307
2013    7       20     6  40    3.63   452.0    5.5      34.284
2013    7       20     6  47    3.63   451.9    5.5      34.261
2013    7       20     6  54    3.63   451.8    5.5      34.238
2013    7       20     7   0    3.63   451.7    5.5      34.215
2013    7       20     7   7    3.63   451.6    5.5      34.191
2013    7       20     7  14    3.63   451.5    5.5      34.167
2013    7       20     7  21    3.63   451.4    5.5      34.142
2013    7       20     7  28    3.63   451.3    5.5      34.117
2013    7       20     7  34    3.63   451.2    5.5      34.092
2013    7       20     7  41    3.63   451.1    5.5      34.066
2013    7       20     7  48    3.63   451.0    5.5      34.040
2013    7       20     7  55    3.63   450.9    5.5      34.014
2013    7       20     8   2    3.63   450.8    5.5      33.987
2013    7       20     8   9    3.63   450.7    5.5      33.960
2013    7       20     8  15    3.63   450.6    5.5      33.933
2013    7       20     8  22    3.63   450.5    5.5      33.905
2013    7       20     8  29    3.63   450.4    5.5      33.878
2013    7       20     8  36    3.63   450.3    5.4      33.850
2013    7       20     8  43    3.63   450.2    5.4      33.821
2013    7       20     8  49    3.63   450.1    5.4      33.793
2013    7       20     8  56    3.63   450.0    5.4      33.764
2013    7       20     9   3    3.63   449.9    5.4      33.735
2013    7       20     9  10    3.63   449.8    5.4      33.705
2013    7       20     9  17    3.63   449.7    5.4      33.676
2013    7       20     9  24    3.63   449.6    5.4      33.646
2013    7       20     9  30    3.62   449.5    5.4      33.616
2013    7       20     9  37    3.62   449.4    5.4      33.585
2013    7       20     9  44    3.62   449.3    5.4      33.555
2013    7       20     9  51    3.62   449.2    5.4      33.524
2013    7       20     9  58    3.62   449.1    5.4      33.493
2013    7       20    10   4    3.62   448.9    5.4      33.462
2013    7       20    10  11    3.62   448.8    5.4      33.430
2013    7       20    10  18    3.62   448.7    5.4      33.399
2013    7       20    10  25    3.62   448.6    5.4      33.367
2013    7       20    10  32    3.62   448.5    5.4      33.336
2013    7       20    10  38    3.62   448.4    5.4      33.304
2013    7       20    10  45    3.62   448.3    5.4      33.272
2013    7       20    10  52    3.62   448.2    5.4      33.241
2013    7       20    10  59    3.62   448.1    5.4      33.209
2013    7       20    11   6    3.62   447.9    5.4      33.178
2013    7       20    11  12    3.62   447.8    5.4      33.146
2013    7       20    11  19    3.62   447.7    5.4      33.115
2013    7       20    11  26    3.62   447.6    5.4      33.083
2013    7       20    11  33    3.61   447.5    5.4      33.052
2013    7       20    11  40    3.61   447.4    5.4      33.021
2013    7       20    11  46    3.61   447.3    5.4      32.990
2013    7       20    11  53    3.61   447.2    5.4      32.959
2013    7       20    12   0    3.61   447.1    5.4      32.928
2013    7       20    12   7    3.61   446.9    5.4      32.898
2013    7       20    12  14    3.61   446.8    5.4      32.867
2013    7       20    12  20    3.61   446.7    5.4      32.837
2013    7       20    12  27    3.61   446.6    5.4      32.806
2013    7       20    12  34    3.61   446.5    5.4      32.776
2013    7       20    12  41    3.61   446.4    5.4      32.746
2013    7       20    12  47    3.60   446.3    5.4      32.715
2013    7       20    12  54    3.60   446.2    5.4      32.685
2013    7       20    13   1    3.60   446.0    5.4      32.656
2013    7       20    13   8    3.60   445.9    5.4      32.626
2013    7       20    13  15    3.60   445.8    5.4      32.597
2013    7       20    13  21    3.60   445.7    5.4      32.567
2013    7       20    13  28    3.60   445.6    5.4      32.538
2013    7       20    13  35    3.60   445.5    5.4      32.509
2013    7       20    13  42    3.60   445.3    5.4      32.480
2013    7       20    13  49    3.59   445.2    5.4      32.451
2013    7       20    13  55    3.59   445.1    5.4      32.422
2013    7       20    14   2    3.59   445.0    5.4      32.393
2013    7       20    14   9    3.59   444.9    5.4      32.364
2013    7       20    14  16    3.59   444.8    5.4      32.335
2013    7       20    14  23    3.59   444.6    5.4      32.306
2013    7       20    14  29    3.59   444.5    5.4      32.277
2013    7       20    14  36    3.59   444.4    5.4      32.247
2013    7       20    14  43    3.59   444.3    5.4      32.218
2013    7       20    14  50    3.58   444.2    5.4      32.189
2013    7       20    14  57    3.58   444.0    5.4      32.159
2013    7       20    15   3    3.58   443.9    5.4      32.130
2013    7       20    15  10    3.58   443.8    5.4      32.101
2013    7       20    15  17    3.58   443.7    5.4      32.071
2013    7       20    15  24    3.58   443.6    5.4      32.042
2013    7       20    15  31    3.58   443.4    5.4      32.013
2013    7       20    15  37    3.58   443.3    5.4      31.983
2013    7       20    15  44    3.57   443.2    5.4      31.954
2013    7       20    15  51    3.57   443.1    5.4      31.924
2013    7       20    15  58    3.57   443.0    5.4      31.895
2013    7       20    16   5    3.57   442.8    5.4      31.865
2013    7       20    16  12    3.57   442.7    5.4      31.836
2013    7       20    16  18    3.57   442.6    5.4      31.807
2013    7       20    16  25    3.57   442.5    5.4      31.777
2013    7       20    16  32    3.57   442.4    5.4      31.748
2013    7       20    16  39    3.57   442.2    5.4      31.718
2013    7       20    16  46    3.57   442.1    5.4      31.689
2013    7       20    16  52    3.56   442.0    5.4      31.659
2013    7       20    16  59    3.56   441.9    5.4      31.629
2013    7       20    17   6    3.56   441.7    5.4      31.600
2013    7       20    17  13    3.56   441.6    5.4      31.570
2013    7       20    17  20    3.56   441.5    5.4      31.540
2013    7       20    17  27    3.56   441.4    5.3      31.510
2013    7       20    17  33    3.56   441.2    5.3      31.480
2013    7       20    17  40    3.56   441.1    5.3      31.450
2013    7       20    17  47    3.56   441.0    5.3      31.420
2013    7       20    17  54    3.56   440.9    5.3      31.389
2013    7       20    18   1    3.56   440.7    5.3      31.359
2013    7       20    18   7    3.55   440.6    5.3      31.328
2013    7       20    18  14    3.55   440.5    5.3      31.298
2013    7       20    18  21    3.55   440.3    5.3      31.267
2013    7       20    18  28    3.55   440.2    5.3      31.237
2013    7       20    18  35    3.55   440.1    5.3      31.206
2013    7       20    18  41    3.55   439.9    5.3      31.176
2013    7       20    18  48    3.55   439.8    5.3      31.145
2013    7       20    18  55    3.55   439.7    5.3      31.115
2013    7       20    19   2    3.55   439.5    5.3      31.084
2013    7       20    19   8    3.55   439.4    5.3      31.054
2013    7       20    19  15    3.55   439.3    5.3      31.024
2013    7       20    19  22    3.55   439.1    5.3      30.995
2013    7       20    19  29    3.55   439.0    5.3      30.965
2013    7       20    19  36    3.55   438.9    5.3      30.937
2013    7       20    19  42    3.55   438.7    5.3      30.908
2013    7       20    19  49    3.55   438.6    5.3      30.880
2013    7       20    19  56    3.55   438.4    5.3      30.853
2013    7       20    20   3    3.55   438.3    5.3      30.826
2013    7       20    20  10    3.55   438.2    5.3      30.800
2013    7       20    20  16    3.55   438.0    5.3      30.775
2013    7       20    20  23    3.55   437.9    5.3      30.750
2013    7       20    20  30    3.55   437.7    5.3      30.727
2013    7       20    20  37    3.55   437.6    5.3      30.705
2013    7       20    20  43    3.55   437.5    5.3      30.683
2013    7       20    20  50    3.55   437.3    5.3      30.663
2013    7       20    20  57    3.55   437.2    5.4      30.644
2013    7       20    21   4    3.55   437.1    5.4      30.626
2013    7       20    21  11    3.55   436.9    5.4      30.609
2013    7       20    21  17    3.55   436.8    5.4      30.593
2013    7       20    21  24    3.56   436.7    5.4      30.579
2013    7       20    21  31    3.56   436.5    5.4      30.566
2013    7       20    21  38    3.56   436.4    5.4      30.554
2013    7       20    21  45    3.56   436.3    5.4      30.543
2013    7       20    21  51    3.56   436.1    5.4      30.533
2013    7       20    21  58    3.56   436.0    5.4      30.525
2013    7       20    22   5    3.56   435.9    5.4      30.517
2013    7       20    22  12    3.57   435.8    5.4      30.511
2013    7       20    22  19    3.57   435.6    5.4      30.506
2013    7       20    22  26    3.57   435.5    5.4      30.501
2013    7       20    22  32    3.57   435.4    5.4      30.498
2013    7       20    22  39    3.57   435.3    5.4      30.495
2013    7       20    22  46    3.57   435.1    5.4      30.494
2013    7       20    22  53    3.58   435.0    5.5      30.493
2013    7       20    23   0    3.58   434.9    5.5      30.493
2013    7       20    23   6    3.58   434.8    5.5      30.494
2013    7       20    23  13    3.58   434.6    5.5      30.495
2013    7       20    23  20    3.59   434.5    5.5      30.498
2013    7       20    23  27    3.59   434.4    5.5      30.501
2013    7       20    23  34    3.59   434.3    5.5      30.504
2013    7       20    23  41    3.59   434.1    5.5      30.509
2013    7       20    23  47    3.60   434.0    5.5      30.514
2013    7       20    23  54    3.60   433.9    5.5      30.520
2013    7       21     0   1    3.60   433.8    5.5      30.526
2013    7       21     0   8    3.61   433.7    5.5      30.533
2013    7       21     0  15    3.61   433.6    5.6      30.540
2013    7       21     0  21    3.61   433.4    5.6      30.548
2013    7       21     0  28    3.61   433.3    5.6      30.557
2013    7       21     0  35    3.62   433.2    5.6      30.566
2013    7       21     0  42    3.62   433.1    5.6      30.575
2013    7       21     0  49    3.63   433.0    5.6      30.585
2013    7       21     0  55    3.63   432.9    5.6      30.595
2013    7       21     1   2    3.63   432.8    5.6      30.606
2013    7       21     1   9    3.64   432.7    5.6      30.617
2013    7       21     1  16    3.64   432.6    5.6      30.629
2013    7       21     1  23    3.64   432.4    5.6      30.640
2013    7       21     1  29    3.65   432.3    5.7      30.653
2013    7       21     1  36    3.65   432.2    5.7      30.665
2013    7       21     1  43    3.66   432.1    5.7      30.679
2013    7       21     1  50    3.66   432.0    5.7      30.692
2013    7       21     1  57    3.66   431.9    5.7      30.706
2013    7       21     2   3    3.67   431.8    5.7      30.720
2013    7       21     2  10    3.67   431.7    5.7      30.735
2013    7       21     2  17    3.68   431.7    5.7      30.750
2013    7       21     2  24    3.68   431.6    5.7      30.765
2013    7       21     2  31    3.69   431.5    5.7      30.780
2013    7       21     2  37    3.69   431.4    5.7      30.795
2013    7       21     2  44    3.69   431.3    5.7      30.811
2013    7       21     2  51    3.70   431.2    5.8      30.826
2013    7       21     2  58    3.70   431.1    5.8      30.842
2013    7       21     3   4    3.71   431.0    5.8      30.858
2013    7       21     3  11    3.71   430.9    5.8      30.874
2013    7       21     3  18    3.72   430.8    5.8      30.890
2013    7       21     3  25    3.72   430.8    5.8      30.906
2013    7       21     3  32    3.73   430.7    5.8      30.922
2013    7       21     3  38    3.73   430.6    5.8      30.938
2013    7       21     3  45    3.74   430.5    5.8      30.955
2013    7       21     3  52    3.74   430.4    5.8      30.972
2013    7       21     3  59    3.75   430.4    5.8      30.990
2013    7       21     4   6    3.75   430.3    5.9      31.007
2013    7       21     4  12    3.76   430.2    5.9      31.026
2013    7       21     4  19    3.76   430.1    5.9      31.044
2013    7       21     4  26    3.77   430.1    5.9      31.063
2013    7       21     4  33    3.77   430.0    5.9      31.082
2013    7       21     4  40    3.78   429.9    5.9      31.102
2013    7       21     4  46    3.78   429.9    5.9      31.122
2013    7       21     4  53    3.79   429.8    5.9      31.142
2013    7       21     5   0    3.79   429.7    5.9      31.163
2013    7       21     5   7    3.80   429.7    5.9      31.184
2013    7       21     5  14    3.80   429.6    6.0      31.205
2013    7       21     5  20    3.81   429.6    6.0      31.227
2013    7       21     5  27    3.81   429.5    6.0      31.249
2013    7       21     5  34    3.82   429.5    6.0      31.271
2013    7       21     5  41    3.83   429.4    6.0      31.294
2013    7       21     5  48    3.83   429.4    6.0      31.317
2013    7       21     5  54    3.84   429.3    6.0      31.340
2013    7       21     6   1    3.84   429.3    6.0      31.364
2013    7       21     6   8    3.85   429.2    6.0      31.388
2013    7       21     6  15    3.85   429.2    6.1      31.413
2013    7       21     6  22    3.86   429.1    6.1      31.439
2013    7       21     6  29    3.87   429.1    6.1      31.465
2013    7       21     6  35    3.87   429.0    6.1      31.492
2013    7       21     6  42    3.88   429.0    6.1      31.521
2013    7       21     6  49    3.88   429.0    6.1      31.551
2013    7       21     6  56    3.89   428.9    6.1      31.584
2013    7       21     7   3    3.90   428.9    6.2      31.618
2013    7       21     7   9    3.90   428.9    6.2      31.654
2013    7       21     7  16    3.91   428.9    6.2      31.693
2013    7       21     7  23    3.91   428.9    6.2      31.732
2013    7       21     7  30    3.92   428.8    6.2      31.773
2013    7       21     7  37    3.93   428.8    6.2      31.814
2013    7       21     7  44    3.93   428.8    6.2      31.858
2013    7       21     7  50    3.94   428.8    6.2      31.902
2013    7       21     7  57    3.94   428.8    6.3      31.946
2013    7       21     8   4    3.95   428.8    6.3      31.992
2013    7       21     8  11    3.96   428.8    6.3      32.038
2013    7       21     8  18    3.96   428.8    6.3      32.084
2013    7       21     8  24    3.97   428.9    6.3      32.129
2013    7       21     8  31    3.97   428.9    6.3      32.175
2013    7       21     8  38    3.98   428.9    6.3      32.220
2013    7       21     8  45    3.99   428.9    6.3      32.265
2013    7       21     8  52    3.99   428.9    6.4      32.310
2013    7       21     8  58    4.00   428.9    6.4      32.354
2013    7       21     9   5    4.01   428.9    6.4      32.399
2013    7       21     9  12    4.01   429.0    6.4      32.443
2013    7       21     9  19    4.02   429.0    6.4      32.487
2013    7       21     9  26    4.02   429.0    6.4      32.531
2013    7       21     9  32    4.03   429.0    6.4      32.575
2013    7       21     9  39    4.03   429.0    6.4      32.619
2013    7       21     9  46    4.04   429.1    6.4      32.663
2013    7       21     9  53    4.05   429.1    6.4      32.707
2013    7       21     9  59    4.05   429.1    6.5      32.751
2013    7       21    10   6    4.06   429.2    6.5      32.795
2013    7       21    10  13    4.06   429.2    6.5      32.840
2013    7       21    10  20    4.07   429.3    6.5      32.884
2013    7       21    10  27    4.08   429.3    6.5      32.928
2013    7       21    10  33    4.08   429.3    6.5      32.973
2013    7       21    10  40    4.09   429.4    6.5      33.017
2013    7       21    10  47    4.09   429.4    6.5      33.061
2013    7       21    10  54    4.10   429.5    6.5      33.105
2013    7       21    11   1    4.10   429.5    6.5      33.149
2013    7       21    11   7    4.11   429.6    6.5      33.193
2013    7       21    11  14    4.11   429.6    6.6      33.235
2013    7       21    11  21    4.12   429.7    6.6      33.278
2013    7       21    11  28    4.13   429.7    6.6      33.319
2013    7       21    11  34    4.13   429.8    6.6      33.361
2013    7       21    11  41    4.14   429.8    6.6      33.401
2013    7       21    11  48    4.14   429.9    6.6      33.441
2013    7       21    11  55    4.15   429.9    6.6      33.481
2013    7       21    12   2    4.15   430.0    6.6      33.521
2013    7       21    12   8    4.16   430.0    6.6      33.559
2013    7       21    12  15    4.16   430.1    6.6      33.598
2013    7       21    12  22    4.17   430.1    6.6      33.637
2013    7       21    12  29    4.17   430.2    6.6      33.675
2013    7       21    12  36    4.18   430.2    6.6      33.713
2013    7       21    12  43    4.18   430.3    6.7      33.752
2013    7       21    12  49    4.19   430.3    6.7      33.790
2013    7       21    12  56    4.20   430.4    6.7      33.829
2013    7       21    13   3    4.20   430.4    6.7      33.868
2013    7       21    13  10    4.21   430.5    6.7      33.907
2013    7       21    13  17    4.21   430.6    6.7      33.948
2013    7       21    13  23    4.22   430.6    6.7      33.990
2013    7       21    13  30    4.22   430.7    6.7      34.033
2013    7       21    13  37    4.23   430.7    6.7      34.077
2013    7       21    13  44    4.24   430.8    6.7      34.124
2013    7       21    13  51    4.24   430.9    6.8      34.172
2013    7       21    13  57    4.25   431.0    6.8      34.222
2013    7       21    14   4    4.25   431.1    6.8      34.273
2013    7       21    14  11    4.26   431.1    6.8      34.326
2013    7       21    14  18    4.27   431.2    6.8      34.381
2013    7       21    14  25    4.27   431.3    6.8      34.437
2013    7       21    14  32    4.28   431.4    6.8      34.494
2013    7       21    14  38    4.28   431.5    6.8      34.551
2013    7       21    14  45    4.29   431.7    6.8      34.608
2013    7       21    14  52    4.29   431.8    6.8      34.664
2013    7       21    14  59    4.30   431.9    6.8      34.721
2013    7       21    15   6    4.30   432.0    6.9      34.777
2013    7       21    15  12    4.31   432.1    6.9      34.832
2013    7       21    15  19    4.31   432.2    6.9      34.886
2013    7       21    15  26    4.32   432.3    6.9      34.939
2013    7       21    15  33    4.32   432.4    6.9      34.990
2013    7       21    15  40    4.33   432.5    6.9      35.041
2013    7       21    15  46    4.33   432.6    6.9      35.091
2013    7       21    15  53    4.34   432.7    6.9      35.140
2013    7       21    16   0    4.34   432.8    6.9      35.188
2013    7       21    16   7    4.35   432.9    6.9      35.235
2013    7       21    16  14    4.35   433.1    6.9      35.281
2013    7       21    16  20    4.36   433.2    6.9      35.327
2013    7       21    16  27    4.36   433.3    6.9      35.373
2013    7       21    16  34    4.36   433.4    6.9      35.417
2013    7       21    16  41    4.37   433.5    6.9      35.461
2013    7       21    16  48    4.37   433.6    6.9      35.505
2013    7       21    16  54    4.38   433.7    6.9      35.548
2013    7       21    17   1    4.38   433.8    6.9      35.591
2013    7       21    17   8    4.39   433.9    6.9      35.634
2013    7       21    17  15    4.39   434.0    6.9      35.677
2013    7       21    17  22    4.39   434.1    6.9      35.719
2013    7       21    17  28    4.40   434.2    6.9      35.762
2013    7       21    17  35    4.40   434.4    7.0      35.804
2013    7       21    17  42    4.41   434.5    7.0      35.847
2013    7       21    17  49    4.41   434.6    7.0      35.889
2013    7       21    17  55    4.41   434.7    7.0      35.931
2013    7       21    18   2    4.42   434.8    7.0      35.973
2013    7       21    18   9    4.42   434.9    7.0      36.015
2013    7       21    18  16    4.43   435.0    7.0      36.057
2013    7       21    18  23    4.43   435.2    7.0      36.099
2013    7       21    18  29    4.43   435.3    7.0      36.140
2013    7       21    18  36    4.44   435.4    7.0      36.182
2013    7       21    18  43    4.44   435.5    7.0      36.224
2013    7       21    18  50    4.45   435.6    7.0      36.266
2013    7       21    18  57    4.45   435.7    7.0      36.308
2013    7       21    19   3    4.45   435.8    7.0      36.350
2013    7       21    19  10    4.46   436.0    7.0      36.393
2013    7       21    19  17    4.46   436.1    7.0      36.437
2013    7       21    19  24    4.47   436.2    7.0      36.481
2013    7       21    19  31    4.47   436.3    7.0      36.525
2013    7       21    19  37    4.47   436.4    7.0      36.571
2013    7       21    19  44    4.48   436.6    7.0      36.616
2013    7       21    19  51    4.48   436.7    7.0      36.662
2013    7       21    19  58    4.49   436.8    7.0      36.709
2013    7       21    20   5    4.49   436.9    7.0      36.756
2013    7       21    20  11    4.50   437.1    7.0      36.804
2013    7       21    20  18    4.50   437.2    7.0      36.852
2013    7       21    20  25    4.50   437.3    7.0      36.900
2013    7       21    20  32    4.51   437.4    7.0      36.949
2013    7       21    20  39    4.51   437.6    7.0      36.999
2013    7       21    20  46    4.52   437.7    7.0      37.050
2013    7       21    20  52    4.52   437.8    7.1      37.102
2013    7       21    20  59    4.53   438.0    7.1      37.154
2013    7       21    21   6    4.53   438.1    7.1      37.208
2013    7       21    21  13    4.53   438.3    7.1      37.262
2013    7       21    21  20    4.54   438.4    7.1      37.317
2013    7       21    21  26    4.54   438.5    7.1      37.372
2013    7       21    21  33    4.54   438.7    7.1      37.428
2013    7       21    21  40    4.55   438.8    7.1      37.484
2013    7       21    21  47    4.55   439.0    7.1      37.542
2013    7       21    21  54    4.56   439.1    7.1      37.600
2013    7       21    22   1    4.56   439.3    7.1      37.658
2013    7       21    22   7    4.56   439.5    7.1      37.716
2013    7       21    22  14    4.57   439.6    7.1      37.773
2013    7       21    22  21    4.57   439.8    7.1      37.830
2013    7       21    22  28    4.57   439.9    7.1      37.887
2013    7       21    22  35    4.58   440.1    7.1      37.942
2013    7       21    22  41    4.58   440.3    7.1      37.997
2013    7       21    22  48    4.58   440.4    7.1      38.051
2013    7       21    22  55    4.58   440.6    7.1      38.105
2013    7       21    23   2    4.59   440.8    7.1      38.158
2013    7       21    23   9    4.59   440.9    7.1      38.209
2013    7       21    23  15    4.59   441.1    7.1      38.259
2013    7       21    23  22    4.60   441.3    7.1      38.309
2013    7       21    23  29    4.60   441.5    7.1      38.357
2013    7       21    23  36    4.60   441.6    7.1      38.404
2013    7       21    23  43    4.60   441.8    7.1      38.450
2013    7       21    23  49    4.61   442.0    7.1      38.495
2013    7       21    23  56    4.61   442.1    7.1      38.539
2013    7       22     0   3    4.61   442.3    7.1      38.583
2013    7       22     0  10    4.61   442.5    7.1      38.626
2013    7       22     0  16    4.62   442.7    7.1      38.668
2013    7       22     0  23    4.62   442.8    7.1      38.710
2013    7       22     0  30    4.62   443.0    7.1      38.751
2013    7       22     0  37    4.62   443.2    7.1      38.792
2013    7       22     0  44    4.63   443.4    7.1      38.832
2013    7       22     0  50    4.63   443.5    7.1      38.872
2013    7       22     0  57    4.63   443.7    7.1      38.911
2013    7       22     1   4    4.63   443.9    7.1      38.951
2013    7       22     1  11    4.64   444.0    7.1      38.989
2013    7       22     1  18    4.64   444.2    7.1      39.028
2013    7       22     1  24    4.64   444.4    7.1      39.067
2013    7       22     1  31    4.64   444.6    7.1      39.106
2013    7       22     1  38    4.65   444.7    7.1      39.144
2013    7       22     1  45    4.65   444.9    7.1      39.183
2013    7       22     1  52    4.65   445.1    7.1      39.223
2013    7       22     1  58    4.65   445.2    7.1      39.264
2013    7       22     2   5    4.66   445.4    7.1      39.306
2013    7       22     2  12    4.66   445.6    7.1      39.350
2013    7       22     2  19    4.66   445.8    7.1      39.394
2013    7       22     2  25    4.67   445.9    7.1      39.441
2013    7       22     2  32    4.67   446.1    7.1      39.488
2013    7       22     2  39    4.67   446.3    7.1      39.537
2013    7       22     2  46    4.68   446.5    7.1      39.588
2013    7       22     2  53    4.68   446.7    7.1      39.640
2013    7       22     3   0    4.68   446.9    7.1      39.694
2013    7       22     3   6    4.68   447.1    7.1      39.748
2013    7       22     3  13    4.69   447.3    7.1      39.804
2013    7       22     3  20    4.69   447.5    7.1      39.859
2013    7       22     3  27    4.69   447.7    7.1      39.915
2013    7       22     3  34    4.70   447.9    7.1      39.971
2013    7       22     3  40    4.70   448.1    7.1      40.027
2013    7       22     3  47    4.70   448.3    7.1      40.082
2013    7       22     3  54    4.70   448.5    7.1      40.138
2013    7       22     4   1    4.71   448.8    7.1      40.193
2013    7       22     4   8    4.71   449.0    7.1      40.247
2013    7       22     4  14    4.71   449.2    7.1      40.301
2013    7       22     4  21    4.71   449.4    7.1      40.353
2013    7       22     4  28    4.71   449.6    7.1      40.406
2013    7       22     4  35    4.72   449.8    7.1      40.457
2013    7       22     4  42    4.72   450.0    7.1      40.508
2013    7       22     4  49    4.72   450.2    7.1      40.558
2013    7       22     4  55    4.72   450.4    7.1      40.608
2013    7       22     5   2    4.72   450.6    7.1      40.658
2013    7       22     5   9    4.73   450.8    7.1      40.709
2013    7       22     5  16    4.73   451.0    7.1      40.759
2013    7       22     5  23    4.73   451.2    7.1      40.810
2013    7       22     5  29    4.73   451.4    7.1      40.861
2013    7       22     5  36    4.73   451.6    7.1      40.911
2013    7       22     5  43    4.73   451.9    7.1      40.961
2013    7       22     5  50    4.74   452.1    7.1      41.011
2013    7       22     5  57    4.74   452.3    7.1      41.062
2013    7       22     6   3    4.74   452.5    7.1      41.111
2013    7       22     6  10    4.74   452.7    7.1      41.161
2013    7       22     6  17    4.74   453.0    7.1      41.211
2013    7       22     6  24    4.74   453.2    7.1      41.259
2013    7       22     6  31    4.74   453.4    7.1      41.308
2013    7       22     6  37    4.75   453.6    7.1      41.355
2013    7       22     6  44    4.75   453.9    7.1      41.403
2013    7       22     6  51    4.75   454.1    7.1      41.450
2013    7       22     6  58    4.75   454.3    7.1      41.496
2013    7       22     7   5    4.75   454.6    7.1      41.543
2013    7       22     7  11    4.75   454.8    7.1      41.589
2013    7       22     7  18    4.75   455.0    7.1      41.637
2013    7       22     7  25    4.76   455.3    7.1      41.684
2013    7       22     7  32    4.76   455.5    7.1      41.733
2013    7       22     7  39    4.76   455.8    7.1      41.781
2013    7       22     7  45    4.76   456.0    7.1      41.830
2013    7       22     7  52    4.76   456.3    7.1      41.880
2013    7       22     7  59    4.76   456.5    7.1      41.929
2013    7       22     8   6    4.77   456.8    7.1      41.978
2013    7       22     8  12    4.77   457.1    7.1      42.028
2013    7       22     8  19    4.77   457.3    7.1      42.077
2013    7       22     8  26    4.77   457.6    7.0      42.126
2013    7       22     8  33    4.77   457.9    7.0      42.175
2013    7       22     8  40    4.77   458.1    7.0      42.223
2013    7       22     8  46    4.77   458.4    7.0      42.270
2013    7       22     8  53    4.78   458.7    7.0      42.317
2013    7       22     9   0    4.78   458.9    7.0      42.363
2013    7       22     9   7    4.78   459.2    7.0      42.409
2013    7       22     9  14    4.78   459.5    7.0      42.455
2013    7       22     9  20    4.78   459.8    7.0      42.502
2013    7       22     9  27    4.78   460.1    7.0      42.549
2013    7       22     9  34    4.78   460.3    7.0      42.597
2013    7       22     9  41    4.78   460.6    7.0      42.646
2013    7       22     9  48    4.78   460.9    7.0      42.695
2013    7       22     9  54    4.78   461.2    7.0      42.744
2013    7       22    10   1    4.79   461.5    7.0      42.794
2013    7       22    10   8    4.79   461.8    7.0      42.845
2013    7       22    10  15    4.79   462.1    7.0      42.896
2013    7       22    10  22    4.79   462.4    7.0      42.948
2013    7       22    10  28    4.79   462.7    7.0      42.999
2013    7       22    10  35    4.79   463.0    7.0      43.050
2013    7       22    10  42    4.79   463.3    7.0      43.101
2013    7       22    10  49    4.79   463.6    6.9      43.151
2013    7       22    10  56    4.79   464.0    6.9      43.200
2013    7       22    11   2    4.79   464.3    6.9      43.249
2013    7       22    11   9    4.79   464.6    6.9      43.297
2013    7       22    11  16    4.79   464.9    6.9      43.345
2013    7       22    11  23    4.78   465.2    6.9      43.391
2013    7       22    11  30    4.78   465.5    6.9      43.436
2013    7       22    11  37    4.78   465.8    6.9      43.480
2013    7       22    11  43    4.78   466.2    6.9      43.523
2013    7       22    11  50    4.78   466.5    6.9      43.564
2013    7       22    11  57    4.78   466.8    6.9      43.604
2013    7       22    12   4    4.78   467.1    6.8      43.642
2013    7       22    12  11    4.78   467.4    6.8      43.680
2013    7       22    12  17    4.78   467.7    6.8      43.716
2013    7       22    12  24    4.77   468.0    6.8      43.752
2013    7       22    12  31    4.77   468.3    6.8      43.786
2013    7       22    12  38    4.77   468.6    6.8      43.819
2013    7       22    12  45    4.77   468.9    6.8      43.851
2013    7       22    12  52    4.77   469.2    6.8      43.883
2013    7       22    12  58    4.77   469.5    6.8      43.913
2013    7       22    13   5    4.76   469.8    6.7      43.943
2013    7       22    13  12    4.76   470.1    6.7      43.973
2013    7       22    13  19    4.76   470.4    6.7      44.002
2013    7       22    13  26    4.76   470.7    6.7      44.030
2013    7       22    13  32    4.76   471.0    6.7      44.058
2013    7       22    13  39    4.75   471.3    6.7      44.086
2013    7       22    13  46    4.75   471.6    6.7      44.114
2013    7       22    13  53    4.75   471.9    6.7      44.142
2013    7       22    14   0    4.75   472.2    6.7      44.169
2013    7       22    14   6    4.75   472.5    6.6      44.197
2013    7       22    14  13    4.74   472.8    6.6      44.225
2013    7       22    14  20    4.74   473.2    6.6      44.253
2013    7       22    14  27    4.74   473.4    6.6      44.281
2013    7       22    14  34    4.74   473.7    6.6      44.310
2013    7       22    14  40    4.74   474.0    6.6      44.339
2013    7       22    14  47    4.73   474.3    6.6      44.369
2013    7       22    14  54    4.73   474.6    6.6      44.401
2013    7       22    15   1    4.73   475.0    6.6      44.433
2013    7       22    15   7    4.73   475.3    6.6      44.465
2013    7       22    15  14    4.72   475.6    6.5      44.498
2013    7       22    15  21    4.72   475.9    6.5      44.531
2013    7       22    15  28    4.72   476.2    6.5      44.564
2013    7       22    15  35    4.72   476.5    6.5      44.596
2013    7       22    15  41    4.71   476.8    6.5      44.629
2013    7       22    15  48    4.71   477.1    6.5      44.661
2013    7       22    15  55    4.71   477.4    6.5      44.694
2013    7       22    16   2    4.71   477.7    6.5      44.726
2013    7       22    16   9    4.70   478.0    6.5      44.756
2013    7       22    16  15    4.70   478.3    6.4      44.786
2013    7       22    16  22    4.70   478.7    6.4      44.816
2013    7       22    16  29    4.69   479.0    6.4      44.845
2013    7       22    16  36    4.69   479.3    6.4      44.874
2013    7       22    16  42    4.68   479.6    6.4      44.902
2013    7       22    16  49    4.68   479.9    6.4      44.929
2013    7       22    16  56    4.68   480.2    6.4      44.955
2013    7       22    17   3    4.67   480.5    6.4      44.980
2013    7       22    17  10    4.67   480.9    6.3      45.004
2013    7       22    17  16    4.66   481.2    6.3      45.027
2013    7       22    17  23    4.66   481.5    6.3      45.049
2013    7       22    17  30    4.66   481.8    6.3      45.070
2013    7       22    17  37    4.65   482.2    6.3      45.089
2013    7       22    17  44    4.65   482.5    6.3      45.107
2013    7       22    17  51    4.64   482.8    6.3      45.125
2013    7       22    17  57    4.64   483.2    6.2      45.143
2013    7       22    18   4    4.63   483.5    6.2      45.159
2013    7       22    18  11    4.63   483.8    6.2      45.174
2013    7       22    18  18    4.62   484.2    6.2      45.187
2013    7       22    18  25    4.62   484.5    6.2      45.199
2013    7       22    18  31    4.61   484.8    6.2      45.210
2013    7       22    18  38    4.61   485.1    6.2      45.219
2013    7       22    18  45    4.60   485.5    6.1      45.227
2013    7       22    18  52    4.59   485.8    6.1      45.233
2013    7       22    18  59    4.59   486.1    6.1      45.238
2013    7       22    19   5    4.58   486.4    6.1      45.242
2013    7       22    19  12    4.58   486.6    6.1      45.244
2013    7       22    19  19    4.57   486.9    6.1      45.246
2013    7       22    19  26    4.57   487.2    6.0      45.247
2013    7       22    19  33    4.56   487.5    6.0      45.247
2013    7       22    19  40    4.55   487.8    6.0      45.247
2013    7       22    19  46    4.55   488.0    6.0      45.248
2013    7       22    19  53    4.54   488.3    6.0      45.248
2013    7       22    20   0    4.54   488.6    6.0      45.248
2013    7       22    20   7    4.53   488.9    6.0      45.248
2013    7       22    20  14    4.53   489.2    5.9      45.247
2013    7       22    20  20    4.52   489.5    5.9      45.247
2013    7       22    20  27    4.51   489.8    5.9      45.246
2013    7       22    20  34    4.51   490.1    5.9      45.244
2013    7       22    20  41    4.50   490.4    5.9      45.242
2013    7       22    20  48    4.49   490.7    5.9      45.238
2013    7       22    20  54    4.49   491.0    5.8      45.232
2013    7       22    21   1    4.48   491.2    5.8      45.226
2013    7       22    21   8    4.48   491.5    5.8      45.218
2013    7       22    21  15    4.47   491.8    5.8      45.210
2013    7       22    21  22    4.46   492.1    5.8      45.200
2013    7       22    21  28    4.46   492.3    5.8      45.189
2013    7       22    21  35    4.45   492.6    5.8      45.178
2013    7       22    21  42    4.44   492.9    5.7      45.166
2013    7       22    21  49    4.44   493.1    5.7      45.153
2013    7       22    21  56    4.43   493.3    5.7      45.141
2013    7       22    22   2    4.42   493.6    5.7      45.129
2013    7       22    22   9    4.42   493.8    5.7      45.117
2013    7       22    22  16    4.41   494.1    5.7      45.104
2013    7       22    22  23    4.40   494.3    5.7      45.093
2013    7       22    22  30    4.40   494.5    5.6      45.082
2013    7       22    22  36    4.39   494.8    5.6      45.071
2013    7       22    22  43    4.38   495.0    5.6      45.060
2013    7       22    22  50    4.38   495.3    5.6      45.048
2013    7       22    22  57    4.37   495.5    5.6      45.037
2013    7       22    23   3    4.36   495.7    5.6      45.025
2013    7       22    23  10    4.36   496.0    5.6      45.012
2013    7       22    23  17    4.35   496.2    5.5      45.000
2013    7       22    23  24    4.34   496.4    5.5      44.987
2013    7       22    23  31    4.34   496.6    5.5      44.973
2013    7       22    23  37    4.33   496.9    5.5      44.959
2013    7       22    23  44    4.32   497.1    5.5      44.944
2013    7       22    23  51    4.32   497.3    5.5      44.928
2013    7       22    23  58    4.31   497.5    5.5      44.912
2013    7       23     0   5    4.30   497.7    5.5      44.894
2013    7       23     0  11    4.30   497.9    5.4      44.876
2013    7       23     0  18    4.29   498.1    5.4      44.857
2013    7       23     0  25    4.28   498.3    5.4      44.837
2013    7       23     0  32    4.27   498.5    5.4      44.817
2013    7       23     0  39    4.27   498.7    5.4      44.795
2013    7       23     0  45    4.26   498.9    5.4      44.773
2013    7       23     0  52    4.25   499.2    5.4      44.750
2013    7       23     0  59    4.25   499.4    5.3      44.726
2013    7       23     1   6    4.24   499.6    5.3      44.702
2013    7       23     1  13    4.23   499.8    5.3      44.679
2013    7       23     1  19    4.23   500.0    5.3      44.654
2013    7       23     1  26    4.22   500.3    5.3      44.629
2013    7       23     1  33    4.21   500.5    5.3      44.602
2013    7       23     1  40    4.21   500.7    5.3      44.574
2013    7       23     1  47    4.20   500.9    5.3      44.545
2013    7       23     1  54    4.19   501.1    5.2      44.515
2013    7       23     2   0    4.18   501.3    5.2      44.483
2013    7       23     2   7    4.18   501.4    5.2      44.452
2013    7       23     2  14    4.17   501.6    5.2      44.419
2013    7       23     2  21    4.16   501.8    5.2      44.386
2013    7       23     2  28    4.16   501.9    5.2      44.351
2013    7       23     2  34    4.15   502.1    5.2      44.317
2013    7       23     2  41    4.14   502.2    5.1      44.283
2013    7       23     2  48    4.14   502.3    5.1      44.250
2013    7       23     2  55    4.13   502.5    5.1      44.218
2013    7       23     3   2    4.12   502.6    5.1      44.186
2013    7       23     3   8    4.12   502.7    5.1      44.156
2013    7       23     3  15    4.11   502.9    5.1      44.127
2013    7       23     3  22    4.10   503.0    5.1      44.100
2013    7       23     3  29    4.10   503.2    5.1      44.073
2013    7       23     3  36    4.09   503.3    5.1      44.048
2013    7       23     3  43    4.08   503.5    5.1      44.022
2013    7       23     3  49    4.08   503.6    5.0      43.996
2013    7       23     3  56    4.07   503.7    5.0      43.969
2013    7       23     4   3    4.06   503.9    5.0      43.941
2013    7       23     4  10    4.06   504.0    5.0      43.912
2013    7       23     4  17    4.05   504.2    5.0      43.882
2013    7       23     4  23    4.04   504.3    5.0      43.851
2013    7       23     4  30    4.04   504.4    5.0      43.819
2013    7       23     4  37    4.03   504.5    5.0      43.785
2013    7       23     4  44    4.02   504.6    5.0      43.751
2013    7       23     4  51    4.02   504.7    4.9      43.715
2013    7       23     4  57    4.01   504.8    4.9      43.679
2013    7       23     5   4    4.01   504.9    4.9      43.642
2013    7       23     5  11    4.00   505.0    4.9      43.606
2013    7       23     5  18    3.99   505.1    4.9      43.569
2013    7       23     5  24    3.99   505.2    4.9      43.533
2013    7       23     5  31    3.98   505.3    4.9      43.496
2013    7       23     5  38    3.98   505.3    4.9      43.461
2013    7       23     5  45    3.97   505.4    4.9      43.426
2013    7       23     5  52    3.96   505.5    4.9      43.392
2013    7       23     5  58    3.96   505.6    4.9      43.358
2013    7       23     6   5    3.95   505.6    4.8      43.325
2013    7       23     6  12    3.95   505.7    4.8      43.292
2013    7       23     6  19    3.94   505.8    4.8      43.259
2013    7       23     6  26    3.94   505.9    4.8      43.226
2013    7       23     6  32    3.93   506.0    4.8      43.194
2013    7       23     6  39    3.93   506.0    4.8      43.162
2013    7       23     6  46    3.92   506.1    4.8      43.130
2013    7       23     6  53    3.92   506.2    4.8      43.098
2013    7       23     6  59    3.91   506.3    4.8      43.066
2013    7       23     7   6    3.91   506.4    4.8      43.034
2013    7       23     7  13    3.90   506.5    4.8      43.001
2013    7       23     7  20    3.89   506.5    4.8      42.968
2013    7       23     7  27    3.89   506.6    4.8      42.935
2013    7       23     7  33    3.88   506.7    4.7      42.901
2013    7       23     7  40    3.88   506.7    4.7      42.868
2013    7       23     7  47    3.87   506.8    4.7      42.834
2013    7       23     7  54    3.87   506.9    4.7      42.801
2013    7       23     8   1    3.86   507.0    4.7      42.768
2013    7       23     8   7    3.86   507.0    4.7      42.735
2013    7       23     8  14    3.85   507.1    4.7      42.702
2013    7       23     8  21    3.85   507.1    4.7      42.670
2013    7       23     8  28    3.84   507.2    4.7      42.638
2013    7       23     8  35    3.84   507.3    4.7      42.607
2013    7       23     8  42    3.83   507.3    4.7      42.575
2013    7       23     8  48    3.83   507.4    4.7      42.545
2013    7       23     8  55    3.82   507.5    4.7      42.514
2013    7       23     9   2    3.82   507.5    4.7      42.484
2013    7       23     9   9    3.82   507.6    4.6      42.453
2013    7       23     9  16    3.81   507.6    4.6      42.424
2013    7       23     9  22    3.81   507.7    4.6      42.394
2013    7       23     9  29    3.80   507.7    4.6      42.364
2013    7       23     9  36    3.80   507.8    4.6      42.335
2013    7       23     9  43    3.79   507.8    4.6      42.305
2013    7       23     9  50    3.79   507.9    4.6      42.277
2013    7       23     9  57    3.78   507.9    4.6      42.248
2013    7       23    10   3    3.78   507.9    4.6      42.220
2013    7       23    10  10    3.78   508.0    4.6      42.193
2013    7       23    10  17    3.77   508.0    4.6      42.166
2013    7       23    10  24    3.77   508.0    4.6      42.139
2013    7       23    10  31    3.76   508.0    4.6      42.113
2013    7       23    10  37    3.76   508.0    4.6      42.089
2013    7       23    10  44    3.76   508.1    4.6      42.065
2013    7       23    10  51    3.75   508.1    4.6      42.041
2013    7       23    10  58    3.75   508.1    4.6      42.018
2013    7       23    11   5    3.74   508.1    4.6      41.995
2013    7       23    11  11    3.74   508.1    4.6      41.973
2013    7       23    11  18    3.74   508.2    4.6      41.951
2013    7       23    11  25    3.73   508.2    4.5      41.928
2013    7       23    11  32    3.73   508.2    4.5      41.906
2013    7       23    11  39    3.72   508.2    4.5      41.883
2013    7       23    11  45    3.72   508.2    4.5      41.861
2013    7       23    11  52    3.72   508.3    4.5      41.838
2013    7       23    11  59    3.71   508.3    4.5      41.815
2013    7       23    12   6    3.71   508.3    4.5      41.791
2013    7       23    12  13    3.71   508.3    4.5      41.767
2013    7       23    12  19    3.70   508.3    4.5      41.742
2013    7       23    12  26    3.70   508.3    4.5      41.717
2013    7       23    12  33    3.69   508.4    4.5      41.691
2013    7       23    12  40    3.69   508.4    4.5      41.666
2013    7       23    12  47    3.69   508.4    4.5      41.640
2013    7       23    12  53    3.68   508.4    4.5      41.613
2013    7       23    13   0    3.68   508.4    4.5      41.587
2013    7       23    13   7    3.68   508.4    4.5      41.560
2013    7       23    13  14    3.67   508.4    4.5      41.533
2013    7       23    13  20    3.67   508.4    4.5      41.506
2013    7       23    13  27    3.67   508.5    4.5      41.479
2013    7       23    13  34    3.66   508.5    4.5      41.451
2013    7       23    13  41    3.66   508.5    4.5      41.423
2013    7       23    13  48    3.66   508.5    4.5      41.395
2013    7       23    13  54    3.65   508.5    4.5      41.367
2013    7       23    14   1    3.65   508.5    4.5      41.340
2013    7       23    14   8    3.65   508.5    4.4      41.311
2013    7       23    14  15    3.64   508.5    4.4      41.283
2013    7       23    14  22    3.64   508.5    4.4      41.255
2013    7       23    14  28    3.64   508.5    4.4      41.227
2013    7       23    14  35    3.63   508.5    4.4      41.199
2013    7       23    14  42    3.63   508.5    4.4      41.171
2013    7       23    14  49    3.63   508.5    4.4      41.144
2013    7       23    14  56    3.62   508.5    4.4      41.117
2013    7       23    15   2    3.62   508.5    4.4      41.089
2013    7       23    15   9    3.62   508.5    4.4      41.063
2013    7       23    15  16    3.61   508.5    4.4      41.037
2013    7       23    15  23    3.61   508.5    4.4      41.011
2013    7       23    15  30    3.61   508.5    4.4      40.986
2013    7       23    15  36    3.60   508.5    4.4      40.961
2013    7       23    15  43    3.60   508.4    4.4      40.937
2013    7       23    15  50    3.60   508.4    4.4      40.914
2013    7       23    15  57    3.60   508.4    4.4      40.891
2013    7       23    16   4    3.59   508.4    4.4      40.869
2013    7       23    16  10    3.59   508.4    4.4      40.848
2013    7       23    16  17    3.59   508.4    4.4      40.827
2013    7       23    16  24    3.58   508.4    4.4      40.806
2013    7       23    16  31    3.58   508.4    4.4      40.787
2013    7       23    16  38    3.58   508.3    4.4      40.768
2013    7       23    16  45    3.58   508.3    4.4      40.749
2013    7       23    16  51    3.57   508.3    4.4      40.731
2013    7       23    16  58    3.57   508.3    4.4      40.713
2013    7       23    17   5    3.57   508.3    4.4      40.695
2013    7       23    17  12    3.56   508.3    4.4      40.678
2013    7       23    17  19    3.56   508.2    4.4      40.661
2013    7       23    17  25    3.56   508.2    4.4      40.644
2013    7       23    17  32    3.56   508.2    4.4      40.627
2013    7       23    17  39    3.55   508.2    4.4      40.610
2013    7       23    17  46    3.55   508.1    4.4      40.593
2013    7       23    17  53    3.55   508.1    4.4      40.576
2013    7       23    18   0    3.54   508.1    4.3      40.558
2013    7       23    18   6    3.54   508.1    4.3      40.540
2013    7       23    18  13    3.54   508.0    4.3      40.522
2013    7       23    18  20    3.54   508.0    4.3      40.503
2013    7       23    18  27    3.53   508.0    4.3      40.484
2013    7       23    18  34    3.53   508.0    4.3      40.464
2013    7       23    18  40    3.53   507.9    4.3      40.445
2013    7       23    18  47    3.53   507.9    4.3      40.425
2013    7       23    18  54    3.52   507.9    4.3      40.404
2013    7       23    19   1    3.52   507.8    4.3      40.383
2013    7       23    19   8    3.52   507.8    4.3      40.362
2013    7       23    19  14    3.52   507.8    4.3      40.341
2013    7       23    19  21    3.51   507.8    4.3      40.319
2013    7       23    19  28    3.51   507.7    4.3      40.298
2013    7       23    19  35    3.51   507.7    4.3      40.275
2013    7       23    19  41    3.50   507.7    4.3      40.253
2013    7       23    19  48    3.50   507.6    4.3      40.230
2013    7       23    19  55    3.50   507.6    4.3      40.207
2013    7       23    20   2    3.50   507.6    4.3      40.184
2013    7       23    20   9    3.49   507.5    4.3      40.160
2013    7       23    20  15    3.49   507.5    4.3      40.136
2013    7       23    20  22    3.49   507.5    4.3      40.112
2013    7       23    20  29    3.49   507.4    4.3      40.088
2013    7       23    20  36    3.48   507.4    4.3      40.063
2013    7       23    20  43    3.48   507.4    4.3      40.038
2013    7       23    20  49    3.48   507.3    4.3      40.013
2013    7       23    20  56    3.48   507.3    4.3      39.988
2013    7       23    21   3    3.47   507.3    4.3      39.962
2013    7       23    21  10    3.47   507.2    4.3      39.937
2013    7       23    21  16    3.47   507.2    4.3      39.911
2013    7       23    21  23    3.47   507.1    4.3      39.886
2013    7       23    21  30    3.46   507.1    4.3      39.860
2013    7       23    21  37    3.46   507.0    4.3      39.835
2013    7       23    21  44    3.46   507.0    4.3      39.810
2013    7       23    21  50    3.46   507.0    4.3      39.785
2013    7       23    21  57    3.45   506.9    4.3      39.760
2013    7       23    22   4    3.45   506.9    4.3      39.735
2013    7       23    22  11    3.45   506.8    4.3      39.711
2013    7       23    22  18    3.45   506.8    4.3      39.687
2013    7       23    22  24    3.44   506.7    4.3      39.664
2013    7       23    22  31    3.44   506.7    4.3      39.640
2013    7       23    22  38    3.44   506.6    4.3      39.618
2013    7       23    22  45    3.44   506.6    4.3      39.596
2013    7       23    22  52    3.44   506.5    4.3      39.574
2013    7       23    22  58    3.43   506.5    4.3      39.553
2013    7       23    23   5    3.43   506.4    4.3      39.532
2013    7       23    23  12    3.43   506.3    4.3      39.512
2013    7       23    23  19    3.43   506.3    4.3      39.492
2013    7       23    23  26    3.42   506.2    4.2      39.472
2013    7       23    23  33    3.42   506.2    4.2      39.453
2013    7       23    23  39    3.42   506.1    4.2      39.435
2013    7       23    23  46    3.42   506.1    4.2      39.416
2013    7       23    23  53    3.41   506.0    4.2      39.398
2013    7       24     0   0    3.41   505.9    4.2      39.380
