year    month   day   hour  minute  B_enl V_enl   n_enl       T_enl
[year] [month] [day] [hour][minute] [nT]  [km/s]  [cm-3]      [kK]
2015    5       21     0   0    2.8653   420.5    4.344      27.742
2015    5       21     0   6    2.8657   420.2    4.349      27.719
2015    5       21     0  12    2.8660   419.9    4.355      27.696
2015    5       21     0  18    2.8664   419.7    4.361      27.674
2015    5       21     0  24    2.8668   419.4    4.366      27.651
2015    5       21     0  30    2.8672   419.1    4.372      27.629
2015    5       21     0  36    2.8675   418.8    4.378      27.607
2015    5       21     0  42    2.8679   418.5    4.384      27.586
2015    5       21     0  48    2.8683   418.3    4.390      27.564
2015    5       21     0  54    2.8688   418.0    4.396      27.543
2015    5       21     1   0    2.8692   417.7    4.402      27.522
2015    5       21     1   6    2.8697   417.4    4.408      27.500
2015    5       21     1  12    2.8701   417.1    4.414      27.480
2015    5       21     1  18    2.8706   416.9    4.420      27.459
2015    5       21     1  24    2.8711   416.6    4.426      27.438
2015    5       21     1  30    2.8716   416.3    4.432      27.418
2015    5       21     1  36    2.8721   416.0    4.439      27.398
2015    5       21     1  42    2.8727   415.7    4.445      27.378
2015    5       21     1  48    2.8733   415.4    4.451      27.358
2015    5       21     1  54    2.8739   415.2    4.458      27.339
2015    5       21     2   0    2.8746   414.9    4.464      27.319
2015    5       21     2   6    2.8752   414.6    4.470      27.300
2015    5       21     2  12    2.8759   414.3    4.477      27.281
2015    5       21     2  18    2.8767   414.1    4.483      27.263
2015    5       21     2  24    2.8774   413.8    4.490      27.244
2015    5       21     2  30    2.8782   413.5    4.496      27.226
2015    5       21     2  36    2.8790   413.2    4.503      27.208
2015    5       21     2  42    2.8799   413.0    4.510      27.190
2015    5       21     2  48    2.8808   412.7    4.516      27.173
2015    5       21     2  54    2.8817   412.4    4.523      27.155
2015    5       21     3   0    2.8826   412.1    4.530      27.138
2015    5       21     3   6    2.8836   411.9    4.537      27.121
2015    5       21     3  12    2.8846   411.6    4.544      27.104
2015    5       21     3  18    2.8857   411.3    4.550      27.087
2015    5       21     3  24    2.8867   411.1    4.557      27.070
2015    5       21     3  30    2.8878   410.8    4.564      27.054
2015    5       21     3  36    2.8890   410.5    4.571      27.038
2015    5       21     3  42    2.8901   410.3    4.578      27.021
2015    5       21     3  48    2.8913   410.0    4.585      27.005
2015    5       21     3  54    2.8925   409.7    4.592      26.988
2015    5       21     4   0    2.8937   409.5    4.599      26.972
2015    5       21     4   6    2.8949   409.2    4.606      26.956
2015    5       21     4  12    2.8961   408.9    4.613      26.940
2015    5       21     4  18    2.8974   408.7    4.620      26.924
2015    5       21     4  24    2.8986   408.4    4.627      26.907
2015    5       21     4  30    2.8999   408.2    4.634      26.891
2015    5       21     4  36    2.9012   407.9    4.641      26.875
2015    5       21     4  42    2.9025   407.6    4.648      26.858
2015    5       21     4  48    2.9038   407.4    4.655      26.842
2015    5       21     4  54    2.9051   407.1    4.662      26.825
2015    5       21     5   0    2.9064   406.9    4.669      26.808
2015    5       21     5   6    2.9077   406.6    4.676      26.792
2015    5       21     5  12    2.9091   406.3    4.683      26.775
2015    5       21     5  18    2.9104   406.1    4.689      26.758
2015    5       21     5  24    2.9117   405.8    4.696      26.741
2015    5       21     5  30    2.9131   405.6    4.703      26.724
2015    5       21     5  36    2.9144   405.3    4.710      26.706
2015    5       21     5  42    2.9158   405.0    4.717      26.689
2015    5       21     5  48    2.9172   404.8    4.724      26.672
2015    5       21     5  54    2.9185   404.5    4.731      26.654
2015    5       21     6   0    2.9199   404.3    4.737      26.636
2015    5       21     6   6    2.9213   404.0    4.744      26.619
2015    5       21     6  12    2.9227   403.8    4.751      26.601
2015    5       21     6  18    2.9241   403.5    4.758      26.583
2015    5       21     6  24    2.9255   403.2    4.765      26.565
2015    5       21     6  30    2.9270   403.0    4.772      26.547
2015    5       21     6  36    2.9284   402.7    4.779      26.529
2015    5       21     6  42    2.9299   402.5    4.785      26.512
2015    5       21     6  48    2.9314   402.2    4.792      26.494
2015    5       21     6  54    2.9329   402.0    4.799      26.476
2015    5       21     7   0    2.9344   401.7    4.806      26.458
2015    5       21     7   6    2.9359   401.4    4.813      26.440
2015    5       21     7  12    2.9374   401.2    4.820      26.423
2015    5       21     7  18    2.9390   400.9    4.827      26.405
2015    5       21     7  24    2.9405   400.7    4.835      26.387
2015    5       21     7  30    2.9421   400.4    4.842      26.370
2015    5       21     7  36    2.9438   400.2    4.849      26.353
2015    5       21     7  42    2.9454   399.9    4.856      26.336
2015    5       21     7  48    2.9470   399.7    4.863      26.319
2015    5       21     7  54    2.9487   399.4    4.871      26.302
2015    5       21     8   0    2.9504   399.2    4.878      26.285
2015    5       21     8   6    2.9522   398.9    4.886      26.269
2015    5       21     8  12    2.9539   398.7    4.893      26.253
2015    5       21     8  18    2.9557   398.4    4.901      26.237
2015    5       21     8  24    2.9575   398.2    4.909      26.221
2015    5       21     8  30    2.9594   397.9    4.917      26.206
2015    5       21     8  36    2.9613   397.7    4.924      26.191
2015    5       21     8  42    2.9632   397.4    4.932      26.176
2015    5       21     8  48    2.9651   397.2    4.941      26.161
2015    5       21     8  54    2.9671   396.9    4.949      26.147
2015    5       21     9   0    2.9691   396.7    4.957      26.133
2015    5       21     9   6    2.9712   396.4    4.966      26.120
2015    5       21     9  12    2.9732   396.2    4.974      26.106
2015    5       21     9  18    2.9753   396.0    4.983      26.093
2015    5       21     9  24    2.9775   395.7    4.991      26.081
2015    5       21     9  30    2.9796   395.5    5.000      26.069
2015    5       21     9  36    2.9819   395.2    5.009      26.057
2015    5       21     9  42    2.9841   395.0    5.018      26.046
2015    5       21     9  48    2.9864   394.8    5.027      26.034
2015    5       21     9  54    2.9887   394.5    5.037      26.024
2015    5       21    10   0    2.9910   394.3    5.046      26.013
2015    5       21    10   6    2.9933   394.1    5.056      26.003
2015    5       21    10  12    2.9957   393.9    5.065      25.993
2015    5       21    10  18    2.9981   393.6    5.075      25.984
2015    5       21    10  24    3.0006   393.4    5.085      25.975
2015    5       21    10  30    3.0030   393.2    5.095      25.966
2015    5       21    10  37    3.0055   392.9    5.105      25.957
2015    5       21    10  43    3.0081   392.7    5.115      25.949
2015    5       21    10  49    3.0106   392.5    5.125      25.941
2015    5       21    10  55    3.0131   392.3    5.136      25.934
2015    5       21    11   1    3.0157   392.1    5.146      25.927
2015    5       21    11   7    3.0183   391.8    5.156      25.919
2015    5       21    11  13    3.0209   391.6    5.167      25.913
2015    5       21    11  19    3.0236   391.4    5.178      25.906
2015    5       21    11  25    3.0262   391.2    5.189      25.900
2015    5       21    11  31    3.0288   391.0    5.199      25.894
2015    5       21    11  37    3.0315   390.8    5.210      25.889
2015    5       21    11  43    3.0342   390.5    5.221      25.883
2015    5       21    11  49    3.0368   390.3    5.232      25.878
2015    5       21    11  55    3.0395   390.1    5.243      25.873
2015    5       21    12   1    3.0422   389.9    5.255      25.869
2015    5       21    12   7    3.0449   389.7    5.266      25.864
2015    5       21    12  13    3.0476   389.5    5.277      25.860
2015    5       21    12  19    3.0503   389.3    5.288      25.856
2015    5       21    12  25    3.0531   389.1    5.300      25.852
2015    5       21    12  31    3.0558   388.9    5.311      25.849
2015    5       21    12  37    3.0585   388.7    5.323      25.846
2015    5       21    12  43    3.0613   388.4    5.334      25.842
2015    5       21    12  49    3.0640   388.2    5.345      25.839
2015    5       21    12  55    3.0668   388.0    5.357      25.837
2015    5       21    13   1    3.0695   387.8    5.369      25.834
2015    5       21    13   7    3.0723   387.6    5.380      25.832
2015    5       21    13  13    3.0751   387.4    5.392      25.830
2015    5       21    13  19    3.0779   387.2    5.403      25.828
2015    5       21    13  25    3.0806   387.0    5.415      25.826
2015    5       21    13  31    3.0834   386.8    5.427      25.824
2015    5       21    13  37    3.0863   386.6    5.438      25.823
2015    5       21    13  43    3.0891   386.4    5.450      25.822
2015    5       21    13  49    3.0919   386.2    5.462      25.821
2015    5       21    13  55    3.0947   386.0    5.473      25.820
2015    5       21    14   1    3.0976   385.9    5.485      25.819
2015    5       21    14   7    3.1004   385.7    5.497      25.819
2015    5       21    14  13    3.1033   385.5    5.509      25.819
2015    5       21    14  19    3.1061   385.3    5.520      25.818
2015    5       21    14  25    3.1090   385.1    5.532      25.819
2015    5       21    14  31    3.1119   384.9    5.544      25.819
2015    5       21    14  37    3.1148   384.7    5.556      25.819
2015    5       21    14  43    3.1177   384.5    5.567      25.820
2015    5       21    14  49    3.1207   384.3    5.579      25.821
2015    5       21    14  55    3.1236   384.1    5.591      25.822
2015    5       21    15   1    3.1266   384.0    5.603      25.823
2015    5       21    15   7    3.1295   383.8    5.614      25.824
2015    5       21    15  13    3.1325   383.6    5.626      25.826
2015    5       21    15  19    3.1355   383.4    5.638      25.828
2015    5       21    15  25    3.1385   383.2    5.650      25.829
2015    5       21    15  31    3.1415   383.1    5.661      25.831
2015    5       21    15  37    3.1445   382.9    5.673      25.834
2015    5       21    15  43    3.1476   382.7    5.685      25.836
2015    5       21    15  49    3.1506   382.5    5.697      25.838
2015    5       21    15  55    3.1537   382.4    5.708      25.841
2015    5       21    16   1    3.1568   382.2    5.720      25.843
2015    5       21    16   7    3.1598   382.0    5.732      25.846
2015    5       21    16  13    3.1629   381.8    5.744      25.849
2015    5       21    16  19    3.1661   381.7    5.755      25.852
2015    5       21    16  25    3.1692   381.5    5.767      25.856
2015    5       21    16  31    3.1723   381.3    5.779      25.859
2015    5       21    16  37    3.1755   381.2    5.791      25.863
2015    5       21    16  43    3.1786   381.0    5.803      25.866
2015    5       21    16  49    3.1818   380.8    5.815      25.870
2015    5       21    16  55    3.1850   380.7    5.827      25.874
2015    5       21    17   1    3.1882   380.5    5.839      25.878
2015    5       21    17   7    3.1914   380.3    5.850      25.882
2015    5       21    17  13    3.1947   380.2    5.862      25.887
2015    5       21    17  19    3.1979   380.0    5.875      25.891
2015    5       21    17  25    3.2011   379.9    5.887      25.896
2015    5       21    17  31    3.2044   379.7    5.899      25.901
2015    5       21    17  37    3.2077   379.5    5.911      25.905
2015    5       21    17  43    3.2110   379.4    5.923      25.911
2015    5       21    17  49    3.2143   379.2    5.935      25.916
2015    5       21    17  55    3.2176   379.1    5.948      25.922
2015    5       21    18   1    3.2209   378.9    5.960      25.927
2015    5       21    18   7    3.2243   378.8    5.973      25.933
2015    5       21    18  13    3.2277   378.6    5.985      25.939
2015    5       21    18  19    3.2310   378.5    5.998      25.946
2015    5       21    18  25    3.2344   378.3    6.010      25.953
2015    5       21    18  31    3.2378   378.2    6.023      25.959
2015    5       21    18  37    3.2412   378.0    6.036      25.967
2015    5       21    18  43    3.2447   377.9    6.049      25.974
2015    5       21    18  49    3.2481   377.8    6.062      25.982
2015    5       21    18  55    3.2516   377.6    6.075      25.989
2015    5       21    19   1    3.2551   377.5    6.088      25.998
2015    5       21    19   7    3.2585   377.3    6.101      26.006
2015    5       21    19  13    3.2620   377.2    6.115      26.015
2015    5       21    19  19    3.2656   377.1    6.128      26.024
2015    5       21    19  25    3.2691   376.9    6.142      26.033
2015    5       21    19  31    3.2726   376.8    6.155      26.043
2015    5       21    19  37    3.2761   376.7    6.169      26.053
2015    5       21    19  43    3.2797   376.5    6.183      26.063
2015    5       21    19  49    3.2833   376.4    6.197      26.073
2015    5       21    19  55    3.2868   376.3    6.210      26.084
2015    5       21    20   1    3.2904   376.1    6.224      26.095
2015    5       21    20   7    3.2940   376.0    6.238      26.107
2015    5       21    20  13    3.2976   375.9    6.253      26.118
2015    5       21    20  19    3.3012   375.8    6.267      26.130
2015    5       21    20  25    3.3048   375.6    6.281      26.143
2015    5       21    20  31    3.3084   375.5    6.295      26.155
2015    5       21    20  37    3.3121   375.4    6.310      26.168
2015    5       21    20  43    3.3157   375.3    6.324      26.181
2015    5       21    20  49    3.3193   375.1    6.338      26.194
2015    5       21    20  55    3.3229   375.0    6.353      26.208
2015    5       21    21   1    3.3266   374.9    6.367      26.221
2015    5       21    21   7    3.3302   374.8    6.382      26.235
2015    5       21    21  13    3.3338   374.7    6.396      26.249
2015    5       21    21  19    3.3374   374.6    6.411      26.264
2015    5       21    21  25    3.3411   374.4    6.425      26.278
2015    5       21    21  31    3.3447   374.3    6.440      26.293
2015    5       21    21  37    3.3483   374.2    6.454      26.308
2015    5       21    21  43    3.3520   374.1    6.469      26.323
2015    5       21    21  49    3.3556   374.0    6.483      26.338
2015    5       21    21  55    3.3592   373.9    6.498      26.353
2015    5       21    22   1    3.3628   373.8    6.512      26.368
2015    5       21    22   7    3.3665   373.7    6.527      26.384
2015    5       21    22  13    3.3701   373.6    6.541      26.399
2015    5       21    22  19    3.3737   373.5    6.556      26.415
2015    5       21    22  25    3.3773   373.4    6.570      26.430
2015    5       21    22  31    3.3809   373.3    6.584      26.446
2015    5       21    22  37    3.3846   373.2    6.598      26.462
2015    5       21    22  43    3.3882   373.1    6.613      26.478
2015    5       21    22  49    3.3918   372.9    6.627      26.493
2015    5       21    22  55    3.3954   372.8    6.641      26.509
2015    5       21    23   1    3.3990   372.7    6.655      26.525
2015    5       21    23   7    3.4027   372.6    6.669      26.541
2015    5       21    23  13    3.4063   372.5    6.683      26.556
2015    5       21    23  19    3.4099   372.4    6.696      26.572
2015    5       21    23  25    3.4135   372.4    6.710      26.588
2015    5       21    23  31    3.4172   372.3    6.724      26.604
2015    5       21    23  37    3.4208   372.2    6.737      26.619
2015    5       21    23  43    3.4244   372.1    6.751      26.635
2015    5       21    23  49    3.4281   372.0    6.764      26.651
2015    5       21    23  55    3.4317   371.9    6.778      26.666
2015    5       22     0   1    3.4353   371.8    6.791      26.682
2015    5       22     0   7    3.4390   371.7    6.804      26.697
2015    5       22     0  13    3.4426   371.6    6.818      26.713
2015    5       22     0  19    3.4463   371.5    6.831      26.728
2015    5       22     0  25    3.4499   371.4    6.844      26.744
2015    5       22     0  31    3.4536   371.3    6.857      26.759
2015    5       22     0  37    3.4573   371.2    6.870      26.775
2015    5       22     0  43    3.4609   371.1    6.883      26.790
2015    5       22     0  49    3.4646   371.1    6.896      26.806
2015    5       22     0  55    3.4683   371.0    6.909      26.822
2015    5       22     1   1    3.4720   370.9    6.922      26.837
2015    5       22     1   7    3.4756   370.8    6.935      26.853
2015    5       22     1  13    3.4793   370.7    6.948      26.868
2015    5       22     1  19    3.4830   370.6    6.960      26.884
2015    5       22     1  25    3.4867   370.5    6.973      26.900
2015    5       22     1  31    3.4904   370.5    6.986      26.916
2015    5       22     1  37    3.4941   370.4    6.999      26.931
2015    5       22     1  43    3.4977   370.3    7.011      26.947
2015    5       22     1  49    3.5015   370.2    7.024      26.963
2015    5       22     1  55    3.5051   370.1    7.037      26.979
2015    5       22     2   1    3.5088   370.1    7.049      26.995
2015    5       22     2   7    3.5125   370.0    7.062      27.011
2015    5       22     2  13    3.5162   369.9    7.075      27.027
2015    5       22     2  19    3.5199   369.8    7.087      27.043
2015    5       22     2  25    3.5236   369.7    7.100      27.060
2015    5       22     2  31    3.5273   369.7    7.112      27.076
2015    5       22     2  37    3.5310   369.6    7.125      27.092
2015    5       22     2  43    3.5347   369.5    7.138      27.108
2015    5       22     2  49    3.5384   369.5    7.150      27.125
2015    5       22     2  55    3.5421   369.4    7.163      27.141
2015    5       22     3   1    3.5458   369.3    7.176      27.158
2015    5       22     3   7    3.5495   369.2    7.188      27.174
2015    5       22     3  13    3.5532   369.2    7.201      27.191
2015    5       22     3  19    3.5569   369.1    7.214      27.208
2015    5       22     3  25    3.5606   369.0    7.226      27.224
2015    5       22     3  31    3.5643   369.0    7.239      27.241
2015    5       22     3  37    3.5680   368.9    7.252      27.258
2015    5       22     3  43    3.5717   368.8    7.265      27.275
2015    5       22     3  49    3.5754   368.8    7.277      27.292
2015    5       22     3  55    3.5791   368.7    7.290      27.309
2015    5       22     4   1    3.5827   368.6    7.303      27.327
2015    5       22     4   7    3.5864   368.6    7.316      27.344
2015    5       22     4  13    3.5901   368.5    7.329      27.361
2015    5       22     4  19    3.5937   368.4    7.341      27.378
2015    5       22     4  25    3.5974   368.4    7.354      27.396
2015    5       22     4  31    3.6011   368.3    7.367      27.413
2015    5       22     4  37    3.6047   368.2    7.380      27.431
2015    5       22     4  43    3.6084   368.2    7.392      27.449
2015    5       22     4  49    3.6120   368.1    7.405      27.466
2015    5       22     4  55    3.6156   368.1    7.418      27.484
2015    5       22     5   1    3.6193   368.0    7.431      27.502
2015    5       22     5   7    3.6229   367.9    7.443      27.519
2015    5       22     5  13    3.6265   367.9    7.456      27.537
2015    5       22     5  19    3.6301   367.8    7.469      27.555
2015    5       22     5  25    3.6338   367.8    7.482      27.572
2015    5       22     5  31    3.6374   367.7    7.494      27.590
2015    5       22     5  37    3.6410   367.7    7.507      27.608
2015    5       22     5  43    3.6446   367.6    7.520      27.626
2015    5       22     5  49    3.6483   367.6    7.532      27.643
2015    5       22     5  55    3.6519   367.5    7.545      27.661
2015    5       22     6   1    3.6555   367.4    7.557      27.679
2015    5       22     6   7    3.6591   367.4    7.570      27.697
2015    5       22     6  13    3.6628   367.3    7.582      27.714
2015    5       22     6  19    3.6664   367.3    7.595      27.732
2015    5       22     6  25    3.6700   367.2    7.607      27.750
2015    5       22     6  31    3.6737   367.2    7.619      27.767
2015    5       22     6  37    3.6773   367.1    7.632      27.785
2015    5       22     6  43    3.6810   367.1    7.644      27.803
2015    5       22     6  49    3.6847   367.0    7.656      27.820
2015    5       22     6  55    3.6884   367.0    7.669      27.838
2015    5       22     7   1    3.6921   366.9    7.681      27.855
2015    5       22     7   7    3.6957   366.9    7.693      27.873
2015    5       22     7  13    3.6994   366.8    7.705      27.891
2015    5       22     7  19    3.7031   366.8    7.717      27.908
2015    5       22     7  25    3.7069   366.7    7.730      27.926
2015    5       22     7  31    3.7106   366.7    7.742      27.943
2015    5       22     7  37    3.7143   366.6    7.754      27.961
2015    5       22     7  43    3.7180   366.6    7.766      27.979
2015    5       22     7  49    3.7217   366.5    7.778      27.996
2015    5       22     7  55    3.7254   366.5    7.790      28.014
2015    5       22     8   1    3.7291   366.4    7.802      28.032
2015    5       22     8   7    3.7327   366.4    7.814      28.050
2015    5       22     8  13    3.7364   366.4    7.826      28.069
2015    5       22     8  19    3.7401   366.3    7.838      28.087
2015    5       22     8  25    3.7438   366.3    7.849      28.106
2015    5       22     8  31    3.7474   366.2    7.861      28.124
2015    5       22     8  37    3.7511   366.2    7.872      28.143
2015    5       22     8  43    3.7547   366.2    7.884      28.161
2015    5       22     8  49    3.7583   366.1    7.895      28.180
2015    5       22     8  55    3.7620   366.1    7.907      28.198
2015    5       22     9   1    3.7656   366.0    7.918      28.215
2015    5       22     9   7    3.7692   366.0    7.929      28.233
2015    5       22     9  13    3.7728   366.0    7.940      28.251
2015    5       22     9  19    3.7764   365.9    7.951      28.268
2015    5       22     9  25    3.7799   365.9    7.962      28.285
2015    5       22     9  31    3.7835   365.9    7.973      28.303
2015    5       22     9  37    3.7871   365.8    7.983      28.320
2015    5       22     9  43    3.7906   365.8    7.994      28.336
2015    5       22     9  49    3.7942   365.8    8.005      28.353
2015    5       22     9  55    3.7977   365.7    8.015      28.369
2015    5       22    10   1    3.8013   365.7    8.026      28.385
2015    5       22    10   7    3.8048   365.6    8.037      28.401
2015    5       22    10  13    3.8083   365.6    8.047      28.417
2015    5       22    10  19    3.8118   365.6    8.057      28.433
2015    5       22    10  25    3.8153   365.5    8.068      28.448
2015    5       22    10  31    3.8188   365.5    8.078      28.464
2015    5       22    10  37    3.8223   365.5    8.089      28.479
2015    5       22    10  43    3.8258   365.4    8.099      28.494
2015    5       22    10  49    3.8292   365.4    8.109      28.509
2015    5       22    10  55    3.8327   365.4    8.119      28.524
2015    5       22    11   1    3.8362   365.3    8.129      28.539
2015    5       22    11   7    3.8396   365.3    8.139      28.553
2015    5       22    11  13    3.8431   365.3    8.150      28.568
2015    5       22    11  19    3.8465   365.2    8.160      28.582
2015    5       22    11  25    3.8500   365.2    8.170      28.596
2015    5       22    11  31    3.8534   365.2    8.180      28.611
2015    5       22    11  37    3.8568   365.1    8.190      28.625
2015    5       22    11  43    3.8603   365.1    8.199      28.639
2015    5       22    11  49    3.8637   365.1    8.209      28.652
2015    5       22    11  55    3.8671   365.1    8.219      28.666
2015    5       22    12   1    3.8705   365.0    8.229      28.680
2015    5       22    12   7    3.8740   365.0    8.239      28.693
2015    5       22    12  13    3.8774   365.0    8.249      28.707
2015    5       22    12  19    3.8808   364.9    8.258      28.720
2015    5       22    12  25    3.8842   364.9    8.268      28.733
2015    5       22    12  31    3.8876   364.9    8.278      28.747
2015    5       22    12  37    3.8910   364.8    8.288      28.760
2015    5       22    12  43    3.8945   364.8    8.298      28.773
2015    5       22    12  49    3.8979   364.8    8.307      28.787
2015    5       22    12  55    3.9013   364.7    8.317      28.800
2015    5       22    13   1    3.9048   364.7    8.327      28.813
2015    5       22    13   7    3.9082   364.7    8.337      28.827
2015    5       22    13  13    3.9117   364.7    8.346      28.840
2015    5       22    13  19    3.9152   364.6    8.356      28.854
2015    5       22    13  25    3.9186   364.6    8.366      28.867
2015    5       22    13  31    3.9221   364.6    8.376      28.881
2015    5       22    13  37    3.9257   364.5    8.386      28.895
2015    5       22    13  43    3.9292   364.5    8.396      28.909
2015    5       22    13  49    3.9327   364.5    8.406      28.923
2015    5       22    13  55    3.9363   364.5    8.416      28.937
2015    5       22    14   1    3.9399   364.4    8.426      28.952
2015    5       22    14   7    3.9435   364.4    8.436      28.966
2015    5       22    14  13    3.9471   364.4    8.446      28.981
2015    5       22    14  19    3.9507   364.4    8.457      28.996
2015    5       22    14  25    3.9544   364.3    8.467      29.011
2015    5       22    14  31    3.9580   364.3    8.477      29.026
2015    5       22    14  37    3.9617   364.3    8.488      29.041
2015    5       22    14  43    3.9654   364.3    8.498      29.057
2015    5       22    14  49    3.9691   364.2    8.509      29.073
2015    5       22    14  55    3.9727   364.2    8.519      29.088
2015    5       22    15   1    3.9764   364.2    8.530      29.104
2015    5       22    15   7    3.9800   364.2    8.541      29.120
2015    5       22    15  13    3.9837   364.2    8.551      29.137
2015    5       22    15  19    3.9873   364.1    8.562      29.153
2015    5       22    15  25    3.9909   364.1    8.573      29.170
2015    5       22    15  31    3.9945   364.1    8.583      29.187
2015    5       22    15  37    3.9981   364.1    8.594      29.204
2015    5       22    15  43    4.0016   364.1    8.605      29.221
2015    5       22    15  49    4.0052   364.1    8.615      29.238
2015    5       22    15  55    4.0087   364.0    8.626      29.256
2015    5       22    16   1    4.0122   364.0    8.636      29.273
2015    5       22    16   7    4.0157   364.0    8.646      29.290
2015    5       22    16  13    4.0192   364.0    8.657      29.307
2015    5       22    16  19    4.0227   364.0    8.667      29.324
2015    5       22    16  25    4.0262   364.0    8.677      29.341
2015    5       22    16  31    4.0296   364.0    8.687      29.357
2015    5       22    16  37    4.0331   363.9    8.697      29.374
2015    5       22    16  43    4.0365   363.9    8.707      29.390
2015    5       22    16  49    4.0399   363.9    8.717      29.406
2015    5       22    16  55    4.0434   363.9    8.727      29.422
2015    5       22    17   1    4.0468   363.9    8.736      29.438
2015    5       22    17   7    4.0502   363.9    8.746      29.453
2015    5       22    17  13    4.0536   363.9    8.755      29.468
2015    5       22    17  19    4.0570   363.8    8.765      29.483
2015    5       22    17  26    4.0603   363.8    8.774      29.498
2015    5       22    17  32    4.0637   363.8    8.784      29.513
2015    5       22    17  38    4.0671   363.8    8.793      29.527
2015    5       22    17  44    4.0705   363.8    8.802      29.541
2015    5       22    17  50    4.0739   363.8    8.811      29.555
2015    5       22    17  56    4.0772   363.8    8.820      29.569
2015    5       22    18   2    4.0806   363.7    8.829      29.583
2015    5       22    18   8    4.0840   363.7    8.838      29.596
2015    5       22    18  14    4.0874   363.7    8.847      29.610
2015    5       22    18  20    4.0907   363.7    8.856      29.623
2015    5       22    18  26    4.0941   363.7    8.865      29.636
2015    5       22    18  32    4.0975   363.7    8.873      29.649
2015    5       22    18  38    4.1009   363.7    8.882      29.661
2015    5       22    18  44    4.1043   363.6    8.891      29.674
2015    5       22    18  50    4.1077   363.6    8.899      29.686
2015    5       22    18  56    4.1111   363.6    8.908      29.699
2015    5       22    19   2    4.1145   363.6    8.917      29.711
2015    5       22    19   8    4.1179   363.6    8.925      29.723
2015    5       22    19  14    4.1214   363.6    8.934      29.735
2015    5       22    19  20    4.1248   363.5    8.942      29.747
2015    5       22    19  26    4.1283   363.5    8.951      29.759
2015    5       22    19  32    4.1317   363.5    8.959      29.771
2015    5       22    19  38    4.1352   363.5    8.968      29.782
2015    5       22    19  44    4.1387   363.5    8.977      29.794
2015    5       22    19  50    4.1422   363.5    8.985      29.806
2015    5       22    19  56    4.1457   363.5    8.994      29.818
2015    5       22    20   2    4.1493   363.4    9.002      29.830
2015    5       22    20   8    4.1528   363.4    9.011      29.842
2015    5       22    20  14    4.1564   363.4    9.020      29.854
2015    5       22    20  20    4.1600   363.4    9.028      29.866
2015    5       22    20  26    4.1636   363.4    9.037      29.878
2015    5       22    20  32    4.1672   363.4    9.046      29.890
2015    5       22    20  38    4.1709   363.4    9.055      29.902
2015    5       22    20  44    4.1745   363.4    9.064      29.915
2015    5       22    20  50    4.1782   363.3    9.073      29.927
2015    5       22    20  56    4.1820   363.3    9.082      29.940
2015    5       22    21   2    4.1857   363.3    9.091      29.953
2015    5       22    21   8    4.1894   363.3    9.101      29.966
2015    5       22    21  14    4.1932   363.3    9.110      29.979
2015    5       22    21  20    4.1970   363.3    9.119      29.992
2015    5       22    21  26    4.2008   363.3    9.129      30.006
2015    5       22    21  32    4.2046   363.3    9.138      30.020
2015    5       22    21  38    4.2084   363.3    9.148      30.034
2015    5       22    21  44    4.2122   363.3    9.157      30.048
2015    5       22    21  50    4.2160   363.3    9.167      30.063
2015    5       22    21  56    4.2198   363.3    9.176      30.078
2015    5       22    22   2    4.2236   363.3    9.186      30.093
2015    5       22    22   8    4.2273   363.2    9.195      30.108
2015    5       22    22  14    4.2311   363.2    9.205      30.124
2015    5       22    22  20    4.2349   363.2    9.214      30.140
2015    5       22    22  26    4.2386   363.2    9.224      30.155
2015    5       22    22  32    4.2424   363.2    9.233      30.171
2015    5       22    22  38    4.2461   363.2    9.242      30.187
2015    5       22    22  44    4.2498   363.2    9.252      30.203
2015    5       22    22  50    4.2535   363.2    9.261      30.219
2015    5       22    22  56    4.2571   363.2    9.270      30.235
2015    5       22    23   2    4.2608   363.2    9.279      30.251
2015    5       22    23   8    4.2645   363.2    9.288      30.267
2015    5       22    23  14    4.2681   363.2    9.297      30.282
2015    5       22    23  20    4.2717   363.2    9.306      30.298
2015    5       22    23  26    4.2754   363.2    9.315      30.313
2015    5       22    23  32    4.2790   363.2    9.324      30.329
2015    5       22    23  38    4.2826   363.2    9.333      30.344
2015    5       22    23  44    4.2862   363.2    9.342      30.359
2015    5       22    23  50    4.2898   363.2    9.351      30.374
2015    5       22    23  56    4.2934   363.2    9.360      30.389
2015    5       23     0   2    4.2970   363.2    9.368      30.404
2015    5       23     0   8    4.3007   363.2    9.377      30.418
2015    5       23     0  14    4.3042   363.2    9.385      30.433
2015    5       23     0  20    4.3079   363.2    9.394      30.447
2015    5       23     0  26    4.3115   363.2    9.402      30.461
2015    5       23     0  32    4.3151   363.2    9.411      30.475
2015    5       23     0  38    4.3187   363.2    9.419      30.489
2015    5       23     0  44    4.3223   363.2    9.427      30.503
2015    5       23     0  50    4.3259   363.2    9.436      30.517
2015    5       23     0  56    4.3296   363.2    9.444      30.531
2015    5       23     1   2    4.3332   363.2    9.452      30.544
2015    5       23     1   8    4.3368   363.2    9.460      30.558
2015    5       23     1  14    4.3405   363.2    9.469      30.571
2015    5       23     1  20    4.3442   363.2    9.477      30.585
2015    5       23     1  26    4.3479   363.2    9.485      30.598
2015    5       23     1  32    4.3516   363.2    9.493      30.611
2015    5       23     1  38    4.3553   363.2    9.501      30.625
2015    5       23     1  44    4.3590   363.2    9.510      30.638
2015    5       23     1  50    4.3628   363.2    9.518      30.651
2015    5       23     1  56    4.3666   363.2    9.526      30.665
2015    5       23     2   2    4.3704   363.2    9.535      30.678
2015    5       23     2   8    4.3742   363.2    9.543      30.691
2015    5       23     2  14    4.3781   363.2    9.552      30.705
2015    5       23     2  20    4.3820   363.2    9.561      30.718
2015    5       23     2  26    4.3859   363.2    9.569      30.732
2015    5       23     2  32    4.3899   363.2    9.578      30.745
2015    5       23     2  38    4.3939   363.2    9.587      30.759
2015    5       23     2  44    4.3979   363.2    9.596      30.773
2015    5       23     2  50    4.4020   363.2    9.605      30.787
2015    5       23     2  56    4.4061   363.2    9.615      30.801
2015    5       23     3   2    4.4102   363.2    9.624      30.816
2015    5       23     3   8    4.4145   363.2    9.634      30.831
2015    5       23     3  14    4.4187   363.2    9.644      30.845
2015    5       23     3  20    4.4230   363.2    9.654      30.860
2015    5       23     3  26    4.4274   363.2    9.664      30.876
2015    5       23     3  32    4.4318   363.2    9.675      30.893
2015    5       23     3  38    4.4362   363.2    9.685      30.910
2015    5       23     3  44    4.4406   363.2    9.695      30.928
2015    5       23     3  50    4.4451   363.2    9.706      30.947
2015    5       23     3  56    4.4496   363.2    9.716      30.966
2015    5       23     4   2    4.4540   363.3    9.726      30.986
2015    5       23     4   8    4.4585   363.3    9.736      31.006
2015    5       23     4  14    4.4630   363.3    9.746      31.027
2015    5       23     4  20    4.4675   363.3    9.756      31.048
2015    5       23     4  26    4.4720   363.3    9.766      31.069
2015    5       23     4  32    4.4764   363.4    9.776      31.089
2015    5       23     4  38    4.4809   363.4    9.785      31.109
2015    5       23     4  44    4.4853   363.4    9.795      31.129
2015    5       23     4  50    4.4897   363.4    9.804      31.149
2015    5       23     4  56    4.4940   363.4    9.813      31.169
2015    5       23     5   2    4.4984   363.5    9.822      31.189
2015    5       23     5   8    4.5027   363.5    9.831      31.208
2015    5       23     5  14    4.5070   363.5    9.840      31.228
2015    5       23     5  20    4.5113   363.5    9.848      31.247
2015    5       23     5  26    4.5156   363.6    9.856      31.266
2015    5       23     5  32    4.5198   363.6    9.865      31.285
2015    5       23     5  38    4.5241   363.6    9.873      31.304
2015    5       23     5  44    4.5283   363.6    9.881      31.323
2015    5       23     5  50    4.5325   363.6    9.888      31.342
2015    5       23     5  56    4.5368   363.7    9.896      31.360
2015    5       23     6   2    4.5410   363.7    9.904      31.378
2015    5       23     6   8    4.5452   363.7    9.911      31.397
2015    5       23     6  14    4.5494   363.7    9.918      31.415
2015    5       23     6  20    4.5536   363.8    9.926      31.432
2015    5       23     6  26    4.5577   363.8    9.933      31.450
2015    5       23     6  32    4.5619   363.8    9.940      31.467
2015    5       23     6  38    4.5661   363.8    9.947      31.485
2015    5       23     6  44    4.5703   363.9    9.954      31.502
2015    5       23     6  50    4.5745   363.9    9.961      31.518
2015    5       23     6  56    4.5787   363.9    9.968      31.535
2015    5       23     7   2    4.5829   363.9    9.975      31.552
2015    5       23     7   8    4.5871   364.0    9.981      31.568
2015    5       23     7  14    4.5913   364.0    9.988      31.584
2015    5       23     7  20    4.5955   364.0    9.995      31.600
2015    5       23     7  26    4.5997   364.0   10.001      31.616
2015    5       23     7  32    4.6040   364.1   10.008      31.631
2015    5       23     7  38    4.6082   364.1   10.014      31.647
2015    5       23     7  44    4.6125   364.1   10.021      31.662
2015    5       23     7  50    4.6167   364.1   10.027      31.677
2015    5       23     7  56    4.6210   364.2   10.034      31.693
2015    5       23     8   2    4.6253   364.2   10.040      31.708
2015    5       23     8   8    4.6296   364.2   10.047      31.723
2015    5       23     8  14    4.6339   364.2   10.053      31.738
2015    5       23     8  20    4.6383   364.3   10.060      31.753
2015    5       23     8  26    4.6426   364.3   10.066      31.768
2015    5       23     8  32    4.6470   364.3   10.073      31.784
2015    5       23     8  38    4.6514   364.3   10.079      31.799
2015    5       23     8  44    4.6558   364.3   10.086      31.814
2015    5       23     8  50    4.6603   364.4   10.093      31.830
2015    5       23     8  56    4.6647   364.4   10.099      31.845
2015    5       23     9   2    4.6692   364.4   10.106      31.861
2015    5       23     9   8    4.6738   364.5   10.113      31.877
2015    5       23     9  14    4.6783   364.5   10.120      31.893
2015    5       23     9  20    4.6829   364.5   10.128      31.909
2015    5       23     9  26    4.6876   364.5   10.135      31.925
2015    5       23     9  32    4.6922   364.6   10.142      31.942
2015    5       23     9  38    4.6969   364.6   10.150      31.959
2015    5       23     9  44    4.7017   364.6   10.158      31.976
2015    5       23     9  50    4.7065   364.6   10.166      31.994
2015    5       23     9  56    4.7113   364.7   10.175      32.012
2015    5       23    10   2    4.7162   364.7   10.183      32.031
2015    5       23    10   8    4.7212   364.7   10.192      32.050
2015    5       23    10  14    4.7262   364.8   10.201      32.069
2015    5       23    10  20    4.7312   364.8   10.211      32.089
2015    5       23    10  26    4.7363   364.8   10.220      32.110
2015    5       23    10  32    4.7415   364.9   10.230      32.133
2015    5       23    10  38    4.7467   364.9   10.240      32.156
2015    5       23    10  44    4.7519   364.9   10.250      32.181
2015    5       23    10  50    4.7571   365.0   10.259      32.208
2015    5       23    10  56    4.7623   365.0   10.269      32.235
2015    5       23    11   2    4.7675   365.1   10.278      32.264
2015    5       23    11   8    4.7727   365.2   10.288      32.293
2015    5       23    11  14    4.7778   365.2   10.297      32.323
2015    5       23    11  20    4.7829   365.3   10.305      32.353
2015    5       23    11  26    4.7880   365.3   10.314      32.383
2015    5       23    11  32    4.7931   365.4   10.322      32.412
2015    5       23    11  38    4.7981   365.4   10.330      32.441
2015    5       23    11  44    4.8031   365.5   10.338      32.470
2015    5       23    11  50    4.8081   365.5   10.345      32.498
2015    5       23    11  56    4.8130   365.6   10.353      32.526
2015    5       23    12   2    4.8178   365.7   10.360      32.553
2015    5       23    12   8    4.8227   365.7   10.366      32.580
2015    5       23    12  14    4.8275   365.8   10.373      32.606
2015    5       23    12  20    4.8323   365.8   10.379      32.632
2015    5       23    12  26    4.8371   365.9   10.385      32.657
2015    5       23    12  32    4.8419   366.0   10.392      32.682
2015    5       23    12  38    4.8467   366.0   10.397      32.707
2015    5       23    12  44    4.8514   366.1   10.403      32.731
2015    5       23    12  50    4.8561   366.1   10.409      32.755
2015    5       23    12  56    4.8609   366.2   10.415      32.779
2015    5       23    13   2    4.8656   366.3   10.420      32.802
2015    5       23    13   8    4.8703   366.3   10.425      32.825
2015    5       23    13  14    4.8750   366.4   10.431      32.848
2015    5       23    13  20    4.8797   366.4   10.436      32.870
2015    5       23    13  26    4.8845   366.5   10.441      32.893
2015    5       23    13  32    4.8892   366.5   10.447      32.915
2015    5       23    13  38    4.8939   366.6   10.452      32.937
2015    5       23    13  44    4.8987   366.7   10.457      32.959
2015    5       23    13  50    4.9035   366.7   10.462      32.980
2015    5       23    13  56    4.9082   366.8   10.467      33.002
2015    5       23    14   2    4.9131   366.8   10.473      33.023
2015    5       23    14   8    4.9179   366.9   10.478      33.044
2015    5       23    14  14    4.9228   367.0   10.483      33.066
2015    5       23    14  20    4.9277   367.0   10.489      33.087
2015    5       23    14  26    4.9326   367.1   10.495      33.108
2015    5       23    14  32    4.9376   367.1   10.500      33.129
2015    5       23    14  38    4.9427   367.2   10.506      33.150
2015    5       23    14  44    4.9478   367.3   10.512      33.172
2015    5       23    14  50    4.9530   367.3   10.518      33.194
2015    5       23    14  56    4.9582   367.4   10.525      33.218
2015    5       23    15   2    4.9634   367.5   10.531      33.241
2015    5       23    15   8    4.9686   367.5   10.537      33.266
2015    5       23    15  14    4.9739   367.6   10.543      33.291
2015    5       23    15  20    4.9791   367.7   10.549      33.317
2015    5       23    15  26    4.9843   367.8   10.554      33.344
2015    5       23    15  32    4.9895   367.8   10.560      33.370
2015    5       23    15  38    4.9947   367.9   10.565      33.396
2015    5       23    15  44    4.9999   368.0   10.571      33.422
2015    5       23    15  50    5.0050   368.1   10.576      33.448
2015    5       23    15  56    5.0101   368.1   10.580      33.474
2015    5       23    16   2    5.0152   368.2   10.585      33.499
2015    5       23    16   8    5.0202   368.3   10.590      33.525
2015    5       23    16  14    5.0252   368.4   10.594      33.550
2015    5       23    16  20    5.0302   368.5   10.598      33.575
2015    5       23    16  26    5.0352   368.5   10.602      33.600
2015    5       23    16  32    5.0402   368.6   10.606      33.625
2015    5       23    16  38    5.0451   368.7   10.609      33.649
2015    5       23    16  44    5.0500   368.8   10.613      33.674
2015    5       23    16  50    5.0550   368.9   10.617      33.699
2015    5       23    16  56    5.0599   368.9   10.620      33.723
2015    5       23    17   2    5.0648   369.0   10.624      33.748
2015    5       23    17   8    5.0697   369.1   10.627      33.772
2015    5       23    17  14    5.0747   369.2   10.631      33.797
2015    5       23    17  20    5.0796   369.3   10.634      33.822
2015    5       23    17  26    5.0845   369.3   10.638      33.847
2015    5       23    17  32    5.0895   369.4   10.642      33.872
2015    5       23    17  38    5.0944   369.5   10.645      33.899
2015    5       23    17  44    5.0993   369.6   10.648      33.925
2015    5       23    17  50    5.1042   369.7   10.652      33.953
2015    5       23    17  56    5.1091   369.8   10.655      33.981
2015    5       23    18   2    5.1140   369.9   10.658      34.010
2015    5       23    18   8    5.1188   370.0   10.661      34.039
2015    5       23    18  14    5.1236   370.0   10.663      34.068
2015    5       23    18  20    5.1285   370.1   10.666      34.097
2015    5       23    18  26    5.1333   370.2   10.668      34.126
2015    5       23    18  32    5.1380   370.3   10.671      34.154
2015    5       23    18  38    5.1428   370.4   10.673      34.183
2015    5       23    18  44    5.1475   370.5   10.675      34.211
2015    5       23    18  50    5.1522   370.6   10.676      34.238
2015    5       23    18  56    5.1569   370.7   10.678      34.266
2015    5       23    19   2    5.1616   370.8   10.679      34.293
2015    5       23    19   8    5.1662   370.9   10.681      34.320
2015    5       23    19  14    5.1709   371.0   10.682      34.346
2015    5       23    19  20    5.1756   371.0   10.683      34.372
2015    5       23    19  26    5.1802   371.1   10.684      34.398
2015    5       23    19  32    5.1848   371.2   10.685      34.424
2015    5       23    19  38    5.1894   371.3   10.686      34.450
2015    5       23    19  44    5.1941   371.4   10.687      34.475
2015    5       23    19  50    5.1987   371.5   10.688      34.500
2015    5       23    19  56    5.2034   371.6   10.689      34.525
2015    5       23    20   2    5.2080   371.7   10.690      34.550
2015    5       23    20   8    5.2127   371.8   10.691      34.575
2015    5       23    20  14    5.2173   371.9   10.692      34.600
2015    5       23    20  20    5.2220   372.0   10.693      34.624
2015    5       23    20  26    5.2267   372.0   10.694      34.649
2015    5       23    20  32    5.2314   372.1   10.695      34.674
2015    5       23    20  38    5.2362   372.2   10.696      34.699
2015    5       23    20  44    5.2409   372.3   10.697      34.724
2015    5       23    20  50    5.2458   372.4   10.698      34.748
2015    5       23    20  56    5.2506   372.5   10.700      34.774
2015    5       23    21   2    5.2555   372.6   10.702      34.799
2015    5       23    21   8    5.2604   372.7   10.704      34.824
2015    5       23    21  14    5.2654   372.8   10.706      34.850
2015    5       23    21  20    5.2705   372.9   10.708      34.876
2015    5       23    21  26    5.2756   372.9   10.711      34.903
2015    5       23    21  32    5.2807   373.0   10.714      34.929
2015    5       23    21  38    5.2860   373.1   10.718      34.957
2015    5       23    21  44    5.2914   373.2   10.722      34.984
2015    5       23    21  50    5.2968   373.3   10.726      35.012
2015    5       23    21  56    5.3023   373.4   10.731      35.041
2015    5       23    22   2    5.3079   373.5   10.736      35.071
2015    5       23    22   8    5.3136   373.6   10.742      35.103
2015    5       23    22  14    5.3194   373.7   10.748      35.136
2015    5       23    22  20    5.3252   373.8   10.754      35.170
2015    5       23    22  26    5.3310   373.9   10.760      35.205
2015    5       23    22  32    5.3369   374.0   10.767      35.241
2015    5       23    22  38    5.3428   374.1   10.774      35.278
2015    5       23    22  44    5.3486   374.2   10.781      35.317
2015    5       23    22  50    5.3545   374.4   10.788      35.357
2015    5       23    22  56    5.3602   374.5   10.795      35.398
2015    5       23    23   2    5.3659   374.6   10.802      35.439
2015    5       23    23   8    5.3715   374.7   10.808      35.482
2015    5       23    23  14    5.3771   374.8   10.815      35.525
2015    5       23    23  20    5.3826   375.0   10.821      35.569
2015    5       23    23  26    5.3879   375.1   10.826      35.614
2015    5       23    23  32    5.3933   375.2   10.831      35.658
2015    5       23    23  38    5.3985   375.3   10.835      35.701
2015    5       23    23  44    5.4036   375.5   10.839      35.744
2015    5       23    23  50    5.4087   375.6   10.843      35.786
2015    5       23    23  56    5.4137   375.7   10.846      35.827
2015    5       24     0   2    5.4187   375.8   10.848      35.867
2015    5       24     0   8    5.4235   376.0   10.851      35.907
2015    5       24     0  14    5.4283   376.1   10.852      35.947
2015    5       24     0  20    5.4331   376.2   10.854      35.985
2015    5       24     0  26    5.4378   376.3   10.855      36.023
2015    5       24     0  32    5.4424   376.5   10.855      36.059
2015    5       24     0  38    5.4470   376.6   10.855      36.096
2015    5       24     0  44    5.4516   376.7   10.855      36.131
2015    5       24     0  50    5.4562   376.8   10.855      36.166
2015    5       24     0  56    5.4607   377.0   10.854      36.201
2015    5       24     1   2    5.4652   377.1   10.853      36.235
2015    5       24     1   8    5.4697   377.2   10.852      36.268
2015    5       24     1  14    5.4741   377.3   10.851      36.301
2015    5       24     1  20    5.4786   377.5   10.850      36.333
2015    5       24     1  26    5.4830   377.6   10.848      36.365
2015    5       24     1  32    5.4875   377.7   10.846      36.397
2015    5       24     1  38    5.4919   377.9   10.844      36.429
2015    5       24     1  44    5.4963   378.0   10.842      36.460
2015    5       24     1  50    5.5008   378.1   10.840      36.491
2015    5       24     1  56    5.5052   378.2   10.838      36.521
2015    5       24     2   2    5.5096   378.4   10.836      36.552
2015    5       24     2   8    5.5140   378.5   10.833      36.582
2015    5       24     2  14    5.5184   378.6   10.831      36.612
2015    5       24     2  20    5.5229   378.7   10.828      36.642
2015    5       24     2  26    5.5273   378.9   10.826      36.672
2015    5       24     2  32    5.5317   379.0   10.823      36.701
2015    5       24     2  38    5.5362   379.1   10.821      36.731
2015    5       24     2  44    5.5406   379.3   10.818      36.760
2015    5       24     2  50    5.5451   379.4   10.815      36.789
2015    5       24     2  56    5.5495   379.5   10.813      36.818
2015    5       24     3   2    5.5540   379.6   10.810      36.847
2015    5       24     3   8    5.5585   379.8   10.807      36.877
2015    5       24     3  14    5.5630   379.9   10.805      36.906
2015    5       24     3  20    5.5675   380.0   10.803      36.935
2015    5       24     3  26    5.5720   380.2   10.800      36.965
2015    5       24     3  32    5.5766   380.3   10.798      36.994
2015    5       24     3  38    5.5812   380.4   10.796      37.024
2015    5       24     3  44    5.5859   380.5   10.794      37.054
2015    5       24     3  50    5.5906   380.7   10.792      37.085
2015    5       24     3  56    5.5953   380.8   10.791      37.116
2015    5       24     4   2    5.6001   380.9   10.790      37.147
2015    5       24     4   8    5.6051   381.1   10.789      37.178
2015    5       24     4  14    5.6100   381.2   10.788      37.211
2015    5       24     4  20    5.6151   381.3   10.788      37.243
2015    5       24     4  26    5.6201   381.5   10.789      37.277
2015    5       24     4  32    5.6253   381.6   10.789      37.313
2015    5       24     4  38    5.6304   381.8   10.790      37.350
2015    5       24     4  44    5.6356   381.9   10.791      37.389
2015    5       24     4  50    5.6409   382.1   10.792      37.429
2015    5       24     4  56    5.6461   382.2   10.793      37.471
2015    5       24     5   2    5.6513   382.4   10.794      37.514
2015    5       24     5   8    5.6565   382.5   10.796      37.559
2015    5       24     5  14    5.6617   382.7   10.797      37.604
2015    5       24     5  20    5.6670   382.8   10.799      37.649
2015    5       24     5  26    5.6722   383.0   10.801      37.695
2015    5       24     5  32    5.6774   383.1   10.802      37.741
2015    5       24     5  38    5.6826   383.3   10.804      37.787
2015    5       24     5  44    5.6878   383.4   10.807      37.832
2015    5       24     5  50    5.6929   383.6   10.809      37.878
2015    5       24     5  56    5.6980   383.7   10.811      37.925
2015    5       24     6   2    5.7030   383.9   10.814      37.973
2015    5       24     6   8    5.7080   384.1   10.816      38.022
2015    5       24     6  14    5.7129   384.2   10.819      38.071
2015    5       24     6  20    5.7177   384.4   10.821      38.121
2015    5       24     6  26    5.7225   384.5   10.823      38.171
2015    5       24     6  32    5.7272   384.7   10.824      38.223
2015    5       24     6  38    5.7318   384.9   10.826      38.275
2015    5       24     6  44    5.7364   385.0   10.827      38.326
2015    5       24     6  50    5.7409   385.2   10.827      38.377
2015    5       24     6  56    5.7453   385.4   10.827      38.426
2015    5       24     7   2    5.7496   385.5   10.827      38.475
2015    5       24     7   8    5.7539   385.7   10.826      38.524
2015    5       24     7  14    5.7582   385.9   10.825      38.571
2015    5       24     7  20    5.7623   386.0   10.824      38.618
2015    5       24     7  26    5.7665   386.2   10.822      38.665
2015    5       24     7  32    5.7705   386.4   10.820      38.710
2015    5       24     7  38    5.7746   386.5   10.817      38.755
2015    5       24     7  44    5.7786   386.7   10.814      38.799
2015    5       24     7  50    5.7825   386.9   10.811      38.842
2015    5       24     7  56    5.7864   387.1   10.808      38.885
2015    5       24     8   2    5.7903   387.2   10.804      38.927
2015    5       24     8   8    5.7942   387.4   10.800      38.968
2015    5       24     8  14    5.7981   387.6   10.796      39.009
2015    5       24     8  20    5.8019   387.7   10.792      39.049
2015    5       24     8  26    5.8057   387.9   10.787      39.089
2015    5       24     8  32    5.8095   388.1   10.782      39.128
2015    5       24     8  38    5.8133   388.3   10.777      39.166
2015    5       24     8  44    5.8171   388.4   10.772      39.205
2015    5       24     8  50    5.8209   388.6   10.767      39.242
2015    5       24     8  56    5.8247   388.8   10.762      39.280
2015    5       24     9   2    5.8284   389.0   10.756      39.317
2015    5       24     9   8    5.8322   389.2   10.750      39.353
2015    5       24     9  14    5.8359   389.3   10.744      39.390
2015    5       24     9  20    5.8396   389.5   10.739      39.426
2015    5       24     9  26    5.8434   389.7   10.733      39.462
2015    5       24     9  32    5.8471   389.9   10.726      39.497
2015    5       24     9  38    5.8508   390.1   10.720      39.532
2015    5       24     9  44    5.8545   390.3   10.714      39.567
2015    5       24     9  50    5.8582   390.4   10.708      39.602
2015    5       24     9  56    5.8619   390.6   10.701      39.636
2015    5       24    10   2    5.8655   390.8   10.695      39.670
2015    5       24    10   8    5.8692   391.0   10.688      39.704
2015    5       24    10  14    5.8729   391.2   10.682      39.738
2015    5       24    10  20    5.8765   391.4   10.675      39.772
2015    5       24    10  26    5.8802   391.5   10.668      39.805
2015    5       24    10  32    5.8838   391.7   10.661      39.838
2015    5       24    10  38    5.8875   391.9   10.655      39.871
2015    5       24    10  44    5.8911   392.1   10.648      39.904
2015    5       24    10  50    5.8948   392.3   10.641      39.937
2015    5       24    10  56    5.8985   392.5   10.634      39.970
2015    5       24    11   2    5.9021   392.7   10.628      40.003
2015    5       24    11   8    5.9058   392.9   10.621      40.036
2015    5       24    11  14    5.9095   393.1   10.614      40.069
2015    5       24    11  20    5.9132   393.2   10.608      40.102
2015    5       24    11  26    5.9170   393.4   10.602      40.135
2015    5       24    11  32    5.9208   393.6   10.596      40.168
2015    5       24    11  38    5.9245   393.8   10.589      40.202
2015    5       24    11  44    5.9283   394.0   10.583      40.237
2015    5       24    11  50    5.9321   394.2   10.577      40.273
2015    5       24    11  56    5.9357   394.4   10.571      40.310
2015    5       24    12   2    5.9394   394.6   10.565      40.348
2015    5       24    12   8    5.9430   394.9   10.558      40.388
2015    5       24    12  14    5.9465   395.1   10.552      40.428
2015    5       24    12  20    5.9499   395.3   10.545      40.469
2015    5       24    12  26    5.9533   395.5   10.538      40.511
2015    5       24    12  32    5.9566   395.7   10.530      40.552
2015    5       24    12  38    5.9597   395.9   10.523      40.593
2015    5       24    12  44    5.9628   396.2   10.514      40.634
2015    5       24    12  50    5.9658   396.4   10.506      40.673
2015    5       24    12  56    5.9687   396.6   10.498      40.713
2015    5       24    13   2    5.9715   396.8   10.489      40.752
2015    5       24    13   8    5.9743   397.0   10.480      40.791
2015    5       24    13  14    5.9770   397.3   10.470      40.829
2015    5       24    13  20    5.9796   397.5   10.461      40.866
2015    5       24    13  26    5.9821   397.7   10.451      40.903
2015    5       24    13  32    5.9846   397.9   10.441      40.940
2015    5       24    13  38    5.9871   398.1   10.431      40.976
2015    5       24    13  44    5.9895   398.3   10.421      41.012
2015    5       24    13  50    5.9918   398.6   10.411      41.047
2015    5       24    13  56    5.9941   398.8   10.400      41.082
2015    5       24    14   2    5.9963   399.0   10.389      41.117
2015    5       24    14   8    5.9986   399.2   10.379      41.151
2015    5       24    14  14    6.0007   399.4   10.368      41.184
2015    5       24    14  20    6.0029   399.6   10.357      41.218
2015    5       24    14  26    6.0050   399.8   10.346      41.251
2015    5       24    14  32    6.0071   400.1   10.335      41.283
2015    5       24    14  38    6.0091   400.3   10.323      41.315
2015    5       24    14  44    6.0112   400.5   10.312      41.347
2015    5       24    14  50    6.0132   400.7   10.301      41.379
2015    5       24    14  56    6.0152   400.9   10.289      41.410
2015    5       24    15   2    6.0171   401.1   10.278      41.442
2015    5       24    15   8    6.0191   401.4   10.266      41.473
2015    5       24    15  14    6.0210   401.6   10.254      41.504
2015    5       24    15  20    6.0229   401.8   10.242      41.535
2015    5       24    15  26    6.0248   402.0   10.231      41.566
2015    5       24    15  32    6.0266   402.3   10.219      41.597
2015    5       24    15  38    6.0284   402.5   10.206      41.627
2015    5       24    15  44    6.0302   402.7   10.194      41.657
2015    5       24    15  50    6.0320   402.9   10.182      41.686
2015    5       24    15  56    6.0337   403.2   10.170      41.714
2015    5       24    16   2    6.0354   403.4   10.158      41.742
2015    5       24    16   8    6.0371   403.6   10.146      41.769
2015    5       24    16  14    6.0388   403.8   10.134      41.796
2015    5       24    16  20    6.0405   404.0   10.122      41.823
2015    5       24    16  26    6.0421   404.2   10.110      41.849
2015    5       24    16  32    6.0438   404.4   10.098      41.876
2015    5       24    16  38    6.0454   404.6   10.085      41.902
2015    5       24    16  44    6.0471   404.9   10.073      41.928
2015    5       24    16  50    6.0487   405.1   10.061      41.955
2015    5       24    16  56    6.0503   405.3   10.049      41.982
2015    5       24    17   2    6.0519   405.5   10.037      42.009
2015    5       24    17   8    6.0535   405.8   10.025      42.037
2015    5       24    17  14    6.0550   406.0   10.013      42.065
2015    5       24    17  20    6.0565   406.2   10.001      42.092
2015    5       24    17  26    6.0580   406.4    9.988      42.120
2015    5       24    17  32    6.0594   406.7    9.976      42.147
2015    5       24    17  38    6.0608   406.9    9.964      42.174
2015    5       24    17  44    6.0621   407.2    9.952      42.200
2015    5       24    17  50    6.0634   407.4    9.939      42.226
2015    5       24    17  56    6.0646   407.6    9.927      42.251
2015    5       24    18   2    6.0658   407.9    9.914      42.276
2015    5       24    18   8    6.0669   408.1    9.901      42.300
2015    5       24    18  14    6.0679   408.3    9.888      42.325
2015    5       24    18  20    6.0690   408.5    9.876      42.349
2015    5       24    18  26    6.0699   408.8    9.863      42.372
2015    5       24    18  32    6.0709   409.0    9.850      42.396
2015    5       24    18  38    6.0718   409.2    9.837      42.419
2015    5       24    18  44    6.0727   409.5    9.823      42.442
2015    5       24    18  50    6.0735   409.7    9.810      42.465
2015    5       24    18  56    6.0743   409.9    9.797      42.488
2015    5       24    19   2    6.0750   410.2    9.784      42.510
2015    5       24    19   8    6.0758   410.4    9.771      42.533
2015    5       24    19  14    6.0764   410.7    9.758      42.556
2015    5       24    19  20    6.0771   410.9    9.744      42.578
2015    5       24    19  26    6.0777   411.1    9.731      42.600
2015    5       24    19  32    6.0782   411.4    9.717      42.621
2015    5       24    19  38    6.0787   411.6    9.704      42.643
2015    5       24    19  44    6.0792   411.8    9.690      42.664
2015    5       24    19  50    6.0796   412.1    9.677      42.685
2015    5       24    19  56    6.0799   412.3    9.663      42.706
2015    5       24    20   2    6.0802   412.5    9.649      42.727
2015    5       24    20   8    6.0805   412.8    9.636      42.747
2015    5       24    20  14    6.0807   413.0    9.622      42.767
2015    5       24    20  20    6.0809   413.3    9.609      42.786
2015    5       24    20  26    6.0810   413.5    9.595      42.805
2015    5       24    20  32    6.0812   413.7    9.582      42.824
2015    5       24    20  38    6.0812   414.0    9.568      42.843
2015    5       24    20  44    6.0813   414.2    9.555      42.862
2015    5       24    20  50    6.0814   414.4    9.542      42.880
2015    5       24    20  56    6.0814   414.6    9.528      42.899
2015    5       24    21   2    6.0814   414.9    9.515      42.917
2015    5       24    21   8    6.0814   415.1    9.502      42.935
2015    5       24    21  14    6.0814   415.3    9.489      42.953
2015    5       24    21  20    6.0814   415.6    9.477      42.972
2015    5       24    21  26    6.0814   415.8    9.464      42.990
2015    5       24    21  32    6.0814   416.0    9.452      43.009
2015    5       24    21  38    6.0813   416.2    9.439      43.028
2015    5       24    21  44    6.0813   416.5    9.427      43.047
2015    5       24    21  50    6.0813   416.7    9.416      43.065
2015    5       24    21  56    6.0813   416.9    9.404      43.085
2015    5       24    22   2    6.0813   417.1    9.392      43.105
2015    5       24    22   8    6.0814   417.3    9.381      43.126
2015    5       24    22  14    6.0814   417.6    9.369      43.148
2015    5       24    22  20    6.0814   417.8    9.358      43.170
2015    5       24    22  26    6.0814   418.0    9.346      43.194
2015    5       24    22  32    6.0813   418.3    9.335      43.217
2015    5       24    22  38    6.0813   418.5    9.323      43.241
2015    5       24    22  44    6.0812   418.7    9.312      43.266
2015    5       24    22  50    6.0811   419.0    9.300      43.291
2015    5       24    22  56    6.0809   419.2    9.288      43.315
2015    5       24    23   2    6.0807   419.4    9.276      43.339
2015    5       24    23   8    6.0805   419.7    9.264      43.361
2015    5       24    23  14    6.0802   419.9    9.252      43.383
2015    5       24    23  20    6.0799   420.1    9.240      43.405
2015    5       24    23  26    6.0795   420.3    9.228      43.426
2015    5       24    23  32    6.0792   420.6    9.216      43.446
2015    5       24    23  38    6.0788   420.8    9.204      43.466
2015    5       24    23  44    6.0784   421.0    9.193      43.486
2015    5       24    23  50    6.0780   421.2    9.181      43.505
2015    5       24    23  56    6.0775   421.4    9.169      43.525
2015    5       25     0   2    6.0771   421.7    9.157      43.544
2015    5       25     0   8    6.0766   421.9    9.145      43.564
2015    5       25     0  14    6.0761   422.1    9.133      43.584
2015    5       25     0  20    6.0756   422.3    9.121      43.605
2015    5       25     0  26    6.0751   422.5    9.109      43.626
2015    5       25     0  32    6.0745   422.8    9.097      43.647
2015    5       25     0  38    6.0739   423.0    9.085      43.668
2015    5       25     0  44    6.0733   423.3    9.073      43.689
2015    5       25     0  50    6.0726   423.5    9.061      43.710
2015    5       25     0  56    6.0719   423.7    9.049      43.730
2015    5       25     1   2    6.0711   424.0    9.037      43.750
2015    5       25     1   8    6.0702   424.2    9.025      43.769
2015    5       25     1  14    6.0694   424.4    9.013      43.788
2015    5       25     1  20    6.0684   424.6    9.001      43.806
2015    5       25     1  26    6.0675   424.9    8.989      43.824
2015    5       25     1  32    6.0665   425.1    8.977      43.842
2015    5       25     1  38    6.0654   425.3    8.965      43.860
2015    5       25     1  44    6.0644   425.6    8.953      43.877
2015    5       25     1  50    6.0633   425.8    8.941      43.895
2015    5       25     1  56    6.0622   426.0    8.929      43.912
2015    5       25     2   2    6.0611   426.2    8.917      43.930
2015    5       25     2   8    6.0599   426.5    8.905      43.947
2015    5       25     2  14    6.0588   426.7    8.893      43.964
2015    5       25     2  20    6.0576   426.9    8.881      43.981
2015    5       25     2  26    6.0564   427.2    8.870      43.999
2015    5       25     2  32    6.0553   427.4    8.858      44.016
2015    5       25     2  38    6.0541   427.6    8.846      44.034
2015    5       25     2  44    6.0529   427.8    8.835      44.051
2015    5       25     2  50    6.0517   428.1    8.823      44.069
2015    5       25     2  56    6.0505   428.3    8.812      44.086
2015    5       25     3   2    6.0492   428.5    8.800      44.104
2015    5       25     3   8    6.0480   428.8    8.789      44.122
2015    5       25     3  14    6.0468   429.0    8.778      44.140
2015    5       25     3  20    6.0456   429.2    8.767      44.158
2015    5       25     3  26    6.0444   429.4    8.756      44.176
2015    5       25     3  32    6.0432   429.7    8.745      44.194
2015    5       25     3  38    6.0420   429.9    8.734      44.213
2015    5       25     3  44    6.0409   430.1    8.724      44.231
2015    5       25     3  50    6.0398   430.4    8.714      44.250
2015    5       25     3  56    6.0387   430.6    8.703      44.269
2015    5       25     4   2    6.0376   430.8    8.693      44.289
2015    5       25     4   8    6.0366   431.1    8.683      44.308
2015    5       25     4  14    6.0356   431.3    8.674      44.328
2015    5       25     4  20    6.0347   431.5    8.664      44.348
2015    5       25     4  26    6.0338   431.7    8.655      44.369
2015    5       25     4  32    6.0330   432.0    8.646      44.390
2015    5       25     4  38    6.0323   432.2    8.637      44.412
2015    5       25     4  44    6.0316   432.4    8.628      44.434
2015    5       25     4  50    6.0310   432.7    8.619      44.456
2015    5       25     4  56    6.0305   432.9    8.611      44.480
2015    5       25     5   2    6.0301   433.1    8.603      44.504
2015    5       25     5   8    6.0297   433.3    8.595      44.529
2015    5       25     5  14    6.0294   433.6    8.588      44.555
2015    5       25     5  20    6.0292   433.8    8.580      44.582
2015    5       25     5  26    6.0291   434.0    8.573      44.609
2015    5       25     5  32    6.0290   434.3    8.566      44.638
2015    5       25     5  38    6.0291   434.5    8.559      44.667
2015    5       25     5  44    6.0293   434.7    8.552      44.698
2015    5       25     5  50    6.0295   435.0    8.544      44.729
2015    5       25     5  56    6.0298   435.2    8.537      44.760
2015    5       25     6   2    6.0302   435.4    8.531      44.791
2015    5       25     6   8    6.0306   435.7    8.524      44.823
2015    5       25     6  14    6.0312   435.9    8.516      44.855
2015    5       25     6  20    6.0317   436.1    8.509      44.888
2015    5       25     6  26    6.0323   436.4    8.502      44.921
2015    5       25     6  32    6.0330   436.6    8.495      44.953
2015    5       25     6  38    6.0337   436.8    8.488      44.985
2015    5       25     6  44    6.0345   437.1    8.481      45.017
2015    5       25     6  50    6.0353   437.3    8.473      45.049
2015    5       25     6  56    6.0362   437.6    8.466      45.081
2015    5       25     7   2    6.0371   437.8    8.459      45.112
2015    5       25     7   8    6.0380   438.0    8.451      45.144
2015    5       25     7  14    6.0390   438.3    8.444      45.175
2015    5       25     7  20    6.0400   438.5    8.436      45.206
2015    5       25     7  26    6.0411   438.8    8.429      45.237
2015    5       25     7  32    6.0421   439.0    8.422      45.267
2015    5       25     7  38    6.0433   439.2    8.414      45.298
2015    5       25     7  44    6.0444   439.5    8.407      45.328
2015    5       25     7  50    6.0457   439.7    8.399      45.359
2015    5       25     7  56    6.0469   440.0    8.392      45.389
2015    5       25     8   2    6.0482   440.2    8.385      45.419
2015    5       25     8   8    6.0495   440.5    8.377      45.449
2015    5       25     8  14    6.0509   440.7    8.370      45.479
2015    5       25     8  20    6.0523   440.9    8.363      45.510
2015    5       25     8  26    6.0538   441.2    8.356      45.540
2015    5       25     8  32    6.0552   441.4    8.349      45.570
2015    5       25     8  38    6.0568   441.7    8.342      45.600
2015    5       25     8  44    6.0583   441.9    8.335      45.631
2015    5       25     8  50    6.0599   442.2    8.328      45.662
2015    5       25     8  56    6.0615   442.4    8.322      45.692
2015    5       25     9   2    6.0631   442.6    8.316      45.723
2015    5       25     9   8    6.0647   442.9    8.309      45.754
2015    5       25     9  14    6.0663   443.1    8.303      45.786
2015    5       25     9  20    6.0679   443.4    8.297      45.819
2015    5       25     9  26    6.0695   443.6    8.291      45.852
2015    5       25     9  32    6.0711   443.9    8.285      45.886
2015    5       25     9  38    6.0726   444.1    8.279      45.920
2015    5       25     9  44    6.0742   444.4    8.273      45.956
2015    5       25     9  50    6.0757   444.6    8.267      45.991
2015    5       25     9  56    6.0772   444.9    8.261      46.026
2015    5       25    10   2    6.0786   445.1    8.254      46.060
2015    5       25    10   8    6.0799   445.4    8.248      46.094
2015    5       25    10  14    6.0812   445.6    8.242      46.129
2015    5       25    10  20    6.0824   445.9    8.235      46.162
2015    5       25    10  26    6.0835   446.1    8.229      46.195
2015    5       25    10  32    6.0845   446.4    8.222      46.228
2015    5       25    10  38    6.0854   446.6    8.215      46.261
2015    5       25    10  44    6.0862   446.9    8.208      46.293
2015    5       25    10  50    6.0869   447.1    8.201      46.325
2015    5       25    10  56    6.0876   447.4    8.194      46.357
2015    5       25    11   2    6.0880   447.6    8.187      46.389
2015    5       25    11   8    6.0885   447.9    8.179      46.421
2015    5       25    11  14    6.0888   448.1    8.171      46.453
2015    5       25    11  20    6.0890   448.4    8.163      46.484
2015    5       25    11  26    6.0892   448.6    8.155      46.514
2015    5       25    11  32    6.0893   448.9    8.147      46.544
2015    5       25    11  38    6.0893   449.1    8.139      46.574
2015    5       25    11  44    6.0893   449.4    8.131      46.602
2015    5       25    11  50    6.0892   449.6    8.122      46.631
2015    5       25    11  56    6.0890   449.8    8.113      46.659
2015    5       25    12   2    6.0888   450.1    8.105      46.686
2015    5       25    12   8    6.0885   450.3    8.096      46.713
2015    5       25    12  14    6.0881   450.6    8.087      46.739
2015    5       25    12  20    6.0877   450.8    8.078      46.765
2015    5       25    12  26    6.0872   451.0    8.069      46.791
2015    5       25    12  32    6.0866   451.3    8.060      46.816
2015    5       25    12  38    6.0859   451.5    8.051      46.841
2015    5       25    12  44    6.0852   451.7    8.041      46.865
2015    5       25    12  50    6.0844   452.0    8.032      46.889
2015    5       25    12  56    6.0835   452.2    8.023      46.913
2015    5       25    13   2    6.0825   452.5    8.014      46.937
2015    5       25    13   8    6.0815   452.7    8.004      46.960
2015    5       25    13  14    6.0803   452.9    7.995      46.983
2015    5       25    13  20    6.0791   453.2    7.986      47.006
2015    5       25    13  26    6.0777   453.4    7.976      47.029
2015    5       25    13  32    6.0763   453.6    7.966      47.051
2015    5       25    13  38    6.0748   453.9    7.957      47.073
2015    5       25    13  44    6.0732   454.1    7.947      47.095
2015    5       25    13  50    6.0715   454.3    7.937      47.116
2015    5       25    13  56    6.0698   454.6    7.928      47.137
2015    5       25    14   2    6.0679   454.8    7.918      47.158
2015    5       25    14   8    6.0660   455.0    7.908      47.179
2015    5       25    14  14    6.0640   455.3    7.898      47.199
2015    5       25    14  20    6.0620   455.5    7.888      47.219
2015    5       25    14  26    6.0598   455.7    7.878      47.239
2015    5       25    14  32    6.0576   456.0    7.868      47.258
2015    5       25    14  38    6.0553   456.2    7.857      47.277
2015    5       25    14  44    6.0530   456.4    7.847      47.296
2015    5       25    14  50    6.0507   456.7    7.837      47.315
2015    5       25    14  56    6.0483   456.9    7.826      47.333
2015    5       25    15   2    6.0458   457.1    7.816      47.351
2015    5       25    15   8    6.0433   457.4    7.805      47.369
2015    5       25    15  14    6.0407   457.6    7.795      47.387
2015    5       25    15  20    6.0382   457.8    7.784      47.404
2015    5       25    15  26    6.0355   458.1    7.773      47.422
2015    5       25    15  32    6.0329   458.3    7.762      47.439
2015    5       25    15  38    6.0301   458.5    7.752      47.456
2015    5       25    15  45    6.0274   458.8    7.741      47.472
2015    5       25    15  51    6.0246   459.0    7.730      47.489
2015    5       25    15  56    6.0218   459.2    7.719      47.505
2015    5       25    16   3    6.0189   459.4    7.708      47.522
2015    5       25    16   9    6.0160   459.7    7.697      47.538
2015    5       25    16  15    6.0130   459.9    7.686      47.554
2015    5       25    16  21    6.0100   460.1    7.675      47.570
2015    5       25    16  27    6.0070   460.4    7.665      47.586
2015    5       25    16  33    6.0040   460.6    7.654      47.602
2015    5       25    16  39    6.0009   460.8    7.643      47.618
2015    5       25    16  45    5.9977   461.1    7.632      47.634
2015    5       25    16  51    5.9946   461.3    7.621      47.649
2015    5       25    16  57    5.9914   461.5    7.610      47.665
2015    5       25    17   3    5.9882   461.7    7.599      47.681
2015    5       25    17   9    5.9850   462.0    7.588      47.696
2015    5       25    17  15    5.9817   462.2    7.577      47.711
2015    5       25    17  21    5.9784   462.4    7.566      47.727
2015    5       25    17  27    5.9752   462.7    7.555      47.742
2015    5       25    17  33    5.9719   462.9    7.544      47.757
2015    5       25    17  39    5.9686   463.1    7.533      47.772
2015    5       25    17  45    5.9653   463.3    7.522      47.787
2015    5       25    17  51    5.9620   463.6    7.511      47.802
2015    5       25    17  57    5.9587   463.8    7.500      47.817
2015    5       25    18   3    5.9554   464.0    7.490      47.832
2015    5       25    18   9    5.9521   464.2    7.479      47.847
2015    5       25    18  15    5.9488   464.5    7.468      47.862
2015    5       25    18  21    5.9455   464.7    7.457      47.877
2015    5       25    18  27    5.9422   464.9    7.446      47.892
2015    5       25    18  33    5.9390   465.1    7.436      47.906
2015    5       25    18  39    5.9357   465.4    7.425      47.921
2015    5       25    18  45    5.9324   465.6    7.414      47.936
2015    5       25    18  51    5.9291   465.8    7.403      47.951
2015    5       25    18  57    5.9259   466.0    7.393      47.965
2015    5       25    19   3    5.9226   466.3    7.382      47.980
2015    5       25    19   9    5.9193   466.5    7.372      47.995
2015    5       25    19  15    5.9161   466.7    7.361      48.010
2015    5       25    19  21    5.9128   466.9    7.351      48.025
2015    5       25    19  27    5.9096   467.2    7.341      48.040
2015    5       25    19  33    5.9064   467.4    7.330      48.055
2015    5       25    19  39    5.9031   467.6    7.320      48.070
2015    5       25    19  45    5.8999   467.8    7.310      48.086
2015    5       25    19  51    5.8967   468.0    7.300      48.101
2015    5       25    19  57    5.8935   468.3    7.290      48.117
2015    5       25    20   3    5.8903   468.5    7.280      48.132
2015    5       25    20   9    5.8871   468.7    7.271      48.148
2015    5       25    20  15    5.8839   468.9    7.261      48.164
2015    5       25    20  21    5.8807   469.1    7.251      48.180
2015    5       25    20  27    5.8775   469.4    7.242      48.196
2015    5       25    20  33    5.8743   469.6    7.232      48.213
2015    5       25    20  39    5.8712   469.8    7.223      48.229
2015    5       25    20  45    5.8680   470.0    7.214      48.246
2015    5       25    20  51    5.8648   470.2    7.205      48.263
2015    5       25    20  57    5.8617   470.5    7.196      48.280
2015    5       25    21   3    5.8585   470.7    7.187      48.298
2015    5       25    21   9    5.8554   470.9    7.178      48.315
2015    5       25    21  15    5.8522   471.1    7.169      48.333
2015    5       25    21  21    5.8491   471.3    7.161      48.351
2015    5       25    21  27    5.8459   471.6    7.152      48.369
2015    5       25    21  33    5.8428   471.8    7.144      48.387
2015    5       25    21  39    5.8397   472.0    7.136      48.406
2015    5       25    21  45    5.8365   472.2    7.127      48.425
2015    5       25    21  51    5.8334   472.4    7.119      48.443
2015    5       25    21  57    5.8303   472.7    7.111      48.462
2015    5       25    22   3    5.8272   472.9    7.103      48.481
2015    5       25    22   9    5.8241   473.1    7.095      48.501
2015    5       25    22  15    5.8210   473.3    7.087      48.520
2015    5       25    22  21    5.8179   473.5    7.080      48.540
2015    5       25    22  27    5.8148   473.7    7.072      48.560
2015    5       25    22  33    5.8117   474.0    7.064      48.580
2015    5       25    22  39    5.8087   474.2    7.057      48.599
2015    5       25    22  45    5.8056   474.4    7.049      48.620
2015    5       25    22  51    5.8025   474.6    7.042      48.640
2015    5       25    22  57    5.7995   474.8    7.034      48.660
2015    5       25    23   3    5.7964   475.0    7.027      48.680
2015    5       25    23   9    5.7933   475.3    7.019      48.700
2015    5       25    23  15    5.7903   475.5    7.012      48.719
2015    5       25    23  21    5.7873   475.7    7.004      48.739
2015    5       25    23  27    5.7842   475.9    6.997      48.759
2015    5       25    23  33    5.7812   476.1    6.989      48.779
2015    5       25    23  39    5.7782   476.3    6.982      48.799
2015    5       25    23  45    5.7752   476.6    6.974      48.818
2015    5       25    23  51    5.7722   476.8    6.967      48.838
2015    5       25    23  57    5.7692   477.0    6.960      48.858
2015    5       26     0   3    5.7663   477.2    6.952      48.877
2015    5       26     0   9    5.7633   477.4    6.945      48.897
2015    5       26     0  15    5.7603   477.6    6.938      48.916
2015    5       26     0  21    5.7574   477.8    6.931      48.936
2015    5       26     0  27    5.7545   478.0    6.923      48.955
2015    5       26     0  33    5.7516   478.3    6.916      48.974
2015    5       26     0  39    5.7487   478.5    6.909      48.993
2015    5       26     0  45    5.7458   478.7    6.902      49.013
2015    5       26     0  51    5.7429   478.9    6.894      49.032
2015    5       26     0  57    5.7401   479.1    6.887      49.050
2015    5       26     1   3    5.7372   479.3    6.880      49.069
2015    5       26     1   9    5.7344   479.5    6.873      49.088
2015    5       26     1  15    5.7315   479.7    6.866      49.106
2015    5       26     1  21    5.7287   479.9    6.858      49.124
2015    5       26     1  27    5.7259   480.2    6.851      49.143
2015    5       26     1  33    5.7232   480.4    6.844      49.161
2015    5       26     1  39    5.7204   480.6    6.837      49.178
2015    5       26     1  45    5.7176   480.8    6.830      49.196
2015    5       26     1  51    5.7149   481.0    6.823      49.214
2015    5       26     1  57    5.7121   481.2    6.816      49.231
2015    5       26     2   3    5.7094   481.4    6.809      49.249
2015    5       26     2   9    5.7067   481.6    6.802      49.266
2015    5       26     2  15    5.7040   481.8    6.795      49.283
2015    5       26     2  21    5.7013   482.1    6.788      49.301
2015    5       26     2  27    5.6986   482.3    6.781      49.319
2015    5       26     2  33    5.6959   482.5    6.774      49.337
2015    5       26     2  39    5.6933   482.7    6.766      49.355
2015    5       26     2  45    5.6907   482.9    6.759      49.372
2015    5       26     2  51    5.6880   483.1    6.752      49.390
2015    5       26     2  57    5.6854   483.3    6.745      49.407
2015    5       26     3   3    5.6828   483.5    6.738      49.425
2015    5       26     3   9    5.6802   483.8    6.730      49.441
2015    5       26     3  15    5.6777   484.0    6.723      49.458
2015    5       26     3  21    5.6751   484.2    6.716      49.475
2015    5       26     3  27    5.6726   484.4    6.708      49.491
2015    5       26     3  33    5.6700   484.6    6.701      49.507
2015    5       26     3  39    5.6675   484.8    6.694      49.523
2015    5       26     3  45    5.6650   485.0    6.686      49.539
2015    5       26     3  51    5.6625   485.2    6.679      49.555
2015    5       26     3  57    5.6600   485.4    6.671      49.570
2015    5       26     4   3    5.6576   485.6    6.664      49.586
2015    5       26     4   9    5.6551   485.9    6.657      49.601
2015    5       26     4  15    5.6527   486.1    6.649      49.617
2015    5       26     4  21    5.6503   486.3    6.642      49.632
2015    5       26     4  27    5.6479   486.5    6.635      49.647
2015    5       26     4  33    5.6455   486.7    6.628      49.662
2015    5       26     4  39    5.6432   486.9    6.620      49.677
2015    5       26     4  45    5.6408   487.1    6.613      49.692
2015    5       26     4  51    5.6385   487.3    6.606      49.707
2015    5       26     4  57    5.6362   487.5    6.598      49.722
2015    5       26     5   3    5.6339   487.7    6.591      49.737
2015    5       26     5   9    5.6316   487.9    6.584      49.753
2015    5       26     5  15    5.6293   488.2    6.576      49.768
2015    5       26     5  21    5.6270   488.4    6.569      49.783
2015    5       26     5  27    5.6248   488.6    6.561      49.799
2015    5       26     5  33    5.6226   488.8    6.554      49.814
2015    5       26     5  39    5.6204   489.0    6.546      49.829
2015    5       26     5  45    5.6182   489.2    6.539      49.844
2015    5       26     5  51    5.6160   489.4    6.531      49.858
2015    5       26     5  57    5.6138   489.6    6.524      49.873
2015    5       26     6   3    5.6117   489.8    6.516      49.887
2015    5       26     6   9    5.6096   490.0    6.509      49.901
2015    5       26     6  15    5.6075   490.2    6.501      49.915
2015    5       26     6  21    5.6054   490.4    6.493      49.929
2015    5       26     6  27    5.6033   490.7    6.486      49.943
2015    5       26     6  33    5.6013   490.9    6.478      49.956
2015    5       26     6  39    5.5993   491.1    6.471      49.970
2015    5       26     6  45    5.5973   491.3    6.463      49.983
2015    5       26     6  51    5.5953   491.5    6.455      49.996
2015    5       26     6  57    5.5933   491.7    6.448      50.009
2015    5       26     7   3    5.5914   491.9    6.440      50.022
2015    5       26     7   9    5.5894   492.1    6.433      50.035
2015    5       26     7  15    5.5875   492.3    6.425      50.048
2015    5       26     7  21    5.5856   492.5    6.417      50.060
2015    5       26     7  27    5.5837   492.7    6.410      50.073
2015    5       26     7  33    5.5818   492.9    6.402      50.085
2015    5       26     7  39    5.5799   493.1    6.395      50.098
2015    5       26     7  45    5.5780   493.4    6.387      50.110
2015    5       26     7  51    5.5762   493.6    6.380      50.122
2015    5       26     7  57    5.5743   493.8    6.372      50.135
2015    5       26     8   3    5.5725   494.0    6.365      50.147
2015    5       26     8   9    5.5706   494.2    6.357      50.159
2015    5       26     8  15    5.5688   494.4    6.350      50.171
2015    5       26     8  21    5.5669   494.6    6.342      50.183
2015    5       26     8  27    5.5651   494.8    6.335      50.195
2015    5       26     8  33    5.5633   495.0    6.328      50.206
2015    5       26     8  39    5.5614   495.2    6.320      50.218
2015    5       26     8  45    5.5596   495.4    6.313      50.230
2015    5       26     8  51    5.5577   495.6    6.306      50.242
2015    5       26     8  57    5.5559   495.8    6.298      50.254
2015    5       26     9   3    5.5541   496.0    6.291      50.266
2015    5       26     9   9    5.5522   496.2    6.284      50.278
2015    5       26     9  15    5.5504   496.4    6.277      50.290
2015    5       26     9  21    5.5486   496.7    6.270      50.303
2015    5       26     9  27    5.5467   496.9    6.262      50.315
2015    5       26     9  33    5.5449   497.1    6.255      50.327
2015    5       26     9  39    5.5431   497.3    6.248      50.339
2015    5       26     9  45    5.5412   497.5    6.241      50.352
2015    5       26     9  51    5.5394   497.7    6.234      50.364
2015    5       26     9  57    5.5375   497.9    6.227      50.377
2015    5       26    10   3    5.5357   498.1    6.220      50.390
2015    5       26    10   9    5.5339   498.3    6.213      50.403
2015    5       26    10  15    5.5320   498.5    6.207      50.416
2015    5       26    10  21    5.5302   498.7    6.200      50.429
2015    5       26    10  27    5.5283   498.9    6.193      50.442
2015    5       26    10  33    5.5265   499.1    6.186      50.455
2015    5       26    10  39    5.5247   499.3    6.179      50.468
2015    5       26    10  45    5.5228   499.5    6.172      50.482
2015    5       26    10  51    5.5210   499.7    6.166      50.495
2015    5       26    10  57    5.5192   499.9    6.159      50.509
2015    5       26    11   3    5.5174   500.1    6.152      50.523
2015    5       26    11   9    5.5155   500.3    6.146      50.536
2015    5       26    11  15    5.5137   500.5    6.139      50.550
2015    5       26    11  21    5.5119   500.7    6.132      50.564
2015    5       26    11  27    5.5101   500.9    6.126      50.578
2015    5       26    11  33    5.5083   501.1    6.119      50.593
2015    5       26    11  39    5.5065   501.3    6.112      50.607
2015    5       26    11  45    5.5047   501.5    6.106      50.621
2015    5       26    11  51    5.5029   501.7    6.099      50.636
2015    5       26    11  57    5.5011   501.9    6.093      50.650
2015    5       26    12   3    5.4993   502.1    6.086      50.665
2015    5       26    12   9    5.4976   502.3    6.080      50.679
2015    5       26    12  15    5.4958   502.5    6.073      50.694
2015    5       26    12  21    5.4941   502.7    6.067      50.709
2015    5       26    12  27    5.4924   502.9    6.060      50.724
2015    5       26    12  33    5.4906   503.1    6.054      50.739
2015    5       26    12  39    5.4889   503.3    6.047      50.754
2015    5       26    12  45    5.4872   503.5    6.041      50.770
2015    5       26    12  51    5.4855   503.7    6.035      50.785
2015    5       26    12  57    5.4838   503.9    6.028      50.801
2015    5       26    13   3    5.4821   504.1    6.022      50.816
2015    5       26    13   9    5.4805   504.3    6.016      50.832
2015    5       26    13  15    5.4788   504.5    6.010      50.848
2015    5       26    13  21    5.4772   504.7    6.003      50.864
2015    5       26    13  27    5.4756   504.9    5.997      50.880
2015    5       26    13  33    5.4739   505.1    5.991      50.897
2015    5       26    13  39    5.4723   505.3    5.985      50.913
2015    5       26    13  45    5.4707   505.5    5.979      50.930
2015    5       26    13  51    5.4691   505.7    5.973      50.946
2015    5       26    13  57    5.4676   505.9    5.967      50.963
2015    5       26    14   3    5.4660   506.1    5.961      50.980
2015    5       26    14   9    5.4644   506.3    5.955      50.997
2015    5       26    14  15    5.4629   506.5    5.950      51.014
2015    5       26    14  21    5.4614   506.7    5.944      51.032
2015    5       26    14  27    5.4598   506.9    5.938      51.049
2015    5       26    14  33    5.4583   507.1    5.932      51.067
2015    5       26    14  39    5.4568   507.3    5.927      51.084
2015    5       26    14  45    5.4553   507.5    5.921      51.102
2015    5       26    14  51    5.4538   507.7    5.916      51.120
2015    5       26    14  57    5.4523   507.9    5.910      51.138
2015    5       26    15   3    5.4508   508.0    5.904      51.156
2015    5       26    15   9    5.4493   508.2    5.899      51.174
2015    5       26    15  15    5.4478   508.4    5.893      51.192
2015    5       26    15  21    5.4463   508.6    5.888      51.210
2015    5       26    15  27    5.4448   508.8    5.883      51.228
2015    5       26    15  33    5.4434   509.0    5.877      51.247
2015    5       26    15  39    5.4419   509.2    5.872      51.265
2015    5       26    15  45    5.4404   509.4    5.866      51.284
2015    5       26    15  51    5.4389   509.6    5.861      51.302
2015    5       26    15  57    5.4375   509.8    5.856      51.321
2015    5       26    16   3    5.4360   510.0    5.850      51.340
2015    5       26    16   9    5.4345   510.2    5.845      51.358
2015    5       26    16  15    5.4331   510.4    5.840      51.377
2015    5       26    16  21    5.4316   510.6    5.835      51.396
2015    5       26    16  27    5.4302   510.8    5.829      51.415
2015    5       26    16  33    5.4287   511.0    5.824      51.434
2015    5       26    16  39    5.4273   511.2    5.819      51.453
2015    5       26    16  45    5.4258   511.4    5.814      51.472
2015    5       26    16  51    5.4244   511.6    5.808      51.492
2015    5       26    16  57    5.4229   511.7    5.803      51.511
2015    5       26    17   3    5.4215   511.9    5.798      51.530
2015    5       26    17   9    5.4200   512.1    5.793      51.549
2015    5       26    17  15    5.4186   512.3    5.788      51.569
2015    5       26    17  21    5.4172   512.5    5.782      51.588
2015    5       26    17  27    5.4157   512.7    5.777      51.608
2015    5       26    17  33    5.4143   512.9    5.772      51.627
2015    5       26    17  39    5.4128   513.1    5.767      51.647
2015    5       26    17  45    5.4114   513.3    5.762      51.667
2015    5       26    17  51    5.4100   513.5    5.757      51.686
2015    5       26    17  57    5.4086   513.7    5.751      51.706
2015    5       26    18   3    5.4072   513.9    5.746      51.726
2015    5       26    18   9    5.4057   514.1    5.741      51.746
2015    5       26    18  15    5.4043   514.3    5.736      51.766
2015    5       26    18  21    5.4029   514.5    5.731      51.785
2015    5       26    18  27    5.4015   514.7    5.726      51.805
2015    5       26    18  33    5.4001   514.9    5.720      51.825
2015    5       26    18  39    5.3987   515.0    5.715      51.845
2015    5       26    18  45    5.3973   515.2    5.710      51.865
2015    5       26    18  51    5.3959   515.4    5.705      51.885
2015    5       26    18  57    5.3945   515.6    5.700      51.904
2015    5       26    19   3    5.3931   515.8    5.694      51.924
2015    5       26    19   9    5.3917   516.0    5.689      51.944
2015    5       26    19  15    5.3903   516.2    5.684      51.964
2015    5       26    19  21    5.3890   516.4    5.679      51.983
2015    5       26    19  27    5.3876   516.6    5.673      52.003
2015    5       26    19  33    5.3862   516.8    5.668      52.022
2015    5       26    19  39    5.3848   517.0    5.663      52.042
2015    5       26    19  45    5.3834   517.2    5.658      52.061
2015    5       26    19  51    5.3821   517.4    5.652      52.081
2015    5       26    19  57    5.3807   517.6    5.647      52.100
2015    5       26    20   3    5.3793   517.8    5.642      52.119
2015    5       26    20   9    5.3780   518.0    5.637      52.138
2015    5       26    20  15    5.3766   518.2    5.631      52.158
2015    5       26    20  21    5.3753   518.4    5.626      52.177
2015    5       26    20  27    5.3739   518.6    5.621      52.196
2015    5       26    20  33    5.3726   518.8    5.616      52.215
2015    5       26    20  39    5.3712   519.0    5.610      52.235
2015    5       26    20  45    5.3699   519.2    5.605      52.254
2015    5       26    20  51    5.3686   519.4    5.600      52.273
2015    5       26    20  57    5.3672   519.5    5.595      52.293
2015    5       26    21   3    5.3659   519.7    5.590      52.312
2015    5       26    21   9    5.3646   519.9    5.584      52.332
2015    5       26    21  15    5.3633   520.1    5.579      52.352
2015    5       26    21  21    5.3620   520.3    5.574      52.371
2015    5       26    21  27    5.3606   520.5    5.569      52.391
2015    5       26    21  33    5.3593   520.7    5.564      52.411
2015    5       26    21  39    5.3580   520.9    5.559      52.431
2015    5       26    21  45    5.3567   521.1    5.554      52.452
2015    5       26    21  51    5.3554   521.3    5.549      52.472
2015    5       26    21  57    5.3541   521.5    5.544      52.492
2015    5       26    22   3    5.3528   521.7    5.539      52.513
2015    5       26    22   9    5.3515   521.9    5.534      52.533
2015    5       26    22  15    5.3502   522.1    5.530      52.554
2015    5       26    22  21    5.3488   522.3    5.525      52.575
2015    5       26    22  27    5.3475   522.5    5.520      52.596
2015    5       26    22  33    5.3462   522.7    5.515      52.617
2015    5       26    22  39    5.3449   522.9    5.510      52.638
2015    5       26    22  45    5.3436   523.1    5.505      52.659
2015    5       26    22  51    5.3422   523.3    5.500      52.680
2015    5       26    22  57    5.3409   523.5    5.496      52.702
2015    5       26    23   3    5.3396   523.7    5.491      52.723
2015    5       26    23   9    5.3383   523.9    5.486      52.744
2015    5       26    23  15    5.3369   524.1    5.481      52.766
2015    5       26    23  21    5.3356   524.3    5.477      52.788
2015    5       26    23  27    5.3342   524.5    5.472      52.809
2015    5       26    23  33    5.3329   524.7    5.467      52.831
2015    5       26    23  39    5.3316   524.9    5.462      52.853
2015    5       26    23  45    5.3303   525.1    5.458      52.875
2015    5       26    23  51    5.3289   525.3    5.453      52.897
2015    5       26    23  57    5.3276   525.5    5.448      52.919
2015    5       27     0   3    5.3263   525.7    5.443      52.941
2015    5       27     0   9    5.3250   525.9    5.439      52.963
2015    5       27     0  15    5.3237   526.1    5.434      52.986
2015    5       27     0  21    5.3224   526.3    5.429      53.008
2015    5       27     0  27    5.3211   526.5    5.425      53.031
2015    5       27     0  33    5.3198   526.7    5.420      53.054
2015    5       27     0  39    5.3185   526.9    5.415      53.077
2015    5       27     0  45    5.3172   527.1    5.411      53.099
2015    5       27     0  51    5.3159   527.3    5.406      53.123
2015    5       27     0  57    5.3147   527.5    5.401      53.146
2015    5       27     1   3    5.3134   527.7    5.397      53.169
2015    5       27     1   9    5.3121   527.9    5.392      53.192
2015    5       27     1  15    5.3109   528.1    5.388      53.216
2015    5       27     1  21    5.3097   528.3    5.383      53.239
2015    5       27     1  27    5.3084   528.5    5.379      53.263
2015    5       27     1  33    5.3072   528.7    5.374      53.287
2015    5       27     1  39    5.3060   528.9    5.369      53.311
2015    5       27     1  45    5.3048   529.1    5.365      53.335
2015    5       27     1  51    5.3036   529.3    5.360      53.359
2015    5       27     1  57    5.3024   529.5    5.356      53.383
2015    5       27     2   3    5.3012   529.7    5.351      53.407
2015    5       27     2   9    5.3000   529.9    5.347      53.431
2015    5       27     2  15    5.2989   530.1    5.342      53.455
2015    5       27     2  21    5.2977   530.3    5.337      53.479
2015    5       27     2  27    5.2965   530.5    5.333      53.504
2015    5       27     2  33    5.2954   530.7    5.328      53.528
2015    5       27     2  39    5.2942   530.9    5.324      53.552
2015    5       27     2  45    5.2931   531.1    5.319      53.576
2015    5       27     2  51    5.2919   531.3    5.315      53.600
2015    5       27     2  57    5.2908   531.5    5.310      53.625
2015    5       27     3   3    5.2897   531.8    5.305      53.649
2015    5       27     3   9    5.2885   532.0    5.301      53.673
2015    5       27     3  15    5.2874   532.2    5.296      53.697
2015    5       27     3  21    5.2863   532.4    5.292      53.722
2015    5       27     3  27    5.2851   532.6    5.287      53.746
2015    5       27     3  33    5.2840   532.8    5.282      53.770
2015    5       27     3  39    5.2829   533.0    5.278      53.795
2015    5       27     3  45    5.2817   533.2    5.273      53.819
2015    5       27     3  51    5.2806   533.4    5.268      53.843
2015    5       27     3  57    5.2794   533.6    5.264      53.868
2015    5       27     4   3    5.2783   533.8    5.259      53.892
2015    5       27     4   9    5.2771   534.0    5.254      53.917
2015    5       27     4  15    5.2760   534.2    5.250      53.941
2015    5       27     4  21    5.2748   534.4    5.245      53.966
2015    5       27     4  27    5.2736   534.7    5.241      53.991
2015    5       27     4  33    5.2725   534.9    5.236      54.016
2015    5       27     4  39    5.2713   535.1    5.231      54.040
2015    5       27     4  45    5.2701   535.3    5.227      54.065
2015    5       27     4  51    5.2689   535.5    5.222      54.090
2015    5       27     4  57    5.2677   535.7    5.218      54.115
2015    5       27     5   3    5.2665   535.9    5.213      54.140
2015    5       27     5   9    5.2653   536.1    5.208      54.165
2015    5       27     5  15    5.2641   536.3    5.204      54.190
2015    5       27     5  21    5.2629   536.6    5.199      54.215
2015    5       27     5  27    5.2617   536.8    5.194      54.241
2015    5       27     5  33    5.2605   537.0    5.190      54.266
2015    5       27     5  39    5.2593   537.2    5.185      54.291
2015    5       27     5  45    5.2580   537.4    5.181      54.317
2015    5       27     5  51    5.2568   537.6    5.176      54.342
2015    5       27     5  57    5.2556   537.8    5.172      54.367
2015    5       27     6   3    5.2543   538.0    5.167      54.393
2015    5       27     6   9    5.2531   538.3    5.162      54.419
2015    5       27     6  15    5.2519   538.5    5.158      54.444
2015    5       27     6  21    5.2506   538.7    5.153      54.470
2015    5       27     6  27    5.2494   538.9    5.149      54.495
2015    5       27     6  33    5.2482   539.1    5.144      54.521
2015    5       27     6  39    5.2469   539.3    5.140      54.547
2015    5       27     6  45    5.2457   539.5    5.135      54.573
2015    5       27     6  51    5.2445   539.8    5.131      54.599
2015    5       27     6  57    5.2432   540.0    5.126      54.626
2015    5       27     7   3    5.2420   540.2    5.121      54.652
2015    5       27     7   9    5.2408   540.4    5.117      54.679
2015    5       27     7  15    5.2396   540.6    5.112      54.706
2015    5       27     7  21    5.2383   540.9    5.108      54.732
2015    5       27     7  27    5.2371   541.1    5.103      54.759
2015    5       27     7  33    5.2359   541.3    5.098      54.785
2015    5       27     7  39    5.2346   541.5    5.094      54.812
2015    5       27     7  45    5.2334   541.7    5.089      54.838
2015    5       27     7  51    5.2321   542.0    5.084      54.864
2015    5       27     7  57    5.2309   542.2    5.080      54.891
2015    5       27     8   3    5.2297   542.4    5.075      54.917
2015    5       27     8   9    5.2284   542.6    5.070      54.943
2015    5       27     8  15    5.2272   542.8    5.066      54.969
2015    5       27     8  21    5.2260   543.1    5.061      54.995
2015    5       27     8  27    5.2247   543.3    5.056      55.021
2015    5       27     8  33    5.2235   543.5    5.052      55.047
2015    5       27     8  39    5.2223   543.7    5.047      55.074
2015    5       27     8  45    5.2211   543.9    5.042      55.100
2015    5       27     8  51    5.2198   544.2    5.037      55.126
2015    5       27     8  57    5.2186   544.4    5.033      55.153
2015    5       27     9   3    5.2174   544.6    5.028      55.179
2015    5       27     9   9    5.2162   544.8    5.023      55.206
2015    5       27     9  15    5.2150   545.1    5.019      55.232
2015    5       27     9  21    5.2138   545.3    5.014      55.259
2015    5       27     9  27    5.2126   545.5    5.009      55.285
2015    5       27     9  33    5.2114   545.7    5.005      55.312
2015    5       27     9  39    5.2102   546.0    5.000      55.339
2015    5       27     9  45    5.2090   546.2    4.996      55.366
2015    5       27     9  51    5.2078   546.4    4.991      55.394
2015    5       27     9  57    5.2066   546.6    4.986      55.421
2015    5       27    10   3    5.2054   546.9    4.982      55.448
2015    5       27    10   9    5.2042   547.1    4.977      55.476
2015    5       27    10  15    5.2030   547.3    4.973      55.504
2015    5       27    10  21    5.2018   547.5    4.968      55.531
2015    5       27    10  27    5.2007   547.8    4.964      55.559
2015    5       27    10  33    5.1995   548.0    4.959      55.588
2015    5       27    10  39    5.1983   548.2    4.955      55.616
2015    5       27    10  45    5.1972   548.4    4.950      55.645
2015    5       27    10  51    5.1960   548.7    4.946      55.673
2015    5       27    10  57    5.1948   548.9    4.942      55.703
2015    5       27    11   3    5.1937   549.1    4.938      55.733
2015    5       27    11   9    5.1925   549.4    4.933      55.765
2015    5       27    11  15    5.1912   549.6    4.929      55.796
2015    5       27    11  21    5.1900   549.8    4.925      55.829
2015    5       27    11  27    5.1887   550.1    4.920      55.861
2015    5       27    11  33    5.1875   550.3    4.916      55.894
2015    5       27    11  39    5.1861   550.6    4.911      55.925
2015    5       27    11  45    5.1848   550.8    4.906      55.957
2015    5       27    11  51    5.1835   551.0    4.902      55.988
2015    5       27    11  57    5.1821   551.3    4.897      56.019
2015    5       27    12   3    5.1807   551.5    4.892      56.050
2015    5       27    12   9    5.1793   551.7    4.887      56.080
2015    5       27    12  15    5.1779   552.0    4.883      56.109
2015    5       27    12  21    5.1765   552.2    4.878      56.139
2015    5       27    12  27    5.1750   552.5    4.873      56.168
2015    5       27    12  33    5.1736   552.7    4.868      56.196
2015    5       27    12  39    5.1721   552.9    4.863      56.225
2015    5       27    12  45    5.1706   553.2    4.858      56.253
2015    5       27    12  51    5.1691   553.4    4.852      56.281
2015    5       27    12  57    5.1676   553.7    4.847      56.308
2015    5       27    13   3    5.1661   553.9    4.842      56.335
2015    5       27    13   9    5.1646   554.1    4.837      56.362
2015    5       27    13  16    5.1631   554.4    4.832      56.389
2015    5       27    13  21    5.1616   554.6    4.826      56.416
2015    5       27    13  27    5.1600   554.9    4.821      56.442
2015    5       27    13  34    5.1585   555.1    4.816      56.468
2015    5       27    13  40    5.1569   555.3    4.810      56.494
2015    5       27    13  46    5.1553   555.6    4.805      56.519
2015    5       27    13  52    5.1537   555.8    4.800      56.545
2015    5       27    13  58    5.1522   556.1    4.794      56.570
2015    5       27    14   4    5.1506   556.3    4.789      56.595
2015    5       27    14  10    5.1490   556.5    4.783      56.620
2015    5       27    14  16    5.1474   556.8    4.778      56.644
2015    5       27    14  22    5.1458   557.0    4.773      56.669
2015    5       27    14  28    5.1442   557.3    4.767      56.694
2015    5       27    14  34    5.1426   557.5    4.762      56.718
2015    5       27    14  40    5.1409   557.8    4.756      56.743
2015    5       27    14  46    5.1393   558.0    4.751      56.767
2015    5       27    14  52    5.1376   558.3    4.745      56.792
2015    5       27    14  58    5.1360   558.5    4.740      56.816
2015    5       27    15   4    5.1343   558.8    4.734      56.840
2015    5       27    15  10    5.1326   559.0    4.728      56.864
2015    5       27    15  16    5.1309   559.2    4.723      56.888
2015    5       27    15  22    5.1292   559.5    4.717      56.912
2015    5       27    15  28    5.1275   559.7    4.712      56.935
2015    5       27    15  34    5.1257   560.0    4.706      56.959
2015    5       27    15  40    5.1240   560.2    4.700      56.982
2015    5       27    15  46    5.1222   560.5    4.695      57.005
2015    5       27    15  52    5.1205   560.7    4.689      57.028
2015    5       27    15  58    5.1187   561.0    4.683      57.051
2015    5       27    16   4    5.1169   561.2    4.677      57.075
2015    5       27    16  10    5.1151   561.5    4.672      57.098
2015    5       27    16  16    5.1133   561.7    4.666      57.121
2015    5       27    16  22    5.1115   562.0    4.660      57.144
2015    5       27    16  28    5.1097   562.2    4.655      57.168
2015    5       27    16  34    5.1078   562.5    4.649      57.191
2015    5       27    16  40    5.1060   562.7    4.643      57.215
2015    5       27    16  46    5.1041   563.0    4.638      57.239
2015    5       27    16  52    5.1023   563.2    4.632      57.264
2015    5       27    16  58    5.1004   563.5    4.626      57.288
2015    5       27    17   4    5.0986   563.7    4.621      57.313
2015    5       27    17  10    5.0967   563.9    4.615      57.337
2015    5       27    17  16    5.0948   564.2    4.610      57.362
2015    5       27    17  22    5.0929   564.4    4.604      57.388
2015    5       27    17  28    5.0910   564.7    4.599      57.413
2015    5       27    17  34    5.0891   564.9    4.593      57.439
2015    5       27    17  40    5.0872   565.2    4.588      57.465
2015    5       27    17  46    5.0852   565.4    4.583      57.491
2015    5       27    17  52    5.0833   565.7    4.577      57.517
2015    5       27    17  58    5.0814   565.9    4.572      57.544
2015    5       27    18   4    5.0794   566.2    4.567      57.571
2015    5       27    18  10    5.0775   566.4    4.562      57.598
2015    5       27    18  16    5.0756   566.7    4.557      57.626
2015    5       27    18  22    5.0736   566.9    4.552      57.653
2015    5       27    18  28    5.0717   567.2    4.547      57.681
2015    5       27    18  34    5.0698   567.4    4.542      57.709
2015    5       27    18  40    5.0678   567.7    4.537      57.739
2015    5       27    18  46    5.0658   567.9    4.532      57.769
2015    5       27    18  52    5.0638   568.2    4.528      57.799
2015    5       27    18  58    5.0618   568.4    4.523      57.831
2015    5       27    19   4    5.0598   568.7    4.518      57.862
2015    5       27    19  10    5.0578   568.9    4.513      57.893
2015    5       27    19  16    5.0557   569.2    4.508      57.923
2015    5       27    19  22    5.0536   569.4    4.503      57.953
2015    5       27    19  28    5.0515   569.7    4.498      57.983
2015    5       27    19  34    5.0494   570.0    4.493      58.012
2015    5       27    19  40    5.0473   570.2    4.488      58.040
2015    5       27    19  46    5.0451   570.5    4.483      58.068
2015    5       27    19  52    5.0430   570.7    4.478      58.095
2015    5       27    19  58    5.0408   571.0    4.473      58.122
2015    5       27    20   4    5.0385   571.2    4.468      58.149
2015    5       27    20  10    5.0363   571.5    4.463      58.175
2015    5       27    20  16    5.0340   571.8    4.458      58.202
2015    5       27    20  22    5.0317   572.0    4.452      58.227
2015    5       27    20  28    5.0294   572.3    4.447      58.253
2015    5       27    20  34    5.0271   572.5    4.441      58.277
2015    5       27    20  40    5.0247   572.8    4.436      58.302
2015    5       27    20  46    5.0223   573.0    4.430      58.325
2015    5       27    20  52    5.0199   573.3    4.425      58.349
2015    5       27    20  58    5.0175   573.5    4.419      58.371
2015    5       27    21   4    5.0150   573.8    4.413      58.394
2015    5       27    21  10    5.0125   574.1    4.407      58.415
2015    5       27    21  16    5.0100   574.3    4.401      58.436
2015    5       27    21  22    5.0075   574.6    4.395      58.457
2015    5       27    21  28    5.0050   574.8    4.389      58.477
2015    5       27    21  34    5.0025   575.1    4.383      58.497
2015    5       27    21  40    4.9999   575.3    4.377      58.516
2015    5       27    21  46    4.9973   575.6    4.371      58.535
2015    5       27    21  52    4.9947   575.8    4.365      58.553
2015    5       27    21  58    4.9921   576.1    4.359      58.570
2015    5       27    22   4    4.9894   576.3    4.353      58.588
2015    5       27    22  10    4.9868   576.6    4.347      58.604
2015    5       27    22  16    4.9841   576.8    4.341      58.621
2015    5       27    22  22    4.9814   577.1    4.334      58.637
2015    5       27    22  28    4.9787   577.3    4.328      58.652
2015    5       27    22  34    4.9760   577.6    4.322      58.667
2015    5       27    22  40    4.9733   577.8    4.315      58.682
2015    5       27    22  46    4.9705   578.1    4.309      58.697
2015    5       27    22  52    4.9678   578.3    4.303      58.711
2015    5       27    22  58    4.9650   578.6    4.297      58.725
2015    5       27    23   4    4.9622   578.8    4.290      58.738
2015    5       27    23  10    4.9594   579.0    4.284      58.752
2015    5       27    23  16    4.9566   579.3    4.277      58.765
2015    5       27    23  22    4.9538   579.5    4.271      58.778
2015    5       27    23  28    4.9510   579.8    4.265      58.791
2015    5       27    23  34    4.9482   580.0    4.258      58.803
2015    5       27    23  40    4.9453   580.3    4.252      58.816
2015    5       27    23  46    4.9425   580.5    4.246      58.829
2015    5       27    23  52    4.9396   580.8    4.240      58.841
2015    5       27    23  58    4.9367   581.0    4.233      58.854
2015    5       28     0   4    4.9339   581.2    4.227      58.867
2015    5       28     0  10    4.9310   581.5    4.221      58.879
2015    5       28     0  16    4.9281   581.7    4.214      58.892
2015    5       28     0  22    4.9252   582.0    4.208      58.904
2015    5       28     0  28    4.9223   582.2    4.202      58.917
2015    5       28     0  34    4.9194   582.4    4.196      58.930
2015    5       28     0  40    4.9165   582.7    4.190      58.943
2015    5       28     0  46    4.9135   582.9    4.184      58.956
2015    5       28     0  52    4.9106   583.1    4.178      58.969
2015    5       28     0  58    4.9077   583.4    4.172      58.982
2015    5       28     1   4    4.9047   583.6    4.166      58.995
2015    5       28     1  10    4.9018   583.9    4.160      59.008
2015    5       28     1  16    4.8988   584.1    4.154      59.021
2015    5       28     1  22    4.8959   584.3    4.148      59.033
2015    5       28     1  28    4.8929   584.6    4.142      59.047
2015    5       28     1  34    4.8899   584.8    4.136      59.059
2015    5       28     1  40    4.8869   585.0    4.131      59.072
2015    5       28     1  46    4.8839   585.3    4.125      59.085
2015    5       28     1  52    4.8809   585.5    4.119      59.098
2015    5       28     1  58    4.8779   585.7    4.114      59.110
2015    5       28     2   4    4.8749   585.9    4.108      59.123
2015    5       28     2  10    4.8719   586.2    4.103      59.135
2015    5       28     2  16    4.8689   586.4    4.098      59.147
2015    5       28     2  22    4.8658   586.6    4.092      59.160
2015    5       28     2  28    4.8628   586.8    4.087      59.172
2015    5       28     2  34    4.8598   587.1    4.082      59.184
2015    5       28     2  40    4.8567   587.3    4.077      59.196
2015    5       28     2  46    4.8537   587.5    4.072      59.208
2015    5       28     2  52    4.8507   587.7    4.067      59.220
2015    5       28     2  58    4.8477   588.0    4.062      59.232
2015    5       28     3   4    4.8447   588.2    4.057      59.243
2015    5       28     3  10    4.8416   588.4    4.052      59.255
2015    5       28     3  16    4.8386   588.6    4.047      59.267
2015    5       28     3  22    4.8355   588.8    4.043      59.279
2015    5       28     3  28    4.8324   589.1    4.038      59.292
2015    5       28     3  34    4.8293   589.3    4.033      59.305
2015    5       28     3  40    4.8262   589.5    4.029      59.318
2015    5       28     3  46    4.8231   589.7    4.024      59.331
2015    5       28     3  52    4.8200   589.9    4.019      59.344
2015    5       28     3  58    4.8168   590.2    4.015      59.356
2015    5       28     4   4    4.8137   590.4    4.010      59.369
2015    5       28     4  10    4.8105   590.6    4.005      59.381
2015    5       28     4  16    4.8073   590.8    4.001      59.394
2015    5       28     4  22    4.8041   591.0    3.996      59.405
2015    5       28     4  28    4.8009   591.2    3.991      59.417
2015    5       28     4  34    4.7976   591.4    3.987      59.428
2015    5       28     4  40    4.7944   591.6    3.982      59.440
2015    5       28     4  46    4.7911   591.8    3.977      59.450
2015    5       28     4  52    4.7878   592.0    3.972      59.461
2015    5       28     4  58    4.7846   592.2    3.967      59.471
2015    5       28     5   4    4.7813   592.4    3.963      59.481
2015    5       28     5  10    4.7780   592.6    3.958      59.490
2015    5       28     5  16    4.7747   592.8    3.953      59.500
2015    5       28     5  22    4.7714   593.0    3.948      59.508
2015    5       28     5  28    4.7681   593.2    3.943      59.517
2015    5       28     5  34    4.7648   593.4    3.938      59.525
2015    5       28     5  40    4.7614   593.6    3.933      59.532
2015    5       28     5  46    4.7581   593.8    3.928      59.538
2015    5       28     5  52    4.7548   594.0    3.923      59.544
2015    5       28     5  58    4.7515   594.2    3.918      59.550
2015    5       28     6   4    4.7482   594.4    3.913      59.554
2015    5       28     6  10    4.7449   594.6    3.907      59.558
2015    5       28     6  16    4.7416   594.8    3.902      59.561
2015    5       28     6  22    4.7383   595.0    3.897      59.564
2015    5       28     6  28    4.7350   595.2    3.892      59.566
2015    5       28     6  34    4.7316   595.4    3.887      59.567
2015    5       28     6  40    4.7283   595.5    3.881      59.568
2015    5       28     6  46    4.7249   595.7    3.876      59.568
2015    5       28     6  52    4.7216   595.9    3.871      59.568
2015    5       28     6  58    4.7183   596.1    3.866      59.567
2015    5       28     7   4    4.7149   596.3    3.860      59.566
2015    5       28     7  10    4.7115   596.5    3.855      59.565
2015    5       28     7  16    4.7082   596.7    3.850      59.563
2015    5       28     7  22    4.7048   596.8    3.845      59.560
2015    5       28     7  28    4.7015   597.0    3.839      59.557
2015    5       28     7  34    4.6981   597.2    3.834      59.554
2015    5       28     7  40    4.6947   597.4    3.829      59.550
2015    5       28     7  46    4.6913   597.6    3.824      59.546
2015    5       28     7  52    4.6880   597.7    3.818      59.541
2015    5       28     7  58    4.6846   597.9    3.813      59.536
2015    5       28     8   4    4.6812   598.1    3.808      59.531
2015    5       28     8  10    4.6778   598.3    3.802      59.525
2015    5       28     8  16    4.6744   598.4    3.797      59.519
2015    5       28     8  22    4.6711   598.6    3.792      59.513
2015    5       28     8  28    4.6677   598.8    3.787      59.506
2015    5       28     8  34    4.6643   599.0    3.782      59.498
2015    5       28     8  40    4.6609   599.1    3.776      59.491
2015    5       28     8  46    4.6575   599.3    3.771      59.483
2015    5       28     8  52    4.6541   599.5    3.766      59.475
2015    5       28     8  58    4.6507   599.6    3.761      59.467
2015    5       28     9   4    4.6473   599.8    3.756      59.459
2015    5       28     9  10    4.6439   600.0    3.751      59.450
2015    5       28     9  16    4.6405   600.1    3.746      59.441
2015    5       28     9  22    4.6371   600.3    3.741      59.433
2015    5       28     9  28    4.6338   600.4    3.736      59.424
2015    5       28     9  34    4.6304   600.6    3.731      59.415
2015    5       28     9  40    4.6270   600.8    3.727      59.407
2015    5       28     9  46    4.6237   600.9    3.722      59.398
2015    5       28     9  52    4.6203   601.1    3.717      59.390
2015    5       28     9  58    4.6170   601.2    3.713      59.382
2015    5       28    10   4    4.6136   601.4    3.708      59.375
2015    5       28    10  10    4.6103   601.5    3.704      59.367
2015    5       28    10  16    4.6070   601.7    3.700      59.360
2015    5       28    10  22    4.6037   601.8    3.695      59.354
2015    5       28    10  28    4.6005   602.0    3.691      59.348
2015    5       28    10  34    4.5972   602.1    3.687      59.342
2015    5       28    10  40    4.5940   602.3    3.683      59.337
2015    5       28    10  46    4.5907   602.4    3.679      59.332
2015    5       28    10  52    4.5875   602.6    3.675      59.328
2015    5       28    10  58    4.5842   602.7    3.671      59.324
2015    5       28    11   4    4.5810   602.8    3.668      59.320
2015    5       28    11  10    4.5778   603.0    3.664      59.317
2015    5       28    11  16    4.5746   603.1    3.660      59.314
2015    5       28    11  22    4.5714   603.3    3.657      59.311
2015    5       28    11  28    4.5682   603.4    3.653      59.309
2015    5       28    11  34    4.5650   603.5    3.650      59.306
2015    5       28    11  40    4.5618   603.7    3.646      59.304
2015    5       28    11  46    4.5586   603.8    3.643      59.302
2015    5       28    11  52    4.5554   603.9    3.640      59.300
2015    5       28    11  58    4.5522   604.0    3.636      59.298
2015    5       28    12   4    4.5491   604.2    3.633      59.296
2015    5       28    12  10    4.5459   604.3    3.630      59.294
2015    5       28    12  16    4.5427   604.4    3.626      59.292
2015    5       28    12  22    4.5395   604.5    3.623      59.290
2015    5       28    12  28    4.5363   604.7    3.620      59.287
2015    5       28    12  34    4.5331   604.8    3.616      59.285
2015    5       28    12  40    4.5299   604.9    3.613      59.282
2015    5       28    12  46    4.5267   605.0    3.610      59.279
2015    5       28    12  52    4.5236   605.1    3.606      59.276
2015    5       28    12  58    4.5204   605.2    3.603      59.272
2015    5       28    13   4    4.5172   605.3    3.600      59.267
2015    5       28    13  10    4.5141   605.5    3.596      59.262
2015    5       28    13  16    4.5109   605.6    3.593      59.256
2015    5       28    13  22    4.5077   605.7    3.590      59.250
2015    5       28    13  28    4.5046   605.8    3.586      59.242
2015    5       28    13  34    4.5015   605.9    3.583      59.235
2015    5       28    13  40    4.4983   606.0    3.579      59.226
2015    5       28    13  46    4.4951   606.1    3.576      59.217
2015    5       28    13  52    4.4920   606.2    3.573      59.207
2015    5       28    13  58    4.4888   606.3    3.569      59.197
2015    5       28    14   4    4.4857   606.4    3.566      59.185
2015    5       28    14  10    4.4825   606.5    3.562      59.174
2015    5       28    14  16    4.4794   606.6    3.559      59.161
2015    5       28    14  22    4.4762   606.7    3.555      59.148
2015    5       28    14  28    4.4730   606.8    3.551      59.135
2015    5       28    14  34    4.4699   606.9    3.548      59.121
2015    5       28    14  40    4.4667   607.0    3.544      59.106
2015    5       28    14  46    4.4635   607.1    3.541      59.091
2015    5       28    14  52    4.4604   607.2    3.537      59.075
2015    5       28    14  58    4.4572   607.3    3.534      59.059
2015    5       28    15   4    4.4540   607.4    3.530      59.042
2015    5       28    15  10    4.4509   607.4    3.526      59.025
2015    5       28    15  16    4.4477   607.5    3.523      59.007
2015    5       28    15  22    4.4446   607.6    3.519      58.989
2015    5       28    15  28    4.4415   607.7    3.515      58.970
2015    5       28    15  34    4.4383   607.8    3.512      58.952
2015    5       28    15  40    4.4352   607.9    3.508      58.933
2015    5       28    15  46    4.4321   608.0    3.504      58.913
2015    5       28    15  52    4.4290   608.0    3.501      58.894
2015    5       28    15  58    4.4259   608.1    3.497      58.874
2015    5       28    16   4    4.4228   608.2    3.493      58.854
2015    5       28    16  10    4.4197   608.3    3.490      58.834
2015    5       28    16  16    4.4166   608.4    3.486      58.815
2015    5       28    16  22    4.4136   608.4    3.483      58.795
2015    5       28    16  28    4.4106   608.5    3.479      58.775
2015    5       28    16  34    4.4075   608.6    3.476      58.755
2015    5       28    16  40    4.4046   608.7    3.472      58.736
2015    5       28    16  46    4.4016   608.7    3.469      58.717
2015    5       28    16  52    4.3986   608.8    3.465      58.698
2015    5       28    16  58    4.3956   608.9    3.462      58.680
2015    5       28    17   4    4.3927   609.0    3.459      58.662
2015    5       28    17  10    4.3898   609.0    3.456      58.644
2015    5       28    17  16    4.3869   609.1    3.452      58.627
2015    5       28    17  22    4.3841   609.2    3.449      58.611
2015    5       28    17  28    4.3812   609.2    3.446      58.595
2015    5       28    17  34    4.3784   609.3    3.443      58.580
2015    5       28    17  40    4.3756   609.4    3.440      58.565
2015    5       28    17  46    4.3728   609.4    3.438      58.550
2015    5       28    17  52    4.3700   609.5    3.435      58.537
2015    5       28    17  58    4.3673   609.6    3.432      58.524
2015    5       28    18   4    4.3646   609.6    3.429      58.511
2015    5       28    18  10    4.3618   609.7    3.427      58.499
2015    5       28    18  16    4.3591   609.7    3.424      58.487
2015    5       28    18  22    4.3565   609.8    3.422      58.476
2015    5       28    18  28    4.3538   609.9    3.419      58.465
2015    5       28    18  34    4.3511   609.9    3.417      58.455
2015    5       28    18  40    4.3485   610.0    3.415      58.445
2015    5       28    18  46    4.3459   610.0    3.413      58.435
2015    5       28    18  52    4.3432   610.1    3.410      58.426
2015    5       28    18  58    4.3406   610.2    3.408      58.417
2015    5       28    19   4    4.3380   610.2    3.406      58.408
2015    5       28    19  10    4.3354   610.3    3.404      58.399
2015    5       28    19  16    4.3328   610.3    3.402      58.390
2015    5       28    19  22    4.3301   610.4    3.400      58.381
2015    5       28    19  28    4.3275   610.4    3.398      58.372
2015    5       28    19  34    4.3249   610.5    3.396      58.363
2015    5       28    19  40    4.3223   610.5    3.395      58.354
2015    5       28    19  46    4.3196   610.6    3.393      58.345
2015    5       28    19  52    4.3170   610.6    3.391      58.336
2015    5       28    19  58    4.3143   610.7    3.389      58.326
2015    5       28    20   4    4.3117   610.7    3.387      58.316
2015    5       28    20  10    4.3090   610.8    3.386      58.306
2015    5       28    20  16    4.3064   610.8    3.384      58.296
2015    5       28    20  22    4.3037   610.8    3.382      58.285
2015    5       28    20  28    4.3011   610.9    3.380      58.274
2015    5       28    20  34    4.2984   610.9    3.379      58.262
2015    5       28    20  40    4.2957   611.0    3.377      58.250
2015    5       28    20  46    4.2931   611.0    3.375      58.238
2015    5       28    20  52    4.2904   611.0    3.373      58.225
2015    5       28    20  58    4.2878   611.1    3.371      58.211
2015    5       28    21   4    4.2851   611.1    3.370      58.197
2015    5       28    21  10    4.2824   611.1    3.368      58.182
2015    5       28    21  16    4.2798   611.2    3.366      58.167
2015    5       28    21  22    4.2771   611.2    3.364      58.151
2015    5       28    21  28    4.2745   611.2    3.362      58.135
2015    5       28    21  34    4.2719   611.2    3.360      58.118
2015    5       28    21  40    4.2693   611.3    3.358      58.100
2015    5       28    21  46    4.2666   611.3    3.356      58.082
2015    5       28    21  52    4.2640   611.3    3.354      58.063
2015    5       28    21  58    4.2614   611.3    3.352      58.044
2015    5       28    22   4    4.2588   611.3    3.350      58.024
2015    5       28    22  10    4.2562   611.4    3.348      58.004
2015    5       28    22  16    4.2537   611.4    3.346      57.983
2015    5       28    22  22    4.2511   611.4    3.344      57.962
2015    5       28    22  28    4.2485   611.4    3.342      57.941
2015    5       28    22  34    4.2460   611.4    3.340      57.919
2015    5       28    22  40    4.2435   611.4    3.338      57.897
2015    5       28    22  46    4.2410   611.4    3.336      57.875
2015    5       28    22  52    4.2385   611.5    3.333      57.852
2015    5       28    22  58    4.2360   611.5    3.331      57.830
2015    5       28    23   4    4.2336   611.5    3.329      57.807
2015    5       28    23  10    4.2311   611.5    3.327      57.785
2015    5       28    23  16    4.2287   611.5    3.325      57.762
2015    5       28    23  22    4.2263   611.5    3.323      57.739
2015    5       28    23  28    4.2239   611.5    3.320      57.717
2015    5       28    23  34    4.2216   611.5    3.318      57.695
2015    5       28    23  40    4.2192   611.5    3.316      57.673
2015    5       28    23  46    4.2169   611.5    3.314      57.651
2015    5       28    23  52    4.2146   611.5    3.312      57.630
2015    5       28    23  58    4.2123   611.5    3.310      57.609
2015    5       29     0   4    4.2101   611.5    3.308      57.588
2015    5       29     0  10    4.2078   611.5    3.306      57.568
2015    5       29     0  16    4.2056   611.5    3.304      57.548
2015    5       29     0  22    4.2034   611.5    3.302      57.529
2015    5       29     0  28    4.2012   611.5    3.300      57.510
2015    5       29     0  34    4.1991   611.5    3.299      57.492
2015    5       29     0  40    4.1970   611.5    3.297      57.474
2015    5       29     0  46    4.1948   611.5    3.295      57.457
2015    5       29     0  52    4.1927   611.5    3.294      57.440
2015    5       29     0  58    4.1906   611.5    3.292      57.424
2015    5       29     1   4    4.1886   611.5    3.290      57.408
2015    5       29     1  10    4.1865   611.5    3.289      57.393
2015    5       29     1  16    4.1844   611.5    3.287      57.378
2015    5       29     1  22    4.1824   611.5    3.286      57.364
2015    5       29     1  28    4.1804   611.5    3.285      57.351
2015    5       29     1  34    4.1784   611.5    3.283      57.338
2015    5       29     1  40    4.1764   611.5    3.282      57.325
2015    5       29     1  46    4.1743   611.5    3.281      57.313
2015    5       29     1  52    4.1724   611.5    3.280      57.302
2015    5       29     1  58    4.1704   611.5    3.279      57.290
2015    5       29     2   4    4.1684   611.5    3.278      57.280
2015    5       29     2  10    4.1664   611.5    3.277      57.269
2015    5       29     2  16    4.1645   611.5    3.276      57.259
2015    5       29     2  22    4.1625   611.5    3.275      57.249
2015    5       29     2  28    4.1605   611.5    3.274      57.239
2015    5       29     2  34    4.1586   611.5    3.273      57.230
2015    5       29     2  40    4.1566   611.5    3.272      57.221
2015    5       29     2  46    4.1546   611.5    3.272      57.212
2015    5       29     2  52    4.1526   611.5    3.271      57.203
2015    5       29     2  58    4.1506   611.5    3.270      57.194
2015    5       29     3   4    4.1486   611.5    3.270      57.185
2015    5       29     3  10    4.1466   611.5    3.269      57.177
2015    5       29     3  16    4.1446   611.5    3.268      57.168
2015    5       29     3  22    4.1426   611.5    3.268      57.159
2015    5       29     3  28    4.1406   611.5    3.267      57.150
2015    5       29     3  34    4.1385   611.5    3.267      57.141
2015    5       29     3  40    4.1365   611.5    3.266      57.131
2015    5       29     3  47    4.1344   611.5    3.266      57.121
2015    5       29     3  52    4.1324   611.5    3.265      57.111
2015    5       29     3  58    4.1303   611.5    3.264      57.099
2015    5       29     4   5    4.1283   611.5    3.264      57.088
2015    5       29     4  11    4.1262   611.5    3.263      57.075
2015    5       29     4  17    4.1242   611.5    3.262      57.062
2015    5       29     4  23    4.1222   611.5    3.261      57.049
2015    5       29     4  29    4.1201   611.5    3.261      57.034
2015    5       29     4  35    4.1181   611.5    3.260      57.020
2015    5       29     4  41    4.1161   611.5    3.259      57.004
2015    5       29     4  47    4.1140   611.4    3.258      56.988
2015    5       29     4  53    4.1120   611.4    3.257      56.971
2015    5       29     4  59    4.1100   611.4    3.256      56.954
2015    5       29     5   5    4.1080   611.4    3.255      56.936
2015    5       29     5  11    4.1060   611.4    3.254      56.918
2015    5       29     5  17    4.1041   611.4    3.253      56.899
2015    5       29     5  23    4.1021   611.3    3.252      56.879
2015    5       29     5  29    4.1001   611.3    3.251      56.859
2015    5       29     5  35    4.0982   611.3    3.250      56.838
2015    5       29     5  41    4.0963   611.3    3.248      56.817
2015    5       29     5  47    4.0943   611.2    3.247      56.795
2015    5       29     5  53    4.0924   611.2    3.246      56.773
2015    5       29     5  59    4.0905   611.2    3.245      56.751
2015    5       29     6   5    4.0886   611.2    3.243      56.728
2015    5       29     6  11    4.0867   611.1    3.242      56.705
2015    5       29     6  17    4.0848   611.1    3.241      56.681
2015    5       29     6  23    4.0829   611.1    3.239      56.658
2015    5       29     6  29    4.0810   611.1    3.238      56.634
2015    5       29     6  35    4.0791   611.0    3.237      56.610
2015    5       29     6  41    4.0773   611.0    3.235      56.586
2015    5       29     6  47    4.0754   611.0    3.234      56.562
2015    5       29     6  53    4.0736   610.9    3.233      56.539
2015    5       29     6  59    4.0717   610.9    3.232      56.515
2015    5       29     7   5    4.0699   610.9    3.230      56.492
2015    5       29     7  11    4.0681   610.8    3.229      56.469
2015    5       29     7  17    4.0663   610.8    3.228      56.446
2015    5       29     7  23    4.0645   610.8    3.227      56.424
2015    5       29     7  29    4.0628   610.7    3.226      56.402
2015    5       29     7  35    4.0610   610.7    3.225      56.381
2015    5       29     7  41    4.0592   610.7    3.224      56.360
2015    5       29     7  47    4.0575   610.6    3.223      56.340
2015    5       29     7  53    4.0558   610.6    3.222      56.321
2015    5       29     7  59    4.0541   610.6    3.221      56.302
2015    5       29     8   5    4.0523   610.5    3.220      56.284
2015    5       29     8  11    4.0507   610.5    3.219      56.266
2015    5       29     8  17    4.0490   610.4    3.219      56.249
2015    5       29     8  23    4.0473   610.4    3.218      56.233
2015    5       29     8  29    4.0456   610.4    3.217      56.218
2015    5       29     8  35    4.0440   610.3    3.217      56.203
2015    5       29     8  41    4.0423   610.3    3.216      56.188
2015    5       29     8  47    4.0407   610.3    3.216      56.174
2015    5       29     8  53    4.0390   610.2    3.215      56.161
2015    5       29     8  59    4.0374   610.2    3.215      56.148
2015    5       29     9   5    4.0358   610.1    3.214      56.136
2015    5       29     9  11    4.0341   610.1    3.214      56.124
2015    5       29     9  17    4.0325   610.1    3.214      56.112
2015    5       29     9  23    4.0309   610.0    3.213      56.101
2015    5       29     9  29    4.0293   610.0    3.213      56.090
2015    5       29     9  35    4.0276   609.9    3.213      56.080
2015    5       29     9  41    4.0260   609.9    3.212      56.069
2015    5       29     9  47    4.0244   609.9    3.212      56.059
2015    5       29     9  53    4.0227   609.8    3.212      56.050
2015    5       29     9  59    4.0211   609.8    3.212      56.040
2015    5       29    10   5    4.0195   609.7    3.211      56.031
2015    5       29    10  11    4.0179   609.7    3.211      56.022
2015    5       29    10  17    4.0162   609.7    3.211      56.013
2015    5       29    10  23    4.0146   609.6    3.211      56.005
2015    5       29    10  29    4.0130   609.6    3.210      55.997
2015    5       29    10  35    4.0113   609.6    3.210      55.989
2015    5       29    10  41    4.0097   609.5    3.210      55.980
2015    5       29    10  47    4.0080   609.5    3.209      55.971
2015    5       29    10  53    4.0064   609.5    3.209      55.961
2015    5       29    10  59    4.0047   609.4    3.209      55.951
2015    5       29    11   5    4.0030   609.4    3.208      55.940
2015    5       29    11  11    4.0014   609.4    3.208      55.928
2015    5       29    11  17    3.9997   609.3    3.207      55.915
2015    5       29    11  23    3.9980   609.3    3.206      55.902
2015    5       29    11  29    3.9964   609.3    3.206      55.887
2015    5       29    11  35    3.9947   609.2    3.205      55.872
2015    5       29    11  41    3.9930   609.2    3.204      55.856
2015    5       29    11  47    3.9913   609.1    3.204      55.839
2015    5       29    11  53    3.9897   609.1    3.203      55.822
2015    5       29    11  59    3.9880   609.1    3.202      55.804
2015    5       29    12   5    3.9863   609.0    3.201      55.785
2015    5       29    12  11    3.9846   609.0    3.200      55.766
2015    5       29    12  17    3.9830   608.9    3.200      55.746
2015    5       29    12  23    3.9813   608.9    3.199      55.726
2015    5       29    12  29    3.9796   608.9    3.198      55.705
2015    5       29    12  35    3.9779   608.8    3.197      55.683
2015    5       29    12  41    3.9763   608.8    3.196      55.661
2015    5       29    12  47    3.9746   608.7    3.195      55.639
2015    5       29    12  53    3.9729   608.7    3.194      55.616
2015    5       29    12  59    3.9712   608.6    3.193      55.593
2015    5       29    13   5    3.9695   608.6    3.192      55.569
2015    5       29    13  11    3.9678   608.5    3.191      55.545
2015    5       29    13  17    3.9661   608.5    3.190      55.520
2015    5       29    13  23    3.9644   608.5    3.189      55.495
2015    5       29    13  29    3.9627   608.4    3.188      55.470
2015    5       29    13  35    3.9609   608.4    3.187      55.445
2015    5       29    13  41    3.9592   608.3    3.186      55.419
2015    5       29    13  47    3.9575   608.3    3.185      55.393
2015    5       29    13  53    3.9558   608.2    3.184      55.367
2015    5       29    13  59    3.9541   608.2    3.183      55.341
2015    5       29    14   5    3.9524   608.1    3.181      55.315
2015    5       29    14  11    3.9506   608.1    3.180      55.289
2015    5       29    14  17    3.9489   608.0    3.180      55.263
2015    5       29    14  23    3.9472   607.9    3.179      55.237
2015    5       29    14  29    3.9455   607.9    3.178      55.212
2015    5       29    14  35    3.9438   607.8    3.177      55.186
2015    5       29    14  41    3.9421   607.8    3.176      55.161
2015    5       29    14  47    3.9404   607.7    3.175      55.137
2015    5       29    14  53    3.9387   607.6    3.174      55.113
2015    5       29    14  59    3.9370   607.6    3.174      55.089
2015    5       29    15   5    3.9353   607.5    3.173      55.066
2015    5       29    15  11    3.9336   607.5    3.173      55.044
2015    5       29    15  17    3.9320   607.4    3.172      55.022
2015    5       29    15  23    3.9303   607.3    3.172      55.002
2015    5       29    15  29    3.9286   607.3    3.171      54.981
2015    5       29    15  35    3.9270   607.2    3.171      54.962
2015    5       29    15  41    3.9253   607.1    3.171      54.943
2015    5       29    15  47    3.9237   607.1    3.171      54.925
2015    5       29    15  53    3.9221   607.0    3.171      54.908
2015    5       29    15  59    3.9205   606.9    3.170      54.892
2015    5       29    16   5    3.9188   606.9    3.170      54.876
2015    5       29    16  11    3.9172   606.8    3.170      54.860
2015    5       29    16  17    3.9156   606.7    3.170      54.845
2015    5       29    16  23    3.9140   606.7    3.170      54.831
2015    5       29    16  29    3.9124   606.6    3.170      54.817
2015    5       29    16  35    3.9108   606.5    3.171      54.803
2015    5       29    16  41    3.9092   606.4    3.171      54.789
2015    5       29    16  47    3.9076   606.4    3.171      54.776
2015    5       29    16  53    3.9060   606.3    3.171      54.763
2015    5       29    16  59    3.9045   606.2    3.171      54.751
2015    5       29    17   5    3.9029   606.1    3.171      54.739
2015    5       29    17  11    3.9013   606.1    3.171      54.727
2015    5       29    17  17    3.8998   606.0    3.172      54.716
2015    5       29    17  23    3.8982   605.9    3.172      54.706
2015    5       29    17  29    3.8967   605.8    3.172      54.697
2015    5       29    17  35    3.8952   605.8    3.172      54.687
2015    5       29    17  41    3.8936   605.7    3.172      54.678
2015    5       29    17  47    3.8921   605.6    3.172      54.669
2015    5       29    17  53    3.8906   605.5    3.171      54.658
2015    5       29    17  59    3.8891   605.5    3.171      54.647
2015    5       29    18   5    3.8875   605.4    3.171      54.635
2015    5       29    18  11    3.8860   605.3    3.171      54.622
2015    5       29    18  17    3.8845   605.2    3.170      54.608
2015    5       29    18  23    3.8829   605.2    3.170      54.592
2015    5       29    18  29    3.8814   605.1    3.169      54.576
2015    5       29    18  35    3.8798   605.0    3.169      54.559
2015    5       29    18  41    3.8782   604.9    3.168      54.540
2015    5       29    18  47    3.8767   604.9    3.168      54.521
2015    5       29    18  53    3.8751   604.8    3.167      54.501
2015    5       29    18  59    3.8735   604.7    3.166      54.480
2015    5       29    19   5    3.8720   604.6    3.166      54.459
2015    5       29    19  11    3.8704   604.6    3.165      54.436
2015    5       29    19  17    3.8688   604.5    3.164      54.413
2015    5       29    19  23    3.8672   604.4    3.163      54.389
2015    5       29    19  29    3.8656   604.3    3.163      54.365
2015    5       29    19  35    3.8640   604.2    3.162      54.340
2015    5       29    19  41    3.8624   604.2    3.161      54.315
2015    5       29    19  47    3.8608   604.1    3.160      54.289
2015    5       29    19  53    3.8591   604.0    3.159      54.262
2015    5       29    19  59    3.8575   603.9    3.158      54.235
2015    5       29    20   5    3.8559   603.8    3.157      54.208
2015    5       29    20  11    3.8542   603.8    3.156      54.180
2015    5       29    20  17    3.8526   603.7    3.155      54.152
2015    5       29    20  23    3.8509   603.6    3.154      54.124
2015    5       29    20  29    3.8493   603.5    3.153      54.095
2015    5       29    20  35    3.8476   603.4    3.152      54.066
2015    5       29    20  41    3.8459   603.4    3.151      54.037
2015    5       29    20  47    3.8443   603.3    3.150      54.007
2015    5       29    20  53    3.8426   603.2    3.149      53.978
2015    5       29    20  59    3.8409   603.1    3.148      53.948
2015    5       29    21   5    3.8392   603.0    3.147      53.917
2015    5       29    21  11    3.8375   603.0    3.146      53.887
2015    5       29    21  17    3.8358   602.9    3.145      53.856
2015    5       29    21  23    3.8341   602.8    3.144      53.825
2015    5       29    21  29    3.8324   602.7    3.143      53.794
2015    5       29    21  35    3.8307   602.6    3.142      53.763
2015    5       29    21  41    3.8290   602.5    3.141      53.732
2015    5       29    21  47    3.8272   602.4    3.140      53.701
2015    5       29    21  53    3.8255   602.4    3.139      53.669
2015    5       29    21  59    3.8238   602.3    3.138      53.638
2015    5       29    22   5    3.8220   602.2    3.137      53.607
2015    5       29    22  11    3.8203   602.1    3.136      53.576
2015    5       29    22  17    3.8186   602.0    3.135      53.545
2015    5       29    22  23    3.8168   601.9    3.135      53.515
2015    5       29    22  29    3.8151   601.8    3.134      53.485
2015    5       29    22  35    3.8134   601.7    3.133      53.456
2015    5       29    22  41    3.8116   601.6    3.132      53.427
2015    5       29    22  47    3.8099   601.5    3.132      53.399
2015    5       29    22  53    3.8082   601.4    3.131      53.371
2015    5       29    22  59    3.8065   601.3    3.131      53.344
2015    5       29    23   5    3.8048   601.2    3.130      53.318
2015    5       29    23  11    3.8030   601.1    3.130      53.292
2015    5       29    23  17    3.8013   601.0    3.130      53.267
2015    5       29    23  23    3.7996   600.9    3.129      53.243
2015    5       29    23  29    3.7979   600.8    3.129      53.219
2015    5       29    23  35    3.7963   600.7    3.129      53.196
2015    5       29    23  41    3.7946   600.6    3.129      53.172
2015    5       29    23  47    3.7929   600.5    3.129      53.150
2015    5       29    23  53    3.7912   600.3    3.128      53.127
2015    5       29    23  59    3.7895   600.2    3.128      53.106
2015    5       30     0   5    3.7878   600.1    3.128      53.084
2015    5       30     0  11    3.7862   600.0    3.128      53.063
2015    5       30     0  17    3.7845   599.9    3.128      53.041
2015    5       30     0  23    3.7828   599.8    3.128      53.021
2015    5       30     0  29    3.7812   599.7    3.128      53.000
2015    5       30     0  35    3.7795   599.6    3.128      52.980
2015    5       30     0  41    3.7779   599.4    3.128      52.961
2015    5       30     0  47    3.7762   599.3    3.128      52.941
2015    5       30     0  53    3.7746   599.2    3.128      52.922
2015    5       30     0  59    3.7729   599.1    3.128      52.903
2015    5       30     1   5    3.7713   599.0    3.128      52.884
2015    5       30     1  11    3.7697   598.8    3.128      52.864
2015    5       30     1  17    3.7681   598.7    3.128      52.844
2015    5       30     1  23    3.7664   598.6    3.128      52.824
2015    5       30     1  29    3.7648   598.5    3.128      52.803
2015    5       30     1  35    3.7632   598.3    3.128      52.782
2015    5       30     1  41    3.7616   598.2    3.128      52.761
2015    5       30     1  47    3.7600   598.1    3.128      52.739
2015    5       30     1  53    3.7584   598.0    3.128      52.718
2015    5       30     1  59    3.7568   597.9    3.128      52.696
2015    5       30     2   5    3.7552   597.7    3.128      52.674
2015    5       30     2  11    3.7536   597.6    3.128      52.652
2015    5       30     2  17    3.7520   597.5    3.128      52.629
2015    5       30     2  23    3.7504   597.4    3.128      52.607
2015    5       30     2  29    3.7489   597.2    3.128      52.585
2015    5       30     2  35    3.7473   597.1    3.129      52.562
2015    5       30     2  41    3.7458   597.0    3.129      52.540
2015    5       30     2  47    3.7442   596.9    3.129      52.518
2015    5       30     2  53    3.7427   596.7    3.129      52.496
2015    5       30     2  59    3.7412   596.6    3.129      52.474
2015    5       30     3   5    3.7397   596.5    3.129      52.452
2015    5       30     3  11    3.7382   596.4    3.130      52.430
2015    5       30     3  17    3.7367   596.2    3.130      52.408
2015    5       30     3  23    3.7352   596.1    3.130      52.387
2015    5       30     3  29    3.7337   596.0    3.131      52.367
2015    5       30     3  35    3.7321   595.9    3.131      52.346
2015    5       30     3  41    3.7306   595.8    3.131      52.326
2015    5       30     3  47    3.7291   595.6    3.131      52.305
2015    5       30     3  53    3.7276   595.5    3.131      52.284
2015    5       30     3  59    3.7260   595.4    3.131      52.262
2015    5       30     4   5    3.7245   595.3    3.131      52.239
2015    5       30     4  11    3.7229   595.2    3.131      52.216
2015    5       30     4  17    3.7213   595.1    3.131      52.191
2015    5       30     4  23    3.7197   594.9    3.131      52.167
2015    5       30     4  29    3.7181   594.8    3.131      52.141
2015    5       30     4  35    3.7165   594.7    3.131      52.115
2015    5       30     4  41    3.7149   594.6    3.130      52.087
2015    5       30     4  47    3.7132   594.5    3.130      52.059
2015    5       30     4  53    3.7116   594.4    3.129      52.031
2015    5       30     4  59    3.7100   594.3    3.129      52.002
2015    5       30     5   5    3.7083   594.1    3.128      51.972
2015    5       30     5  11    3.7066   594.0    3.128      51.941
2015    5       30     5  17    3.7050   593.9    3.127      51.910
2015    5       30     5  23    3.7033   593.8    3.126      51.878
2015    5       30     5  29    3.7016   593.7    3.126      51.846
2015    5       30     5  35    3.6999   593.5    3.125      51.813
2015    5       30     5  41    3.6982   593.4    3.124      51.780
2015    5       30     5  47    3.6965   593.3    3.124      51.747
2015    5       30     5  53    3.6947   593.2    3.123      51.713
2015    5       30     5  59    3.6930   593.0    3.122      51.679
2015    5       30     6   5    3.6913   592.9    3.121      51.645
2015    5       30     6  11    3.6896   592.8    3.121      51.610
2015    5       30     6  17    3.6879   592.7    3.120      51.575
2015    5       30     6  23    3.6862   592.5    3.119      51.540
2015    5       30     6  29    3.6844   592.4    3.118      51.505
2015    5       30     6  35    3.6827   592.3    3.117      51.470
2015    5       30     6  41    3.6810   592.1    3.117      51.434
2015    5       30     6  47    3.6793   592.0    3.116      51.398
2015    5       30     6  53    3.6775   591.9    3.115      51.362
2015    5       30     6  59    3.6758   591.7    3.114      51.326
2015    5       30     7   5    3.6741   591.6    3.113      51.290
2015    5       30     7  11    3.6723   591.4    3.113      51.254
2015    5       30     7  17    3.6706   591.3    3.112      51.217
2015    5       30     7  23    3.6689   591.1    3.111      51.180
2015    5       30     7  29    3.6671   591.0    3.110      51.143
2015    5       30     7  35    3.6654   590.9    3.110      51.106
2015    5       30     7  41    3.6637   590.7    3.109      51.069
2015    5       30     7  47    3.6620   590.6    3.108      51.032
2015    5       30     7  53    3.6603   590.4    3.107      50.995
2015    5       30     7  59    3.6585   590.3    3.107      50.958
2015    5       30     8   5    3.6568   590.1    3.106      50.921
2015    5       30     8  11    3.6551   590.0    3.105      50.884
2015    5       30     8  17    3.6534   589.8    3.105      50.847
2015    5       30     8  23    3.6517   589.6    3.104      50.810
2015    5       30     8  29    3.6501   589.5    3.103      50.774
2015    5       30     8  35    3.6484   589.3    3.103      50.738
2015    5       30     8  41    3.6467   589.2    3.102      50.703
2015    5       30     8  47    3.6451   589.0    3.102      50.668
2015    5       30     8  53    3.6435   588.8    3.102      50.633
2015    5       30     8  59    3.6419   588.7    3.101      50.599
2015    5       30     9   5    3.6403   588.5    3.101      50.566
2015    5       30     9  11    3.6387   588.4    3.101      50.533
2015    5       30     9  17    3.6371   588.2    3.101      50.501
2015    5       30     9  23    3.6355   588.0    3.101      50.470
2015    5       30     9  29    3.6340   587.9    3.101      50.440
2015    5       30     9  35    3.6325   587.7    3.101      50.410
2015    5       30     9  41    3.6309   587.6    3.101      50.381
2015    5       30     9  47    3.6294   587.4    3.101      50.353
2015    5       30     9  53    3.6280   587.2    3.102      50.326
2015    5       30     9  59    3.6265   587.1    3.102      50.300
2015    5       30    10   5    3.6250   586.9    3.103      50.274
2015    5       30    10  11    3.6236   586.8    3.103      50.249
2015    5       30    10  17    3.6221   586.6    3.104      50.224
2015    5       30    10  23    3.6207   586.4    3.105      50.201
2015    5       30    10  29    3.6193   586.3    3.106      50.178
2015    5       30    10  35    3.6179   586.1    3.107      50.156
2015    5       30    10  41    3.6165   586.0    3.108      50.135
2015    5       30    10  47    3.6151   585.8    3.109      50.115
2015    5       30    10  53    3.6137   585.6    3.110      50.096
2015    5       30    10  59    3.6123   585.5    3.111      50.077
2015    5       30    11   5    3.6109   585.3    3.112      50.059
2015    5       30    11  11    3.6095   585.2    3.113      50.041
2015    5       30    11  17    3.6081   585.0    3.114      50.022
2015    5       30    11  23    3.6066   584.9    3.115      50.004
2015    5       30    11  29    3.6052   584.7    3.116      49.985
2015    5       30    11  35    3.6037   584.6    3.117      49.966
2015    5       30    11  41    3.6022   584.4    3.118      49.946
2015    5       30    11  47    3.6008   584.3    3.119      49.926
2015    5       30    11  53    3.5993   584.1    3.120      49.906
2015    5       30    11  59    3.5978   584.0    3.121      49.886
2015    5       30    12   5    3.5963   583.8    3.122      49.865
2015    5       30    12  11    3.5948   583.7    3.123      49.843
2015    5       30    12  17    3.5933   583.5    3.124      49.822
2015    5       30    12  23    3.5918   583.4    3.124      49.800
2015    5       30    12  29    3.5903   583.2    3.125      49.778
2015    5       30    12  35    3.5888   583.1    3.126      49.755
2015    5       30    12  41    3.5873   582.9    3.127      49.732
2015    5       30    12  47    3.5858   582.8    3.128      49.709
2015    5       30    12  53    3.5844   582.6    3.128      49.685
2015    5       30    12  59    3.5829   582.5    3.129      49.662
2015    5       30    13   5    3.5814   582.3    3.130      49.639
2015    5       30    13  11    3.5799   582.2    3.131      49.615
2015    5       30    13  17    3.5784   582.0    3.131      49.591
2015    5       30    13  23    3.5769   581.9    3.132      49.567
2015    5       30    13  29    3.5754   581.8    3.132      49.541
2015    5       30    13  35    3.5739   581.6    3.133      49.515
2015    5       30    13  41    3.5724   581.5    3.133      49.489
2015    5       30    13  47    3.5709   581.3    3.133      49.461
2015    5       30    13  53    3.5694   581.2    3.133      49.433
2015    5       30    13  59    3.5679   581.0    3.134      49.404
2015    5       30    14   5    3.5664   580.9    3.134      49.374
2015    5       30    14  11    3.5648   580.7    3.134      49.344
2015    5       30    14  17    3.5633   580.6    3.134      49.313
2015    5       30    14  23    3.5618   580.4    3.134      49.281
2015    5       30    14  29    3.5602   580.3    3.133      49.249
2015    5       30    14  35    3.5587   580.2    3.133      49.216
2015    5       30    14  41    3.5572   580.0    3.133      49.182
2015    5       30    14  47    3.5556   579.9    3.133      49.148
2015    5       30    14  53    3.5540   579.7    3.132      49.112
2015    5       30    14  59    3.5525   579.6    3.132      49.077
2015    5       30    15   5    3.5509   579.4    3.131      49.041
2015    5       30    15  11    3.5493   579.3    3.131      49.004
2015    5       30    15  17    3.5478   579.1    3.130      48.966
2015    5       30    15  23    3.5462   579.0    3.130      48.929
2015    5       30    15  29    3.5446   578.8    3.129      48.890
2015    5       30    15  35    3.5430   578.7    3.129      48.852
2015    5       30    15  41    3.5415   578.5    3.128      48.813
2015    5       30    15  47    3.5399   578.3    3.127      48.773
2015    5       30    15  53    3.5383   578.2    3.127      48.734
2015    5       30    15  59    3.5368   578.0    3.126      48.694
2015    5       30    16   5    3.5352   577.9    3.125      48.654
2015    5       30    16  11    3.5337   577.7    3.125      48.614
2015    5       30    16  17    3.5321   577.5    3.124      48.574
2015    5       30    16  23    3.5305   577.4    3.124      48.534
2015    5       30    16  29    3.5290   577.2    3.123      48.494
2015    5       30    16  35    3.5275   577.0    3.122      48.454
2015    5       30    16  41    3.5259   576.9    3.122      48.414
2015    5       30    16  47    3.5244   576.7    3.121      48.375
2015    5       30    16  53    3.5229   576.5    3.121      48.335
2015    5       30    16  59    3.5214   576.4    3.120      48.296
2015    5       30    17   5    3.5199   576.2    3.120      48.257
2015    5       30    17  11    3.5184   576.0    3.119      48.218
2015    5       30    17  17    3.5169   575.9    3.119      48.179
2015    5       30    17  23    3.5154   575.7    3.119      48.140
2015    5       30    17  30    3.5139   575.5    3.118      48.102
2015    5       30    17  36    3.5124   575.3    3.118      48.064
2015    5       30    17  42    3.5109   575.2    3.118      48.026
2015    5       30    17  48    3.5094   575.0    3.118      47.989
2015    5       30    17  54    3.5079   574.8    3.118      47.951
2015    5       30    18   0    3.5065   574.6    3.117      47.914
2015    5       30    18   6    3.5050   574.4    3.117      47.877
2015    5       30    18  12    3.5035   574.3    3.117      47.841
2015    5       30    18  18    3.5020   574.1    3.117      47.805
2015    5       30    18  24    3.5006   573.9    3.118      47.769
2015    5       30    18  30    3.4991   573.7    3.118      47.734
2015    5       30    18  36    3.4976   573.5    3.118      47.700
2015    5       30    18  42    3.4962   573.3    3.118      47.666
2015    5       30    18  48    3.4948   573.1    3.119      47.633
2015    5       30    18  54    3.4933   572.9    3.119      47.600
2015    5       30    19   0    3.4919   572.7    3.120      47.568
2015    5       30    19   6    3.4905   572.6    3.121      47.537
2015    5       30    19  12    3.4892   572.4    3.121      47.507
2015    5       30    19  18    3.4878   572.2    3.122      47.477
2015    5       30    19  24    3.4865   572.0    3.123      47.449
2015    5       30    19  30    3.4852   571.8    3.124      47.421
2015    5       30    19  36    3.4839   571.6    3.125      47.395
2015    5       30    19  42    3.4826   571.4    3.127      47.369
2015    5       30    19  48    3.4814   571.2    3.128      47.344
2015    5       30    19  54    3.4802   571.0    3.129      47.320
2015    5       30    20   0    3.4790   570.8    3.131      47.296
2015    5       30    20   6    3.4778   570.7    3.132      47.274
2015    5       30    20  12    3.4766   570.5    3.134      47.252
2015    5       30    20  18    3.4754   570.3    3.136      47.232
2015    5       30    20  24    3.4743   570.1    3.137      47.212
2015    5       30    20  30    3.4731   569.9    3.139      47.193
2015    5       30    20  36    3.4720   569.7    3.141      47.175
2015    5       30    20  42    3.4709   569.6    3.143      47.156
2015    5       30    20  48    3.4697   569.4    3.145      47.137
2015    5       30    20  54    3.4686   569.2    3.146      47.118
2015    5       30    21   0    3.4675   569.0    3.148      47.099
2015    5       30    21   6    3.4663   568.9    3.150      47.080
2015    5       30    21  12    3.4652   568.7    3.152      47.061
2015    5       30    21  18    3.4641   568.5    3.153      47.041
2015    5       30    21  24    3.4629   568.3    3.155      47.021
2015    5       30    21  30    3.4618   568.2    3.157      47.002
2015    5       30    21  36    3.4606   568.0    3.158      46.982
2015    5       30    21  42    3.4595   567.8    3.160      46.963
2015    5       30    21  48    3.4583   567.7    3.161      46.943
2015    5       30    21  54    3.4571   567.5    3.162      46.924
2015    5       30    22   0    3.4559   567.3    3.164      46.903
2015    5       30    22   6    3.4547   567.2    3.165      46.882
2015    5       30    22  12    3.4535   567.0    3.166      46.860
2015    5       30    22  18    3.4523   566.8    3.167      46.837
2015    5       30    22  24    3.4510   566.7    3.168      46.814
2015    5       30    22  30    3.4498   566.5    3.169      46.790
2015    5       30    22  36    3.4486   566.3    3.170      46.765
2015    5       30    22  42    3.4473   566.2    3.171      46.740
2015    5       30    22  48    3.4460   566.0    3.171      46.714
2015    5       30    22  54    3.4448   565.8    3.172      46.687
2015    5       30    23   0    3.4435   565.7    3.173      46.660
2015    5       30    23   6    3.4422   565.5    3.173      46.632
2015    5       30    23  12    3.4409   565.3    3.174      46.603
2015    5       30    23  18    3.4396   565.2    3.175      46.574
2015    5       30    23  24    3.4383   565.0    3.175      46.545
2015    5       30    23  30    3.4371   564.8    3.175      46.515
2015    5       30    23  36    3.4357   564.7    3.176      46.484
2015    5       30    23  42    3.4344   564.5    3.176      46.453
2015    5       30    23  48    3.4331   564.3    3.177      46.422
2015    5       30    23  54    3.4318   564.2    3.177      46.389
2015    5       31     0   0    3.4305   564.0    3.177      46.357
