year    month   day   hour  minute  B_enl V_enl   n_enl       T_enl
[year] [month] [day] [hour][minute] [nT]  [km/s]  [cm-3]      [kK]
2015    5       13     0   2    4.6681   659.0    3.186      69.239
2015    5       13     0   8    4.6643   659.1    3.182      69.206
2015    5       13     0  14    4.6604   659.2    3.178      69.171
2015    5       13     0  19    4.6565   659.3    3.174      69.136
2015    5       13     0  25    4.6526   659.4    3.170      69.100
2015    5       13     0  31    4.6488   659.5    3.166      69.064
2015    5       13     0  37    4.6449   659.6    3.162      69.026
2015    5       13     0  43    4.6410   659.7    3.158      68.989
2015    5       13     0  49    4.6372   659.8    3.154      68.950
2015    5       13     0  54    4.6333   659.9    3.150      68.911
2015    5       13     1   0    4.6294   659.9    3.146      68.871
2015    5       13     1   6    4.6256   660.0    3.142      68.831
2015    5       13     1  12    4.6217   660.1    3.139      68.790
2015    5       13     1  18    4.6179   660.2    3.135      68.749
2015    5       13     1  24    4.6140   660.3    3.131      68.707
2015    5       13     1  29    4.6101   660.4    3.127      68.665
2015    5       13     1  35    4.6063   660.4    3.123      68.623
2015    5       13     1  41    4.6024   660.5    3.119      68.579
2015    5       13     1  47    4.5985   660.6    3.115      68.536
2015    5       13     1  53    4.5946   660.7    3.111      68.492
2015    5       13     1  59    4.5908   660.8    3.108      68.448
2015    5       13     2   4    4.5869   660.8    3.104      68.403
2015    5       13     2  10    4.5830   660.9    3.100      68.358
2015    5       13     2  16    4.5791   661.0    3.096      68.312
2015    5       13     2  22    4.5752   661.0    3.092      68.267
2015    5       13     2  28    4.5712   661.1    3.089      68.220
2015    5       13     2  34    4.5673   661.2    3.085      68.174
2015    5       13     2  40    4.5634   661.2    3.081      68.127
2015    5       13     2  45    4.5594   661.3    3.077      68.081
2015    5       13     2  51    4.5555   661.4    3.073      68.034
2015    5       13     2  57    4.5515   661.4    3.070      67.986
2015    5       13     3   3    4.5475   661.5    3.066      67.939
2015    5       13     3   9    4.5435   661.6    3.062      67.892
2015    5       13     3  15    4.5396   661.6    3.058      67.844
2015    5       13     3  20    4.5356   661.7    3.055      67.797
2015    5       13     3  26    4.5316   661.8    3.051      67.749
2015    5       13     3  32    4.5275   661.8    3.047      67.701
2015    5       13     3  38    4.5235   661.9    3.043      67.652
2015    5       13     3  44    4.5195   662.0    3.040      67.604
2015    5       13     3  50    4.5155   662.0    3.036      67.555
2015    5       13     3  55    4.5115   662.1    3.032      67.507
2015    5       13     4   1    4.5075   662.1    3.028      67.458
2015    5       13     4   7    4.5034   662.2    3.025      67.409
2015    5       13     4  13    4.4994   662.2    3.021      67.360
2015    5       13     4  19    4.4954   662.3    3.017      67.311
2015    5       13     4  25    4.4914   662.3    3.014      67.262
2015    5       13     4  30    4.4874   662.3    3.010      67.213
2015    5       13     4  36    4.4834   662.4    3.007      67.165
2015    5       13     4  42    4.4794   662.4    3.003      67.117
2015    5       13     4  48    4.4755   662.5    3.000      67.069
2015    5       13     4  54    4.4715   662.5    2.997      67.021
2015    5       13     5   0    4.4676   662.5    2.993      66.974
2015    5       13     5   5    4.4637   662.5    2.990      66.928
2015    5       13     5  11    4.4598   662.6    2.987      66.882
2015    5       13     5  17    4.4559   662.6    2.984      66.837
2015    5       13     5  23    4.4520   662.6    2.981      66.792
2015    5       13     5  29    4.4482   662.6    2.978      66.748
2015    5       13     5  35    4.4444   662.6    2.975      66.704
2015    5       13     5  41    4.4406   662.7    2.972      66.661
2015    5       13     5  46    4.4368   662.7    2.970      66.618
2015    5       13     5  52    4.4330   662.7    2.967      66.576
2015    5       13     5  58    4.4292   662.7    2.964      66.534
2015    5       13     6   4    4.4254   662.7    2.962      66.492
2015    5       13     6  10    4.4216   662.7    2.959      66.450
2015    5       13     6  16    4.4179   662.7    2.957      66.407
2015    5       13     6  21    4.4141   662.7    2.954      66.365
2015    5       13     6  27    4.4103   662.7    2.952      66.322
2015    5       13     6  33    4.4066   662.7    2.949      66.278
2015    5       13     6  39    4.4028   662.7    2.946      66.234
2015    5       13     6  45    4.3991   662.7    2.944      66.190
2015    5       13     6  51    4.3953   662.7    2.941      66.145
2015    5       13     6  56    4.3916   662.7    2.939      66.100
2015    5       13     7   2    4.3879   662.7    2.936      66.055
2015    5       13     7   8    4.3842   662.7    2.934      66.008
2015    5       13     7  14    4.3804   662.7    2.931      65.961
2015    5       13     7  20    4.3767   662.6    2.929      65.913
2015    5       13     7  26    4.3730   662.6    2.926      65.864
2015    5       13     7  31    4.3693   662.6    2.924      65.815
2015    5       13     7  37    4.3656   662.6    2.921      65.764
2015    5       13     7  43    4.3619   662.6    2.919      65.714
2015    5       13     7  49    4.3582   662.6    2.916      65.662
2015    5       13     7  55    4.3545   662.5    2.914      65.610
2015    5       13     8   1    4.3509   662.5    2.911      65.557
2015    5       13     8   7    4.3472   662.5    2.908      65.503
2015    5       13     8  12    4.3435   662.5    2.906      65.448
2015    5       13     8  18    4.3398   662.4    2.903      65.394
2015    5       13     8  24    4.3361   662.4    2.901      65.338
2015    5       13     8  30    4.3325   662.4    2.898      65.282
2015    5       13     8  36    4.3288   662.3    2.895      65.225
2015    5       13     8  42    4.3251   662.3    2.893      65.168
2015    5       13     8  47    4.3215   662.3    2.890      65.111
2015    5       13     8  53    4.3178   662.2    2.888      65.053
2015    5       13     8  59    4.3141   662.2    2.885      64.994
2015    5       13     9   5    4.3104   662.2    2.882      64.936
2015    5       13     9  11    4.3068   662.1    2.880      64.877
2015    5       13     9  17    4.3031   662.1    2.877      64.817
2015    5       13     9  22    4.2994   662.1    2.874      64.758
2015    5       13     9  28    4.2957   662.0    2.872      64.698
2015    5       13     9  34    4.2920   662.0    2.869      64.638
2015    5       13     9  40    4.2884   662.0    2.866      64.578
2015    5       13     9  46    4.2847   661.9    2.864      64.518
2015    5       13     9  52    4.2810   661.9    2.861      64.459
2015    5       13     9  57    4.2773   661.8    2.859      64.399
2015    5       13    10   3    4.2736   661.8    2.856      64.340
2015    5       13    10   9    4.2700   661.7    2.854      64.280
2015    5       13    10  15    4.2663   661.7    2.851      64.222
2015    5       13    10  21    4.2626   661.7    2.849      64.163
2015    5       13    10  27    4.2589   661.6    2.846      64.106
2015    5       13    10  32    4.2553   661.6    2.844      64.049
2015    5       13    10  38    4.2516   661.5    2.842      63.992
2015    5       13    10  44    4.2480   661.5    2.840      63.937
2015    5       13    10  50    4.2444   661.4    2.837      63.882
2015    5       13    10  56    4.2407   661.4    2.835      63.827
2015    5       13    11   2    4.2371   661.4    2.833      63.774
2015    5       13    11   8    4.2335   661.3    2.831      63.722
2015    5       13    11  13    4.2300   661.3    2.829      63.670
2015    5       13    11  19    4.2264   661.2    2.827      63.620
2015    5       13    11  25    4.2229   661.2    2.825      63.571
2015    5       13    11  31    4.2193   661.1    2.824      63.523
2015    5       13    11  37    4.2158   661.1    2.822      63.476
2015    5       13    11  43    4.2124   661.0    2.820      63.430
2015    5       13    11  48    4.2089   660.9    2.819      63.386
2015    5       13    11  54    4.2055   660.9    2.817      63.342
2015    5       13    12   0    4.2021   660.8    2.816      63.300
2015    5       13    12   6    4.1987   660.8    2.815      63.260
2015    5       13    12  12    4.1954   660.7    2.814      63.221
2015    5       13    12  18    4.1921   660.7    2.813      63.183
2015    5       13    12  23    4.1888   660.6    2.812      63.146
2015    5       13    12  29    4.1855   660.5    2.811      63.110
2015    5       13    12  35    4.1823   660.5    2.810      63.075
2015    5       13    12  41    4.1791   660.4    2.809      63.042
2015    5       13    12  47    4.1759   660.4    2.809      63.009
2015    5       13    12  53    4.1727   660.3    2.808      62.976
2015    5       13    12  58    4.1695   660.3    2.807      62.944
2015    5       13    13   4    4.1664   660.2    2.807      62.913
2015    5       13    13  10    4.1632   660.1    2.806      62.882
2015    5       13    13  16    4.1600   660.1    2.806      62.851
2015    5       13    13  22    4.1568   660.0    2.805      62.819
2015    5       13    13  28    4.1536   660.0    2.804      62.788
2015    5       13    13  34    4.1504   659.9    2.804      62.755
2015    5       13    13  39    4.1472   659.8    2.803      62.721
2015    5       13    13  45    4.1440   659.8    2.802      62.687
2015    5       13    13  51    4.1408   659.7    2.802      62.651
2015    5       13    13  57    4.1376   659.6    2.801      62.615
2015    5       13    14   3    4.1344   659.6    2.800      62.578
2015    5       13    14   9    4.1312   659.5    2.799      62.541
2015    5       13    14  14    4.1280   659.4    2.798      62.503
2015    5       13    14  20    4.1248   659.4    2.797      62.464
2015    5       13    14  26    4.1216   659.3    2.796      62.424
2015    5       13    14  32    4.1184   659.2    2.795      62.383
2015    5       13    14  38    4.1152   659.1    2.794      62.342
2015    5       13    14  44    4.1120   659.1    2.793      62.300
2015    5       13    14  49    4.1089   659.0    2.792      62.256
2015    5       13    14  55    4.1057   658.9    2.791      62.212
2015    5       13    15   1    4.1025   658.8    2.789      62.167
2015    5       13    15   7    4.0993   658.7    2.788      62.121
2015    5       13    15  13    4.0961   658.7    2.787      62.074
2015    5       13    15  19    4.0930   658.6    2.785      62.026
2015    5       13    15  24    4.0898   658.5    2.784      61.977
2015    5       13    15  30    4.0866   658.4    2.782      61.927
2015    5       13    15  36    4.0835   658.3    2.781      61.877
2015    5       13    15  42    4.0803   658.2    2.779      61.825
2015    5       13    15  48    4.0772   658.1    2.778      61.773
2015    5       13    15  54    4.0740   658.0    2.776      61.720
2015    5       13    15  59    4.0709   658.0    2.775      61.667
2015    5       13    16   5    4.0678   657.9    2.773      61.612
2015    5       13    16  11    4.0647   657.8    2.771      61.557
2015    5       13    16  17    4.0616   657.7    2.769      61.501
2015    5       13    16  23    4.0585   657.6    2.768      61.444
2015    5       13    16  29    4.0554   657.5    2.766      61.387
2015    5       13    16  35    4.0523   657.4    2.764      61.329
2015    5       13    16  40    4.0493   657.3    2.762      61.271
2015    5       13    16  46    4.0462   657.2    2.760      61.212
2015    5       13    16  52    4.0432   657.0    2.758      61.152
2015    5       13    16  58    4.0402   656.9    2.756      61.092
2015    5       13    17   4    4.0372   656.8    2.754      61.031
2015    5       13    17  10    4.0342   656.7    2.752      60.969
2015    5       13    17  15    4.0312   656.6    2.750      60.908
2015    5       13    17  21    4.0282   656.5    2.748      60.845
2015    5       13    17  27    4.0252   656.4    2.746      60.782
2015    5       13    17  33    4.0222   656.3    2.744      60.719
2015    5       13    17  39    4.0193   656.2    2.742      60.656
2015    5       13    17  45    4.0163   656.0    2.740      60.593
2015    5       13    17  50    4.0134   655.9    2.738      60.529
2015    5       13    17  56    4.0105   655.8    2.736      60.466
2015    5       13    18   2    4.0076   655.7    2.734      60.403
2015    5       13    18   8    4.0047   655.6    2.732      60.340
2015    5       13    18  14    4.0018   655.4    2.731      60.277
2015    5       13    18  20    3.9990   655.3    2.729      60.215
2015    5       13    18  25    3.9962   655.2    2.727      60.154
2015    5       13    18  31    3.9934   655.1    2.725      60.093
2015    5       13    18  37    3.9906   654.9    2.723      60.034
2015    5       13    18  43    3.9879   654.8    2.722      59.975
2015    5       13    18  49    3.9852   654.7    2.720      59.918
2015    5       13    18  55    3.9825   654.5    2.719      59.862
2015    5       13    19   1    3.9798   654.4    2.718      59.808
2015    5       13    19   6    3.9772   654.3    2.716      59.755
2015    5       13    19  12    3.9746   654.1    2.715      59.703
2015    5       13    19  18    3.9721   654.0    2.714      59.654
2015    5       13    19  24    3.9695   653.9    2.713      59.606
2015    5       13    19  30    3.9670   653.8    2.713      59.559
2015    5       13    19  36    3.9645   653.6    2.712      59.515
2015    5       13    19  41    3.9621   653.5    2.711      59.472
2015    5       13    19  47    3.9596   653.4    2.711      59.431
2015    5       13    19  53    3.9573   653.2    2.711      59.391
2015    5       13    19  59    3.9548   653.1    2.710      59.353
2015    5       13    20   5    3.9525   653.0    2.710      59.316
2015    5       13    20  11    3.9501   652.9    2.710      59.279
2015    5       13    20  16    3.9477   652.8    2.710      59.244
2015    5       13    20  22    3.9452   652.7    2.710      59.210
2015    5       13    20  28    3.9428   652.5    2.710      59.177
2015    5       13    20  34    3.9403   652.4    2.710      59.143
2015    5       13    20  40    3.9379   652.3    2.710      59.110
2015    5       13    20  46    3.9353   652.2    2.710      59.075
2015    5       13    20  51    3.9328   652.1    2.710      59.041
2015    5       13    20  57    3.9303   652.0    2.710      59.005
2015    5       13    21   3    3.9277   651.8    2.709      58.968
2015    5       13    21   9    3.9251   651.7    2.709      58.931
2015    5       13    21  15    3.9225   651.6    2.709      58.892
2015    5       13    21  21    3.9199   651.5    2.709      58.853
2015    5       13    21  26    3.9173   651.3    2.708      58.812
2015    5       13    21  32    3.9146   651.2    2.708      58.772
2015    5       13    21  38    3.9120   651.1    2.707      58.730
2015    5       13    21  44    3.9093   650.9    2.707      58.688
2015    5       13    21  50    3.9067   650.8    2.707      58.645
2015    5       13    21  56    3.9040   650.7    2.706      58.602
2015    5       13    22   2    3.9014   650.5    2.706      58.559
2015    5       13    22   7    3.8987   650.4    2.705      58.516
2015    5       13    22  13    3.8961   650.3    2.705      58.473
2015    5       13    22  19    3.8934   650.1    2.705      58.429
2015    5       13    22  25    3.8908   650.0    2.704      58.387
2015    5       13    22  31    3.8881   649.8    2.704      58.344
2015    5       13    22  37    3.8855   649.7    2.704      58.302
2015    5       13    22  42    3.8829   649.5    2.704      58.260
2015    5       13    22  48    3.8803   649.4    2.704      58.219
2015    5       13    22  54    3.8777   649.2    2.704      58.179
2015    5       13    23   0    3.8752   649.1    2.704      58.140
2015    5       13    23   6    3.8727   649.0    2.704      58.101
2015    5       13    23  12    3.8701   648.8    2.704      58.063
2015    5       13    23  17    3.8676   648.6    2.704      58.026
2015    5       13    23  23    3.8651   648.5    2.705      57.990
2015    5       13    23  29    3.8627   648.3    2.705      57.955
2015    5       13    23  35    3.8603   648.2    2.706      57.921
2015    5       13    23  41    3.8579   648.0    2.706      57.887
2015    5       13    23  47    3.8555   647.9    2.707      57.854
2015    5       13    23  52    3.8532   647.7    2.707      57.822
2015    5       13    23  58    3.8509   647.6    2.708      57.791
2015    5       14     0   4    3.8486   647.4    2.708      57.759
2015    5       14     0  10    3.8463   647.3    2.708      57.728
2015    5       14     0  16    3.8440   647.1    2.709      57.695
2015    5       14     0  22    3.8417   647.0    2.709      57.661
2015    5       14     0  28    3.8394   646.8    2.709      57.626
2015    5       14     0  33    3.8372   646.7    2.709      57.589
2015    5       14     0  39    3.8349   646.5    2.709      57.551
2015    5       14     0  45    3.8327   646.4    2.709      57.512
2015    5       14     0  51    3.8304   646.2    2.708      57.471
2015    5       14     0  57    3.8282   646.1    2.708      57.429
2015    5       14     1   3    3.8259   645.9    2.707      57.386
2015    5       14     1   8    3.8237   645.8    2.707      57.342
2015    5       14     1  14    3.8215   645.6    2.706      57.296
2015    5       14     1  20    3.8192   645.5    2.706      57.249
2015    5       14     1  26    3.8171   645.3    2.705      57.201
2015    5       14     1  32    3.8148   645.2    2.704      57.153
2015    5       14     1  38    3.8127   645.0    2.703      57.103
2015    5       14     1  43    3.8105   644.8    2.702      57.052
2015    5       14     1  49    3.8083   644.7    2.701      57.001
2015    5       14     1  55    3.8062   644.5    2.701      56.949
2015    5       14     2   1    3.8040   644.4    2.700      56.897
2015    5       14     2   7    3.8019   644.2    2.699      56.844
2015    5       14     2  13    3.7998   644.0    2.697      56.791
2015    5       14     2  18    3.7976   643.9    2.696      56.737
2015    5       14     2  24    3.7956   643.7    2.695      56.684
2015    5       14     2  30    3.7935   643.5    2.694      56.630
2015    5       14     2  36    3.7914   643.4    2.693      56.576
2015    5       14     2  42    3.7894   643.2    2.692      56.522
2015    5       14     2  48    3.7873   643.0    2.691      56.468
2015    5       14     2  53    3.7853   642.9    2.690      56.414
2015    5       14     2  59    3.7833   642.7    2.689      56.361
2015    5       14     3   5    3.7813   642.5    2.688      56.308
2015    5       14     3  11    3.7793   642.3    2.687      56.255
2015    5       14     3  17    3.7773   642.2    2.686      56.202
2015    5       14     3  23    3.7753   642.0    2.685      56.149
2015    5       14     3  29    3.7733   641.8    2.684      56.097
2015    5       14     3  34    3.7713   641.7    2.683      56.044
2015    5       14     3  40    3.7693   641.5    2.682      55.992
2015    5       14     3  46    3.7672   641.3    2.681      55.940
2015    5       14     3  52    3.7652   641.2    2.680      55.887
2015    5       14     3  58    3.7631   641.0    2.679      55.834
2015    5       14     4   4    3.7610   640.8    2.678      55.782
2015    5       14     4   9    3.7589   640.7    2.677      55.728
2015    5       14     4  15    3.7568   640.5    2.676      55.675
2015    5       14     4  21    3.7547   640.3    2.675      55.620
2015    5       14     4  27    3.7526   640.1    2.674      55.566
2015    5       14     4  33    3.7504   640.0    2.673      55.511
2015    5       14     4  39    3.7483   639.8    2.672      55.456
2015    5       14     4  44    3.7462   639.6    2.671      55.400
2015    5       14     4  50    3.7440   639.4    2.670      55.343
2015    5       14     4  56    3.7418   639.2    2.669      55.287
2015    5       14     5   2    3.7397   639.1    2.667      55.230
2015    5       14     5   8    3.7375   638.9    2.666      55.173
2015    5       14     5  14    3.7353   638.7    2.665      55.116
2015    5       14     5  19    3.7332   638.5    2.664      55.059
2015    5       14     5  25    3.7310   638.3    2.663      55.002
2015    5       14     5  31    3.7288   638.1    2.662      54.945
2015    5       14     5  37    3.7267   637.9    2.661      54.888
2015    5       14     5  43    3.7245   637.7    2.660      54.832
2015    5       14     5  49    3.7224   637.6    2.660      54.777
2015    5       14     5  54    3.7203   637.4    2.659      54.722
2015    5       14     6   0    3.7182   637.2    2.658      54.669
2015    5       14     6   6    3.7160   637.0    2.658      54.616
2015    5       14     6  12    3.7140   636.8    2.657      54.565
2015    5       14     6  18    3.7119   636.6    2.657      54.515
2015    5       14     6  24    3.7098   636.4    2.657      54.467
2015    5       14     6  30    3.7078   636.2    2.657      54.421
2015    5       14     6  35    3.7058   636.0    2.657      54.376
2015    5       14     6  41    3.7038   635.8    2.657      54.333
2015    5       14     6  47    3.7018   635.6    2.658      54.292
2015    5       14     6  53    3.6999   635.4    2.658      54.254
2015    5       14     6  59    3.6980   635.2    2.659      54.217
2015    5       14     7   5    3.6961   635.0    2.660      54.182
2015    5       14     7  10    3.6942   634.8    2.661      54.150
2015    5       14     7  16    3.6924   634.6    2.662      54.120
2015    5       14     7  22    3.6906   634.4    2.663      54.092
2015    5       14     7  28    3.6888   634.2    2.665      54.065
2015    5       14     7  34    3.6870   634.0    2.666      54.039
2015    5       14     7  40    3.6851   633.8    2.667      54.014
2015    5       14     7  45    3.6833   633.6    2.669      53.987
2015    5       14     7  51    3.6815   633.4    2.670      53.960
2015    5       14     7  57    3.6797   633.2    2.671      53.932
2015    5       14     8   3    3.6779   633.0    2.673      53.904
2015    5       14     8   9    3.6761   632.9    2.674      53.875
2015    5       14     8  15    3.6742   632.7    2.675      53.846
2015    5       14     8  20    3.6724   632.5    2.676      53.815
2015    5       14     8  26    3.6706   632.3    2.677      53.784
2015    5       14     8  32    3.6688   632.1    2.678      53.752
2015    5       14     8  38    3.6669   631.9    2.679      53.719
2015    5       14     8  44    3.6651   631.7    2.680      53.686
2015    5       14     8  50    3.6633   631.5    2.681      53.652
2015    5       14     8  55    3.6614   631.3    2.682      53.617
2015    5       14     9   1    3.6596   631.1    2.683      53.582
2015    5       14     9   7    3.6578   630.9    2.684      53.546
2015    5       14     9  13    3.6559   630.7    2.684      53.509
2015    5       14     9  19    3.6541   630.5    2.685      53.472
2015    5       14     9  25    3.6523   630.3    2.686      53.434
2015    5       14     9  31    3.6504   630.1    2.686      53.396
2015    5       14     9  36    3.6486   629.9    2.687      53.357
2015    5       14     9  42    3.6468   629.7    2.687      53.318
2015    5       14     9  48    3.6450   629.5    2.687      53.278
2015    5       14     9  54    3.6431   629.2    2.688      53.239
2015    5       14    10   0    3.6413   629.0    2.688      53.198
2015    5       14    10   6    3.6395   628.8    2.688      53.158
2015    5       14    10  11    3.6377   628.6    2.688      53.117
2015    5       14    10  17    3.6358   628.4    2.689      53.075
2015    5       14    10  23    3.6340   628.2    2.689      53.033
2015    5       14    10  29    3.6322   628.0    2.689      52.990
2015    5       14    10  35    3.6304   627.8    2.689      52.947
2015    5       14    10  41    3.6285   627.6    2.689      52.904
2015    5       14    10  46    3.6267   627.3    2.689      52.859
2015    5       14    10  52    3.6249   627.1    2.689      52.815
2015    5       14    10  58    3.6231   626.9    2.689      52.769
2015    5       14    11   4    3.6212   626.7    2.689      52.723
2015    5       14    11  10    3.6194   626.5    2.688      52.677
2015    5       14    11  16    3.6176   626.3    2.688      52.630
2015    5       14    11  21    3.6158   626.1    2.688      52.583
2015    5       14    11  27    3.6139   625.9    2.688      52.536
2015    5       14    11  33    3.6121   625.6    2.688      52.488
2015    5       14    11  39    3.6102   625.4    2.687      52.440
2015    5       14    11  45    3.6084   625.2    2.687      52.391
2015    5       14    11  51    3.6065   625.0    2.687      52.342
2015    5       14    11  57    3.6047   624.8    2.686      52.293
2015    5       14    12   2    3.6028   624.6    2.686      52.243
2015    5       14    12   8    3.6010   624.4    2.686      52.193
2015    5       14    12  14    3.5991   624.2    2.685      52.143
2015    5       14    12  20    3.5972   624.0    2.685      52.092
2015    5       14    12  26    3.5953   623.8    2.684      52.041
2015    5       14    12  32    3.5934   623.5    2.684      51.990
2015    5       14    12  37    3.5915   623.3    2.683      51.939
2015    5       14    12  43    3.5896   623.1    2.683      51.887
2015    5       14    12  49    3.5878   622.9    2.682      51.835
2015    5       14    12  55    3.5859   622.7    2.681      51.782
2015    5       14    13   1    3.5840   622.5    2.681      51.730
2015    5       14    13   7    3.5821   622.2    2.680      51.677
2015    5       14    13  12    3.5802   622.0    2.679      51.624
2015    5       14    13  18    3.5784   621.8    2.678      51.570
2015    5       14    13  24    3.5765   621.6    2.678      51.517
2015    5       14    13  30    3.5747   621.3    2.677      51.464
2015    5       14    13  36    3.5728   621.1    2.676      51.410
2015    5       14    13  42    3.5710   620.9    2.676      51.357
2015    5       14    13  47    3.5691   620.6    2.675      51.304
2015    5       14    13  53    3.5673   620.4    2.674      51.251
2015    5       14    13  59    3.5655   620.2    2.674      51.198
2015    5       14    14   5    3.5637   619.9    2.673      51.145
2015    5       14    14  11    3.5619   619.7    2.673      51.092
2015    5       14    14  17    3.5602   619.5    2.672      51.040
2015    5       14    14  22    3.5584   619.2    2.672      50.988
2015    5       14    14  28    3.5567   619.0    2.672      50.936
2015    5       14    14  34    3.5550   618.8    2.671      50.885
2015    5       14    14  40    3.5532   618.5    2.671      50.834
2015    5       14    14  46    3.5515   618.3    2.671      50.784
2015    5       14    14  52    3.5499   618.0    2.671      50.734
2015    5       14    14  58    3.5482   617.8    2.671      50.685
2015    5       14    15   3    3.5465   617.5    2.671      50.636
2015    5       14    15   9    3.5448   617.3    2.671      50.587
2015    5       14    15  15    3.5432   617.0    2.671      50.539
2015    5       14    15  21    3.5415   616.8    2.671      50.491
2015    5       14    15  27    3.5399   616.5    2.672      50.444
2015    5       14    15  33    3.5382   616.3    2.672      50.397
2015    5       14    15  38    3.5366   616.0    2.673      50.350
2015    5       14    15  44    3.5350   615.8    2.673      50.303
2015    5       14    15  50    3.5334   615.5    2.674      50.257
2015    5       14    15  56    3.5318   615.2    2.674      50.212
2015    5       14    16   2    3.5301   615.0    2.675      50.166
2015    5       14    16   8    3.5286   614.7    2.676      50.121
2015    5       14    16  13    3.5270   614.4    2.676      50.076
2015    5       14    16  19    3.5254   614.2    2.677      50.032
2015    5       14    16  25    3.5239   613.9    2.678      49.988
2015    5       14    16  31    3.5224   613.6    2.679      49.945
2015    5       14    16  37    3.5208   613.3    2.680      49.903
2015    5       14    16  43    3.5194   613.1    2.681      49.861
2015    5       14    16  48    3.5179   612.8    2.682      49.820
2015    5       14    16  54    3.5165   612.5    2.683      49.780
2015    5       14    17   0    3.5150   612.2    2.685      49.740
2015    5       14    17   6    3.5137   612.0    2.686      49.702
2015    5       14    17  12    3.5123   611.7    2.687      49.663
2015    5       14    17  18    3.5109   611.4    2.689      49.626
2015    5       14    17  24    3.5096   611.1    2.690      49.590
2015    5       14    17  29    3.5083   610.9    2.692      49.553
2015    5       14    17  35    3.5069   610.6    2.693      49.517
2015    5       14    17  41    3.5056   610.3    2.695      49.481
2015    5       14    17  47    3.5043   610.1    2.696      49.445
2015    5       14    17  53    3.5029   609.8    2.698      49.409
2015    5       14    17  59    3.5015   609.5    2.700      49.373
2015    5       14    18   4    3.5002   609.3    2.701      49.336
2015    5       14    18  10    3.4988   609.0    2.703      49.298
2015    5       14    18  16    3.4974   608.7    2.704      49.260
2015    5       14    18  22    3.4960   608.4    2.705      49.221
2015    5       14    18  28    3.4946   608.2    2.707      49.182
2015    5       14    18  34    3.4932   607.9    2.708      49.142
2015    5       14    18  39    3.4918   607.6    2.710      49.102
2015    5       14    18  45    3.4904   607.3    2.711      49.062
2015    5       14    18  51    3.4890   607.1    2.712      49.021
2015    5       14    18  57    3.4876   606.8    2.713      48.980
2015    5       14    19   3    3.4862   606.5    2.715      48.939
2015    5       14    19   9    3.4848   606.3    2.716      48.898
2015    5       14    19  14    3.4834   606.0    2.717      48.857
2015    5       14    19  20    3.4819   605.7    2.718      48.816
2015    5       14    19  26    3.4805   605.5    2.720      48.774
2015    5       14    19  32    3.4791   605.2    2.721      48.733
2015    5       14    19  38    3.4777   604.9    2.722      48.692
2015    5       14    19  44    3.4762   604.7    2.723      48.651
2015    5       14    19  49    3.4748   604.4    2.724      48.610
2015    5       14    19  55    3.4734   604.1    2.725      48.569
2015    5       14    20   1    3.4720   603.8    2.726      48.528
2015    5       14    20   7    3.4705   603.6    2.727      48.488
2015    5       14    20  13    3.4691   603.3    2.728      48.447
2015    5       14    20  19    3.4677   603.0    2.730      48.407
2015    5       14    20  25    3.4663   602.8    2.731      48.367
2015    5       14    20  30    3.4650   602.5    2.732      48.327
2015    5       14    20  36    3.4636   602.2    2.733      48.288
2015    5       14    20  42    3.4622   601.9    2.734      48.248
2015    5       14    20  48    3.4609   601.7    2.735      48.209
2015    5       14    20  54    3.4596   601.4    2.736      48.170
2015    5       14    21   0    3.4582   601.1    2.737      48.131
2015    5       14    21   5    3.4569   600.8    2.738      48.093
2015    5       14    21  11    3.4556   600.6    2.739      48.054
2015    5       14    21  17    3.4543   600.3    2.741      48.016
2015    5       14    21  23    3.4530   600.0    2.742      47.978
2015    5       14    21  29    3.4518   599.7    2.743      47.940
2015    5       14    21  35    3.4505   599.5    2.744      47.902
2015    5       14    21  40    3.4493   599.2    2.745      47.864
2015    5       14    21  46    3.4481   598.9    2.747      47.827
2015    5       14    21  52    3.4468   598.6    2.748      47.789
2015    5       14    21  58    3.4456   598.3    2.749      47.752
2015    5       14    22   4    3.4444   598.1    2.751      47.714
2015    5       14    22  10    3.4432   597.8    2.752      47.676
2015    5       14    22  15    3.4421   597.5    2.753      47.639
2015    5       14    22  21    3.4409   597.2    2.754      47.601
2015    5       14    22  27    3.4397   596.9    2.756      47.563
2015    5       14    22  33    3.4385   596.7    2.757      47.524
2015    5       14    22  39    3.4373   596.4    2.758      47.486
2015    5       14    22  45    3.4361   596.1    2.759      47.447
2015    5       14    22  50    3.4350   595.8    2.760      47.408
2015    5       14    22  56    3.4338   595.5    2.761      47.369
2015    5       14    23   2    3.4327   595.2    2.762      47.330
2015    5       14    23   8    3.4315   594.9    2.764      47.290
2015    5       14    23  14    3.4304   594.6    2.765      47.250
2015    5       14    23  20    3.4293   594.3    2.766      47.209
2015    5       14    23  26    3.4282   594.0    2.767      47.169
2015    5       14    23  31    3.4272   593.7    2.768      47.128
2015    5       14    23  37    3.4262   593.4    2.769      47.087
2015    5       14    23  43    3.4251   593.1    2.771      47.045
2015    5       14    23  49    3.4242   592.8    2.772      47.004
2015    5       14    23  55    3.4232   592.5    2.773      46.963
2015    5       15     0   1    3.4223   592.2    2.775      46.922
2015    5       15     0   6    3.4214   591.9    2.776      46.882
2015    5       15     0  12    3.4205   591.6    2.778      46.841
2015    5       15     0  18    3.4197   591.3    2.779      46.801
2015    5       15     0  24    3.4188   591.0    2.781      46.761
2015    5       15     0  30    3.4181   590.7    2.783      46.722
2015    5       15     0  36    3.4173   590.4    2.784      46.683
2015    5       15     0  41    3.4165   590.1    2.786      46.644
2015    5       15     0  47    3.4157   589.8    2.788      46.605
2015    5       15     0  53    3.4150   589.6    2.790      46.567
2015    5       15     0  59    3.4142   589.3    2.792      46.528
2015    5       15     1   5    3.4134   589.0    2.794      46.489
2015    5       15     1  11    3.4126   588.7    2.796      46.450
2015    5       15     1  16    3.4118   588.4    2.798      46.411
2015    5       15     1  22    3.4110   588.1    2.799      46.371
2015    5       15     1  28    3.4101   587.8    2.801      46.330
2015    5       15     1  34    3.4093   587.5    2.803      46.289
2015    5       15     1  40    3.4085   587.2    2.805      46.247
2015    5       15     1  46    3.4076   586.9    2.807      46.205
2015    5       15     1  52    3.4068   586.6    2.809      46.162
2015    5       15     1  57    3.4059   586.3    2.810      46.118
2015    5       15     2   3    3.4051   586.0    2.812      46.075
2015    5       15     2   9    3.4043   585.7    2.814      46.031
2015    5       15     2  15    3.4034   585.4    2.816      45.987
2015    5       15     2  21    3.4026   585.1    2.817      45.942
2015    5       15     2  27    3.4018   584.8    2.819      45.898
2015    5       15     2  32    3.4009   584.5    2.821      45.854
2015    5       15     2  38    3.4001   584.2    2.823      45.809
2015    5       15     2  44    3.3993   583.9    2.825      45.765
2015    5       15     2  50    3.3986   583.6    2.826      45.721
2015    5       15     2  56    3.3978   583.3    2.828      45.678
2015    5       15     3   2    3.3970   583.0    2.830      45.634
2015    5       15     3   7    3.3963   582.7    2.832      45.591
2015    5       15     3  13    3.3956   582.4    2.834      45.548
2015    5       15     3  19    3.3948   582.1    2.836      45.507
2015    5       15     3  25    3.3941   581.8    2.838      45.465
2015    5       15     3  31    3.3935   581.5    2.841      45.424
2015    5       15     3  37    3.3928   581.2    2.843      45.384
2015    5       15     3  42    3.3921   580.9    2.845      45.345
2015    5       15     3  48    3.3915   580.5    2.848      45.306
2015    5       15     3  54    3.3909   580.2    2.850      45.269
2015    5       15     4   0    3.3903   579.9    2.853      45.232
2015    5       15     4   6    3.3897   579.6    2.855      45.196
2015    5       15     4  12    3.3892   579.3    2.858      45.161
2015    5       15     4  17    3.3887   579.0    2.861      45.127
2015    5       15     4  23    3.3881   578.7    2.864      45.094
2015    5       15     4  29    3.3877   578.4    2.866      45.062
2015    5       15     4  35    3.3872   578.1    2.869      45.031
2015    5       15     4  41    3.3868   577.8    2.872      45.001
2015    5       15     4  47    3.3863   577.5    2.876      44.972
2015    5       15     4  53    3.3859   577.2    2.879      44.944
2015    5       15     4  58    3.3855   576.9    2.882      44.916
2015    5       15     5   4    3.3852   576.6    2.885      44.890
2015    5       15     5  10    3.3848   576.3    2.889      44.864
2015    5       15     5  16    3.3845   576.1    2.892      44.839
2015    5       15     5  22    3.3841   575.8    2.895      44.815
2015    5       15     5  28    3.3838   575.5    2.899      44.791
2015    5       15     5  33    3.3835   575.2    2.902      44.768
2015    5       15     5  39    3.3832   574.9    2.906      44.745
2015    5       15     5  45    3.3829   574.6    2.909      44.722
2015    5       15     5  51    3.3826   574.4    2.913      44.700
2015    5       15     5  57    3.3824   574.1    2.916      44.678
2015    5       15     6   3    3.3821   573.8    2.919      44.656
2015    5       15     6   8    3.3818   573.5    2.923      44.634
2015    5       15     6  14    3.3815   573.2    2.926      44.612
2015    5       15     6  20    3.3813   572.9    2.929      44.590
2015    5       15     6  26    3.3811   572.7    2.932      44.568
2015    5       15     6  32    3.3808   572.4    2.935      44.546
2015    5       15     6  38    3.3806   572.1    2.938      44.523
2015    5       15     6  43    3.3803   571.8    2.941      44.500
2015    5       15     6  49    3.3801   571.6    2.944      44.476
2015    5       15     6  55    3.3799   571.3    2.947      44.451
2015    5       15     7   1    3.3797   571.0    2.950      44.426
2015    5       15     7   7    3.3795   570.7    2.953      44.400
2015    5       15     7  13    3.3793   570.5    2.956      44.374
2015    5       15     7  18    3.3791   570.2    2.958      44.347
2015    5       15     7  24    3.3789   569.9    2.961      44.319
2015    5       15     7  30    3.3787   569.6    2.964      44.291
2015    5       15     7  36    3.3785   569.4    2.966      44.263
2015    5       15     7  42    3.3783   569.1    2.969      44.233
2015    5       15     7  48    3.3781   568.8    2.971      44.204
2015    5       15     7  54    3.3779   568.6    2.974      44.173
2015    5       15     7  59    3.3777   568.3    2.976      44.143
2015    5       15     8   5    3.3775   568.0    2.979      44.112
2015    5       15     8  11    3.3773   567.8    2.981      44.080
2015    5       15     8  17    3.3771   567.5    2.984      44.048
2015    5       15     8  23    3.3769   567.2    2.986      44.016
2015    5       15     8  29    3.3767   567.0    2.988      43.983
2015    5       15     8  34    3.3765   566.7    2.990      43.950
2015    5       15     8  40    3.3763   566.4    2.993      43.917
2015    5       15     8  46    3.3761   566.2    2.995      43.883
2015    5       15     8  52    3.3758   565.9    2.997      43.849
2015    5       15     8  58    3.3756   565.6    3.000      43.815
2015    5       15     9   4    3.3754   565.4    3.002      43.780
2015    5       15     9   9    3.3752   565.1    3.004      43.745
2015    5       15     9  15    3.3750   564.8    3.006      43.711
2015    5       15     9  21    3.3748   564.6    3.009      43.676
2015    5       15     9  27    3.3746   564.3    3.011      43.640
2015    5       15     9  33    3.3744   564.0    3.013      43.605
2015    5       15     9  39    3.3742   563.7    3.015      43.570
2015    5       15     9  44    3.3740   563.5    3.018      43.535
2015    5       15     9  50    3.3739   563.2    3.020      43.500
2015    5       15     9  56    3.3737   562.9    3.023      43.465
2015    5       15    10   2    3.3735   562.6    3.025      43.430
2015    5       15    10   8    3.3734   562.4    3.028      43.396
2015    5       15    10  14    3.3733   562.1    3.030      43.362
2015    5       15    10  19    3.3731   561.8    3.033      43.328
2015    5       15    10  25    3.3730   561.5    3.036      43.295
2015    5       15    10  31    3.3729   561.3    3.039      43.262
2015    5       15    10  37    3.3729   561.0    3.042      43.229
2015    5       15    10  43    3.3728   560.7    3.045      43.197
2015    5       15    10  49    3.3728   560.4    3.048      43.166
2015    5       15    10  55    3.3727   560.2    3.051      43.135
2015    5       15    11   0    3.3727   559.9    3.054      43.105
2015    5       15    11   6    3.3727   559.6    3.057      43.075
2015    5       15    11  12    3.3727   559.3    3.060      43.046
2015    5       15    11  18    3.3728   559.0    3.064      43.017
2015    5       15    11  24    3.3728   558.8    3.067      42.989
2015    5       15    11  30    3.3729   558.5    3.071      42.961
2015    5       15    11  35    3.3730   558.2    3.074      42.934
2015    5       15    11  41    3.3731   557.9    3.078      42.908
2015    5       15    11  47    3.3733   557.7    3.081      42.882
2015    5       15    11  53    3.3734   557.4    3.085      42.856
2015    5       15    11  59    3.3735   557.1    3.089      42.831
2015    5       15    12   5    3.3737   556.9    3.092      42.806
2015    5       15    12  10    3.3739   556.6    3.096      42.781
2015    5       15    12  16    3.3741   556.3    3.099      42.757
2015    5       15    12  22    3.3743   556.1    3.103      42.733
2015    5       15    12  28    3.3746   555.8    3.107      42.709
2015    5       15    12  34    3.3748   555.5    3.110      42.685
2015    5       15    12  40    3.3751   555.3    3.114      42.662
2015    5       15    12  45    3.3753   555.0    3.118      42.638
2015    5       15    12  51    3.3756   554.7    3.121      42.615
2015    5       15    12  57    3.3759   554.5    3.125      42.592
2015    5       15    13   3    3.3761   554.2    3.129      42.569
2015    5       15    13   9    3.3764   554.0    3.132      42.545
2015    5       15    13  15    3.3767   553.7    3.136      42.523
2015    5       15    13  20    3.3770   553.4    3.139      42.499
2015    5       15    13  26    3.3773   553.2    3.142      42.477
2015    5       15    13  32    3.3776   552.9    3.146      42.454
2015    5       15    13  38    3.3779   552.7    3.149      42.431
2015    5       15    13  44    3.3782   552.4    3.152      42.408
2015    5       15    13  50    3.3784   552.2    3.156      42.385
2015    5       15    13  56    3.3787   551.9    3.159      42.362
2015    5       15    14   1    3.3790   551.7    3.162      42.338
2015    5       15    14   7    3.3793   551.4    3.165      42.315
2015    5       15    14  13    3.3795   551.2    3.168      42.291
2015    5       15    14  19    3.3798   550.9    3.171      42.267
2015    5       15    14  25    3.3800   550.7    3.174      42.243
2015    5       15    14  31    3.3803   550.4    3.177      42.218
2015    5       15    14  36    3.3805   550.2    3.180      42.194
2015    5       15    14  42    3.3808   549.9    3.183      42.169
2015    5       15    14  48    3.3810   549.7    3.186      42.144
2015    5       15    14  54    3.3812   549.4    3.189      42.119
2015    5       15    15   0    3.3815   549.2    3.192      42.094
2015    5       15    15   6    3.3817   549.0    3.195      42.069
2015    5       15    15  11    3.3819   548.7    3.197      42.044
2015    5       15    15  17    3.3821   548.5    3.200      42.019
2015    5       15    15  23    3.3824   548.2    3.203      41.993
2015    5       15    15  29    3.3826   548.0    3.206      41.967
2015    5       15    15  35    3.3828   547.8    3.208      41.941
2015    5       15    15  41    3.3830   547.5    3.211      41.916
2015    5       15    15  46    3.3832   547.3    3.214      41.890
2015    5       15    15  52    3.3834   547.0    3.216      41.864
2015    5       15    15  58    3.3836   546.8    3.219      41.838
2015    5       15    16   4    3.3838   546.6    3.221      41.812
2015    5       15    16  10    3.3840   546.3    3.224      41.785
2015    5       15    16  16    3.3842   546.1    3.227      41.759
2015    5       15    16  21    3.3844   545.8    3.229      41.733
2015    5       15    16  27    3.3846   545.6    3.232      41.707
2015    5       15    16  33    3.3848   545.4    3.234      41.681
2015    5       15    16  39    3.3850   545.1    3.237      41.655
2015    5       15    16  45    3.3852   544.9    3.240      41.629
2015    5       15    16  51    3.3854   544.6    3.242      41.604
2015    5       15    16  57    3.3856   544.4    3.245      41.578
2015    5       15    17   2    3.3858   544.1    3.248      41.553
2015    5       15    17   8    3.3861   543.9    3.250      41.528
2015    5       15    17  14    3.3863   543.7    3.253      41.504
2015    5       15    17  20    3.3865   543.4    3.256      41.479
2015    5       15    17  26    3.3867   543.2    3.259      41.455
2015    5       15    17  32    3.3870   542.9    3.261      41.431
2015    5       15    17  37    3.3872   542.7    3.264      41.408
2015    5       15    17  43    3.3874   542.5    3.267      41.385
2015    5       15    17  49    3.3877   542.2    3.270      41.362
2015    5       15    17  55    3.3879   542.0    3.273      41.340
2015    5       15    18   1    3.3882   541.7    3.276      41.317
2015    5       15    18   7    3.3885   541.5    3.279      41.296
2015    5       15    18  12    3.3887   541.3    3.282      41.274
2015    5       15    18  18    3.3890   541.0    3.285      41.253
2015    5       15    18  24    3.3893   540.8    3.289      41.232
2015    5       15    18  30    3.3896   540.5    3.292      41.211
2015    5       15    18  36    3.3899   540.3    3.295      41.191
2015    5       15    18  42    3.3902   540.1    3.298      41.171
2015    5       15    18  47    3.3906   539.8    3.302      41.151
2015    5       15    18  53    3.3909   539.6    3.305      41.131
2015    5       15    18  59    3.3912   539.4    3.308      41.111
2015    5       15    19   5    3.3915   539.1    3.312      41.092
2015    5       15    19  11    3.3919   538.9    3.315      41.073
2015    5       15    19  17    3.3922   538.6    3.318      41.053
2015    5       15    19  23    3.3925   538.4    3.322      41.034
2015    5       15    19  28    3.3929   538.2    3.325      41.015
2015    5       15    19  34    3.3932   537.9    3.328      40.995
2015    5       15    19  40    3.3935   537.7    3.332      40.976
2015    5       15    19  46    3.3939   537.5    3.335      40.957
2015    5       15    19  52    3.3942   537.2    3.339      40.938
2015    5       15    19  58    3.3946   537.0    3.342      40.919
2015    5       15    20   3    3.3949   536.7    3.345      40.900
2015    5       15    20   9    3.3952   536.5    3.349      40.881
2015    5       15    20  15    3.3956   536.3    3.352      40.862
2015    5       15    20  21    3.3960   536.0    3.356      40.843
2015    5       15    20  27    3.3963   535.8    3.359      40.824
2015    5       15    20  33    3.3967   535.6    3.362      40.805
2015    5       15    20  38    3.3970   535.3    3.366      40.787
2015    5       15    20  44    3.3974   535.1    3.369      40.768
2015    5       15    20  50    3.3978   534.9    3.373      40.750
2015    5       15    20  56    3.3981   534.6    3.376      40.732
2015    5       15    21   2    3.3985   534.4    3.380      40.714
2015    5       15    21   8    3.3989   534.2    3.383      40.696
2015    5       15    21  13    3.3993   533.9    3.387      40.678
2015    5       15    21  19    3.3996   533.7    3.390      40.660
2015    5       15    21  25    3.4000   533.5    3.394      40.643
2015    5       15    21  31    3.4004   533.2    3.397      40.625
2015    5       15    21  37    3.4007   533.0    3.401      40.607
2015    5       15    21  43    3.4011   532.8    3.404      40.590
2015    5       15    21  48    3.4014   532.6    3.408      40.572
2015    5       15    21  54    3.4018   532.3    3.411      40.554
2015    5       15    22   0    3.4021   532.1    3.415      40.536
2015    5       15    22   6    3.4025   531.9    3.418      40.519
2015    5       15    22  12    3.4028   531.6    3.422      40.501
2015    5       15    22  18    3.4032   531.4    3.425      40.482
2015    5       15    22  23    3.4035   531.2    3.428      40.464
2015    5       15    22  29    3.4038   531.0    3.432      40.446
2015    5       15    22  35    3.4041   530.7    3.435      40.427
2015    5       15    22  41    3.4044   530.5    3.438      40.408
2015    5       15    22  47    3.4047   530.3    3.441      40.389
2015    5       15    22  53    3.4050   530.1    3.445      40.369
2015    5       15    22  59    3.4053   529.8    3.448      40.350
2015    5       15    23   4    3.4056   529.6    3.451      40.330
2015    5       15    23  10    3.4059   529.4    3.454      40.310
2015    5       15    23  16    3.4062   529.2    3.457      40.290
2015    5       15    23  22    3.4065   528.9    3.460      40.270
2015    5       15    23  28    3.4068   528.7    3.463      40.250
2015    5       15    23  34    3.4071   528.5    3.466      40.230
2015    5       15    23  39    3.4074   528.3    3.469      40.209
2015    5       15    23  45    3.4077   528.0    3.472      40.189
2015    5       15    23  51    3.4080   527.8    3.474      40.168
2015    5       15    23  57    3.4083   527.6    3.477      40.148
2015    5       16     0   3    3.4086   527.4    3.480      40.127
2015    5       16     0   9    3.4089   527.1    3.483      40.106
2015    5       16     0  14    3.4092   526.9    3.486      40.086
2015    5       16     0  20    3.4095   526.7    3.488      40.065
2015    5       16     0  26    3.4099   526.5    3.491      40.045
2015    5       16     0  32    3.4102   526.2    3.494      40.024
2015    5       16     0  38    3.4106   526.0    3.496      40.004
2015    5       16     0  44    3.4109   525.8    3.499      39.983
2015    5       16     0  49    3.4113   525.6    3.502      39.963
2015    5       16     0  55    3.4116   525.3    3.504      39.943
2015    5       16     1   1    3.4120   525.1    3.507      39.922
2015    5       16     1   7    3.4123   524.9    3.510      39.902
2015    5       16     1  13    3.4127   524.7    3.512      39.882
2015    5       16     1  19    3.4130   524.5    3.515      39.862
2015    5       16     1  24    3.4133   524.2    3.518      39.842
2015    5       16     1  30    3.4137   524.0    3.520      39.822
2015    5       16     1  36    3.4140   523.8    3.523      39.802
2015    5       16     1  42    3.4144   523.6    3.525      39.782
2015    5       16     1  48    3.4147   523.4    3.528      39.762
2015    5       16     1  54    3.4150   523.1    3.531      39.743
2015    5       16     2   0    3.4154   522.9    3.533      39.723
2015    5       16     2   5    3.4157   522.7    3.536      39.703
2015    5       16     2  11    3.4160   522.5    3.538      39.684
2015    5       16     2  17    3.4163   522.3    3.541      39.664
2015    5       16     2  23    3.4166   522.0    3.543      39.645
2015    5       16     2  29    3.4169   521.8    3.546      39.625
2015    5       16     2  35    3.4173   521.6    3.549      39.606
2015    5       16     2  40    3.4176   521.4    3.551      39.586
2015    5       16     2  46    3.4179   521.2    3.554      39.567
2015    5       16     2  52    3.4182   521.0    3.556      39.548
2015    5       16     2  58    3.4185   520.7    3.559      39.529
2015    5       16     3   4    3.4188   520.5    3.562      39.509
2015    5       16     3  10    3.4190   520.3    3.564      39.490
2015    5       16     3  15    3.4194   520.1    3.567      39.471
2015    5       16     3  21    3.4196   519.9    3.570      39.453
2015    5       16     3  27    3.4199   519.6    3.572      39.434
2015    5       16     3  33    3.4202   519.4    3.575      39.416
2015    5       16     3  39    3.4205   519.2    3.578      39.397
2015    5       16     3  45    3.4208   519.0    3.581      39.379
2015    5       16     3  50    3.4211   518.8    3.584      39.361
2015    5       16     3  56    3.4214   518.5    3.587      39.343
2015    5       16     4   2    3.4217   518.3    3.590      39.326
2015    5       16     4   8    3.4220   518.1    3.593      39.309
2015    5       16     4  14    3.4223   517.9    3.596      39.291
2015    5       16     4  20    3.4226   517.7    3.599      39.275
2015    5       16     4  25    3.4230   517.5    3.602      39.258
2015    5       16     4  31    3.4233   517.2    3.605      39.242
2015    5       16     4  37    3.4236   517.0    3.608      39.226
2015    5       16     4  43    3.4240   516.8    3.612      39.210
2015    5       16     4  49    3.4243   516.6    3.615      39.194
2015    5       16     4  55    3.4246   516.4    3.618      39.179
2015    5       16     5   1    3.4250   516.1    3.622      39.163
2015    5       16     5   6    3.4253   515.9    3.625      39.148
2015    5       16     5  12    3.4257   515.7    3.629      39.133
2015    5       16     5  18    3.4260   515.5    3.632      39.118
2015    5       16     5  24    3.4263   515.3    3.636      39.102
2015    5       16     5  30    3.4267   515.1    3.639      39.087
2015    5       16     5  36    3.4270   514.9    3.643      39.072
2015    5       16     5  41    3.4274   514.6    3.646      39.057
2015    5       16     5  47    3.4277   514.4    3.650      39.042
2015    5       16     5  53    3.4281   514.2    3.653      39.026
2015    5       16     5  59    3.4284   514.0    3.657      39.011
2015    5       16     6   5    3.4288   513.8    3.660      38.995
2015    5       16     6  11    3.4291   513.5    3.664      38.980
2015    5       16     6  16    3.4295   513.3    3.667      38.964
2015    5       16     6  22    3.4299   513.1    3.671      38.948
2015    5       16     6  28    3.4302   512.9    3.674      38.932
2015    5       16     6  34    3.4306   512.7    3.678      38.916
2015    5       16     6  40    3.4310   512.4    3.681      38.900
2015    5       16     6  46    3.4314   512.2    3.685      38.884
2015    5       16     6  51    3.4318   512.0    3.688      38.867
2015    5       16     6  57    3.4322   511.8    3.692      38.851
2015    5       16     7   3    3.4326   511.6    3.695      38.835
2015    5       16     7   9    3.4331   511.4    3.699      38.819
2015    5       16     7  15    3.4335   511.1    3.702      38.803
2015    5       16     7  21    3.4339   510.9    3.706      38.786
2015    5       16     7  26    3.4344   510.7    3.709      38.770
2015    5       16     7  32    3.4349   510.5    3.712      38.754
2015    5       16     7  38    3.4354   510.3    3.716      38.738
2015    5       16     7  44    3.4359   510.0    3.719      38.722
2015    5       16     7  50    3.4364   509.8    3.723      38.706
2015    5       16     7  56    3.4369   509.6    3.726      38.690
2015    5       16     8   1    3.4374   509.4    3.730      38.674
2015    5       16     8   7    3.4379   509.2    3.733      38.658
2015    5       16     8  13    3.4385   509.0    3.737      38.642
2015    5       16     8  19    3.4390   508.8    3.740      38.626
2015    5       16     8  25    3.4395   508.5    3.743      38.610
2015    5       16     8  31    3.4400   508.3    3.747      38.594
2015    5       16     8  37    3.4405   508.1    3.750      38.578
2015    5       16     8  42    3.4410   507.9    3.754      38.562
2015    5       16     8  48    3.4415   507.7    3.757      38.546
2015    5       16     8  54    3.4420   507.5    3.760      38.530
2015    5       16     9   0    3.4425   507.3    3.763      38.514
2015    5       16     9   6    3.4429   507.1    3.767      38.498
2015    5       16     9  12    3.4434   506.9    3.770      38.481
2015    5       16     9  17    3.4438   506.7    3.773      38.465
2015    5       16     9  23    3.4443   506.4    3.776      38.449
2015    5       16     9  29    3.4447   506.2    3.779      38.432
2015    5       16     9  35    3.4451   506.0    3.782      38.415
2015    5       16     9  41    3.4456   505.8    3.785      38.399
2015    5       16     9  47    3.4460   505.6    3.789      38.382
2015    5       16     9  52    3.4464   505.4    3.791      38.365
2015    5       16     9  58    3.4468   505.2    3.794      38.348
2015    5       16    10   4    3.4472   505.0    3.797      38.331
2015    5       16    10  10    3.4476   504.8    3.800      38.313
2015    5       16    10  16    3.4480   504.6    3.803      38.296
2015    5       16    10  22    3.4484   504.4    3.806      38.279
2015    5       16    10  27    3.4488   504.2    3.809      38.261
2015    5       16    10  33    3.4492   504.0    3.812      38.243
2015    5       16    10  39    3.4496   503.7    3.814      38.225
2015    5       16    10  45    3.4500   503.5    3.817      38.207
2015    5       16    10  51    3.4504   503.3    3.820      38.189
2015    5       16    10  57    3.4507   503.1    3.823      38.171
2015    5       16    11   2    3.4511   502.9    3.825      38.153
2015    5       16    11   8    3.4515   502.7    3.828      38.135
2015    5       16    11  14    3.4518   502.5    3.831      38.117
2015    5       16    11  20    3.4522   502.3    3.833      38.098
2015    5       16    11  26    3.4526   502.1    3.836      38.080
2015    5       16    11  32    3.4529   501.9    3.839      38.061
2015    5       16    11  38    3.4533   501.7    3.841      38.043
2015    5       16    11  43    3.4537   501.5    3.844      38.024
2015    5       16    11  49    3.4540   501.3    3.847      38.006
2015    5       16    11  55    3.4544   501.0    3.849      37.987
2015    5       16    12   1    3.4548   500.8    3.852      37.968
2015    5       16    12   7    3.4551   500.6    3.855      37.950
2015    5       16    12  13    3.4555   500.4    3.857      37.931
2015    5       16    12  18    3.4558   500.2    3.860      37.912
2015    5       16    12  24    3.4562   500.0    3.863      37.893
2015    5       16    12  30    3.4566   499.8    3.866      37.874
2015    5       16    12  36    3.4570   499.6    3.868      37.855
2015    5       16    12  42    3.4573   499.4    3.871      37.837
2015    5       16    12  48    3.4577   499.2    3.874      37.818
2015    5       16    12  53    3.4581   499.0    3.877      37.799
2015    5       16    12  59    3.4585   498.7    3.879      37.780
2015    5       16    13   5    3.4589   498.5    3.882      37.761
2015    5       16    13  11    3.4593   498.3    3.885      37.742
2015    5       16    13  17    3.4597   498.1    3.888      37.723
2015    5       16    13  23    3.4602   497.9    3.891      37.704
2015    5       16    13  28    3.4606   497.7    3.894      37.685
2015    5       16    13  34    3.4610   497.5    3.897      37.666
2015    5       16    13  40    3.4615   497.3    3.900      37.648
2015    5       16    13  46    3.4619   497.1    3.903      37.629
2015    5       16    13  52    3.4624   496.8    3.906      37.610
2015    5       16    13  58    3.4629   496.6    3.909      37.591
2015    5       16    14   3    3.4634   496.4    3.912      37.573
2015    5       16    14   9    3.4639   496.2    3.915      37.554
2015    5       16    14  15    3.4644   496.0    3.918      37.536
2015    5       16    14  21    3.4649   495.8    3.922      37.517
2015    5       16    14  27    3.4654   495.6    3.925      37.499
2015    5       16    14  33    3.4659   495.4    3.928      37.481
2015    5       16    14  39    3.4665   495.1    3.931      37.463
2015    5       16    14  44    3.4670   494.9    3.935      37.445
2015    5       16    14  50    3.4676   494.7    3.938      37.427
2015    5       16    14  56    3.4682   494.5    3.942      37.409
2015    5       16    15   2    3.4687   494.3    3.945      37.392
2015    5       16    15   8    3.4693   494.1    3.948      37.374
2015    5       16    15  14    3.4699   493.9    3.952      37.357
2015    5       16    15  19    3.4705   493.7    3.955      37.340
2015    5       16    15  25    3.4711   493.5    3.959      37.322
2015    5       16    15  31    3.4717   493.3    3.963      37.306
2015    5       16    15  37    3.4723   493.1    3.966      37.289
2015    5       16    15  43    3.4729   492.8    3.970      37.272
2015    5       16    15  49    3.4735   492.6    3.973      37.255
2015    5       16    15  54    3.4741   492.4    3.977      37.238
2015    5       16    16   0    3.4747   492.2    3.981      37.222
2015    5       16    16   6    3.4753   492.0    3.984      37.205
2015    5       16    16  12    3.4758   491.8    3.988      37.189
2015    5       16    16  18    3.4764   491.6    3.992      37.172
2015    5       16    16  24    3.4770   491.4    3.995      37.156
2015    5       16    16  29    3.4776   491.2    3.999      37.139
2015    5       16    16  35    3.4781   491.0    4.002      37.123
2015    5       16    16  41    3.4787   490.8    4.006      37.106
2015    5       16    16  47    3.4792   490.6    4.010      37.090
2015    5       16    16  53    3.4798   490.4    4.013      37.073
2015    5       16    16  59    3.4803   490.2    4.017      37.057
2015    5       16    17   5    3.4809   490.0    4.021      37.040
2015    5       16    17  10    3.4814   489.7    4.024      37.023
2015    5       16    17  16    3.4819   489.5    4.028      37.007
2015    5       16    17  22    3.4825   489.3    4.031      36.990
2015    5       16    17  28    3.4830   489.1    4.035      36.973
2015    5       16    17  34    3.4835   488.9    4.038      36.956
2015    5       16    17  40    3.4840   488.7    4.042      36.939
2015    5       16    17  45    3.4846   488.5    4.045      36.922
2015    5       16    17  51    3.4851   488.3    4.049      36.904
2015    5       16    17  57    3.4856   488.1    4.052      36.887
2015    5       16    18   3    3.4862   487.9    4.056      36.870
2015    5       16    18   9    3.4867   487.7    4.059      36.853
2015    5       16    18  15    3.4872   487.5    4.063      36.836
2015    5       16    18  20    3.4878   487.3    4.066      36.818
2015    5       16    18  26    3.4883   487.1    4.070      36.801
2015    5       16    18  32    3.4889   486.9    4.073      36.783
2015    5       16    18  38    3.4894   486.7    4.076      36.766
2015    5       16    18  44    3.4900   486.5    4.080      36.748
2015    5       16    18  50    3.4905   486.3    4.083      36.731
2015    5       16    18  55    3.4911   486.1    4.087      36.713
2015    5       16    19   1    3.4917   485.8    4.090      36.696
2015    5       16    19   7    3.4922   485.6    4.093      36.678
2015    5       16    19  13    3.4928   485.4    4.097      36.660
2015    5       16    19  19    3.4934   485.2    4.100      36.642
2015    5       16    19  25    3.4940   485.0    4.103      36.624
2015    5       16    19  31    3.4946   484.8    4.107      36.607
2015    5       16    19  36    3.4952   484.6    4.110      36.589
2015    5       16    19  42    3.4958   484.4    4.114      36.571
2015    5       16    19  48    3.4964   484.2    4.117      36.553
2015    5       16    19  54    3.4970   484.0    4.120      36.535
2015    5       16    20   0    3.4977   483.8    4.124      36.517
2015    5       16    20   6    3.4983   483.6    4.127      36.498
2015    5       16    20  11    3.4990   483.4    4.130      36.480
2015    5       16    20  17    3.4996   483.2    4.134      36.462
2015    5       16    20  23    3.5003   483.0    4.137      36.444
2015    5       16    20  29    3.5009   482.8    4.140      36.426
2015    5       16    20  35    3.5016   482.6    4.144      36.408
2015    5       16    20  41    3.5023   482.4    4.147      36.389
2015    5       16    20  46    3.5030   482.2    4.151      36.371
2015    5       16    20  52    3.5037   481.9    4.154      36.353
2015    5       16    20  58    3.5044   481.7    4.158      36.335
2015    5       16    21   4    3.5051   481.5    4.161      36.317
2015    5       16    21  10    3.5058   481.3    4.165      36.299
2015    5       16    21  16    3.5065   481.1    4.168      36.281
2015    5       16    21  21    3.5073   480.9    4.172      36.263
2015    5       16    21  27    3.5080   480.7    4.175      36.245
2015    5       16    21  33    3.5087   480.5    4.179      36.227
2015    5       16    21  39    3.5095   480.3    4.182      36.209
2015    5       16    21  45    3.5102   480.1    4.186      36.191
2015    5       16    21  51    3.5110   479.9    4.189      36.173
2015    5       16    21  57    3.5117   479.7    4.193      36.155
2015    5       16    22   2    3.5125   479.5    4.196      36.137
2015    5       16    22   8    3.5132   479.3    4.200      36.119
2015    5       16    22  14    3.5140   479.1    4.204      36.101
2015    5       16    22  20    3.5147   478.9    4.207      36.083
2015    5       16    22  26    3.5155   478.7    4.211      36.065
2015    5       16    22  32    3.5162   478.5    4.214      36.046
2015    5       16    22  37    3.5169   478.3    4.218      36.028
2015    5       16    22  43    3.5177   478.1    4.221      36.010
2015    5       16    22  49    3.5184   477.8    4.225      35.992
2015    5       16    22  55    3.5191   477.6    4.229      35.973
2015    5       16    23   1    3.5198   477.4    4.232      35.955
2015    5       16    23   7    3.5205   477.2    4.236      35.936
2015    5       16    23  12    3.5212   477.0    4.239      35.917
2015    5       16    23  18    3.5219   476.8    4.243      35.898
2015    5       16    23  24    3.5226   476.6    4.246      35.879
2015    5       16    23  30    3.5233   476.4    4.250      35.860
2015    5       16    23  36    3.5240   476.2    4.253      35.841
2015    5       16    23  42    3.5246   476.0    4.257      35.822
2015    5       16    23  47    3.5253   475.8    4.260      35.802
2015    5       16    23  53    3.5260   475.6    4.263      35.783
2015    5       16    23  59    3.5266   475.4    4.267      35.763
2015    5       17     0   5    3.5273   475.2    4.270      35.744
2015    5       17     0  11    3.5279   475.0    4.274      35.724
2015    5       17     0  17    3.5286   474.8    4.277      35.704
2015    5       17     0  23    3.5292   474.6    4.281      35.684
2015    5       17     0  28    3.5299   474.4    4.284      35.664
2015    5       17     0  34    3.5305   474.1    4.287      35.644
2015    5       17     0  40    3.5311   473.9    4.291      35.624
2015    5       17     0  46    3.5318   473.7    4.294      35.603
2015    5       17     0  52    3.5324   473.5    4.297      35.583
2015    5       17     0  58    3.5331   473.3    4.301      35.563
2015    5       17     1   3    3.5337   473.1    4.304      35.542
2015    5       17     1   9    3.5343   472.9    4.308      35.522
2015    5       17     1  15    3.5350   472.7    4.311      35.501
2015    5       17     1  21    3.5356   472.5    4.314      35.481
2015    5       17     1  27    3.5363   472.3    4.318      35.461
2015    5       17     1  33    3.5369   472.1    4.321      35.440
2015    5       17     1  38    3.5375   471.9    4.325      35.420
2015    5       17     1  44    3.5382   471.7    4.328      35.399
2015    5       17     1  50    3.5388   471.5    4.332      35.379
2015    5       17     1  56    3.5395   471.2    4.335      35.358
2015    5       17     2   2    3.5401   471.0    4.339      35.338
2015    5       17     2   8    3.5408   470.8    4.342      35.318
2015    5       17     2  13    3.5414   470.6    4.346      35.297
2015    5       17     2  19    3.5421   470.4    4.349      35.277
2015    5       17     2  25    3.5427   470.2    4.353      35.257
2015    5       17     2  31    3.5434   470.0    4.356      35.236
2015    5       17     2  37    3.5440   469.8    4.360      35.216
2015    5       17     2  43    3.5446   469.6    4.363      35.196
2015    5       17     2  48    3.5453   469.4    4.367      35.175
2015    5       17     2  54    3.5459   469.2    4.370      35.155
2015    5       17     3   0    3.5465   469.0    4.374      35.134
2015    5       17     3   6    3.5472   468.8    4.378      35.114
2015    5       17     3  12    3.5478   468.5    4.381      35.094
2015    5       17     3  18    3.5484   468.3    4.385      35.073
2015    5       17     3  24    3.5490   468.1    4.388      35.053
2015    5       17     3  29    3.5496   467.9    4.392      35.032
2015    5       17     3  35    3.5502   467.7    4.396      35.011
2015    5       17     3  41    3.5508   467.5    4.399      34.991
2015    5       17     3  47    3.5514   467.3    4.403      34.970
2015    5       17     3  53    3.5520   467.1    4.406      34.949
2015    5       17     3  59    3.5525   466.9    4.410      34.928
2015    5       17     4   4    3.5531   466.7    4.413      34.908
2015    5       17     4  10    3.5537   466.5    4.417      34.887
2015    5       17     4  16    3.5542   466.2    4.421      34.866
2015    5       17     4  22    3.5548   466.0    4.424      34.845
2015    5       17     4  28    3.5553   465.8    4.428      34.824
2015    5       17     4  34    3.5558   465.6    4.431      34.803
2015    5       17     4  39    3.5564   465.4    4.435      34.782
2015    5       17     4  45    3.5569   465.2    4.439      34.760
2015    5       17     4  51    3.5574   465.0    4.442      34.739
2015    5       17     4  57    3.5579   464.8    4.446      34.718
2015    5       17     5   3    3.5583   464.6    4.449      34.697
2015    5       17     5   9    3.5588   464.4    4.453      34.675
2015    5       17     5  14    3.5592   464.1    4.456      34.654
2015    5       17     5  20    3.5596   463.9    4.460      34.632
2015    5       17     5  26    3.5600   463.7    4.464      34.611
2015    5       17     5  32    3.5604   463.5    4.467      34.589
2015    5       17     5  38    3.5608   463.3    4.471      34.568
2015    5       17     5  44    3.5612   463.1    4.474      34.546
2015    5       17     5  50    3.5615   462.9    4.478      34.524
2015    5       17     5  55    3.5618   462.7    4.481      34.502
2015    5       17     6   1    3.5621   462.5    4.485      34.481
2015    5       17     6   7    3.5624   462.3    4.488      34.459
2015    5       17     6  13    3.5627   462.0    4.492      34.437
2015    5       17     6  19    3.5629   461.8    4.495      34.415
2015    5       17     6  25    3.5632   461.6    4.499      34.392
2015    5       17     6  30    3.5634   461.4    4.502      34.370
2015    5       17     6  36    3.5636   461.2    4.506      34.348
2015    5       17     6  42    3.5638   461.0    4.509      34.326
2015    5       17     6  48    3.5640   460.8    4.513      34.303
2015    5       17     6  54    3.5642   460.6    4.516      34.281
2015    5       17     7   0    3.5644   460.4    4.520      34.258
2015    5       17     7   5    3.5645   460.2    4.523      34.235
2015    5       17     7  11    3.5647   460.0    4.526      34.212
2015    5       17     7  17    3.5648   459.7    4.530      34.189
2015    5       17     7  23    3.5650   459.5    4.533      34.166
2015    5       17     7  29    3.5651   459.3    4.537      34.143
2015    5       17     7  35    3.5652   459.1    4.540      34.120
2015    5       17     7  40    3.5653   458.9    4.544      34.096
2015    5       17     7  46    3.5654   458.7    4.547      34.073
2015    5       17     7  52    3.5655   458.5    4.550      34.049
2015    5       17     7  58    3.5655   458.3    4.554      34.026
2015    5       17     8   4    3.5656   458.0    4.557      34.002
2015    5       17     8  10    3.5657   457.8    4.561      33.978
2015    5       17     8  15    3.5658   457.6    4.564      33.954
2015    5       17     8  21    3.5659   457.4    4.568      33.931
2015    5       17     8  27    3.5659   457.2    4.571      33.907
2015    5       17     8  33    3.5660   457.0    4.575      33.883
2015    5       17     8  39    3.5661   456.8    4.578      33.859
2015    5       17     8  45    3.5661   456.5    4.582      33.836
2015    5       17     8  51    3.5662   456.3    4.586      33.812
2015    5       17     8  56    3.5663   456.1    4.589      33.789
2015    5       17     9   2    3.5664   455.9    4.593      33.766
2015    5       17     9   8    3.5665   455.7    4.597      33.742
2015    5       17     9  14    3.5666   455.4    4.601      33.719
2015    5       17     9  20    3.5668   455.2    4.605      33.697
2015    5       17     9  26    3.5669   455.0    4.609      33.674
2015    5       17     9  31    3.5670   454.8    4.613      33.652
2015    5       17     9  37    3.5672   454.6    4.617      33.629
2015    5       17     9  43    3.5674   454.4    4.621      33.608
2015    5       17     9  49    3.5676   454.1    4.625      33.586
2015    5       17     9  55    3.5678   453.9    4.629      33.565
2015    5       17    10   1    3.5680   453.7    4.634      33.543
2015    5       17    10   6    3.5683   453.5    4.638      33.523
2015    5       17    10  12    3.5685   453.3    4.643      33.502
2015    5       17    10  18    3.5688   453.0    4.647      33.482
2015    5       17    10  24    3.5691   452.8    4.652      33.462
2015    5       17    10  30    3.5695   452.6    4.657      33.442
2015    5       17    10  36    3.5698   452.4    4.662      33.422
2015    5       17    10  41    3.5702   452.2    4.666      33.403
2015    5       17    10  47    3.5706   451.9    4.671      33.384
2015    5       17    10  53    3.5711   451.7    4.676      33.366
2015    5       17    10  59    3.5715   451.5    4.681      33.347
2015    5       17    11   5    3.5720   451.3    4.687      33.329
2015    5       17    11  11    3.5725   451.1    4.692      33.311
2015    5       17    11  16    3.5730   450.9    4.697      33.294
2015    5       17    11  22    3.5736   450.7    4.702      33.276
2015    5       17    11  28    3.5742   450.4    4.707      33.259
2015    5       17    11  34    3.5748   450.2    4.713      33.242
2015    5       17    11  40    3.5755   450.0    4.718      33.225
2015    5       17    11  46    3.5761   449.8    4.724      33.208
2015    5       17    11  52    3.5768   449.6    4.729      33.192
2015    5       17    11  57    3.5775   449.4    4.734      33.175
2015    5       17    12   3    3.5783   449.2    4.740      33.159
2015    5       17    12   9    3.5791   449.0    4.745      33.143
2015    5       17    12  15    3.5799   448.7    4.751      33.127
2015    5       17    12  21    3.5807   448.5    4.756      33.111
2015    5       17    12  27    3.5816   448.3    4.762      33.095
2015    5       17    12  32    3.5824   448.1    4.767      33.079
2015    5       17    12  38    3.5833   447.9    4.773      33.064
2015    5       17    12  44    3.5843   447.7    4.778      33.048
2015    5       17    12  50    3.5852   447.5    4.784      33.033
2015    5       17    12  56    3.5862   447.3    4.789      33.018
2015    5       17    13   2    3.5873   447.1    4.795      33.002
2015    5       17    13   7    3.5883   446.9    4.801      32.987
2015    5       17    13  13    3.5894   446.7    4.806      32.973
2015    5       17    13  19    3.5905   446.5    4.812      32.958
2015    5       17    13  25    3.5916   446.3    4.817      32.943
2015    5       17    13  31    3.5928   446.1    4.823      32.929
2015    5       17    13  37    3.5940   445.9    4.829      32.915
2015    5       17    13  42    3.5953   445.6    4.834      32.901
2015    5       17    13  48    3.5966   445.4    4.840      32.887
2015    5       17    13  54    3.5979   445.2    4.846      32.874
2015    5       17    14   0    3.5992   445.0    4.852      32.861
2015    5       17    14   6    3.6006   444.8    4.858      32.848
2015    5       17    14  12    3.6021   444.6    4.864      32.836
2015    5       17    14  17    3.6035   444.4    4.870      32.823
2015    5       17    14  23    3.6051   444.2    4.876      32.812
2015    5       17    14  29    3.6066   444.0    4.882      32.800
2015    5       17    14  35    3.6082   443.9    4.889      32.790
2015    5       17    14  41    3.6099   443.7    4.895      32.779
2015    5       17    14  47    3.6116   443.5    4.902      32.770
2015    5       17    14  53    3.6134   443.3    4.908      32.761
2015    5       17    14  58    3.6152   443.1    4.915      32.752
2015    5       17    15   4    3.6170   442.9    4.922      32.744
2015    5       17    15  10    3.6190   442.7    4.929      32.737
2015    5       17    15  16    3.6210   442.5    4.937      32.730
2015    5       17    15  22    3.6230   442.3    4.944      32.724
2015    5       17    15  28    3.6251   442.1    4.952      32.719
2015    5       17    15  33    3.6273   441.9    4.960      32.714
2015    5       17    15  39    3.6295   441.7    4.968      32.711
2015    5       17    15  45    3.6318   441.6    4.976      32.708
2015    5       17    15  51    3.6342   441.4    4.985      32.706
2015    5       17    15  57    3.6366   441.2    4.993      32.704
2015    5       17    16   3    3.6391   441.0    5.002      32.704
2015    5       17    16   8    3.6417   440.8    5.012      32.704
2015    5       17    16  14    3.6444   440.6    5.021      32.706
2015    5       17    16  20    3.6471   440.5    5.031      32.708
2015    5       17    16  26    3.6500   440.3    5.041      32.711
2015    5       17    16  32    3.6528   440.1    5.051      32.715
2015    5       17    16  38    3.6558   440.0    5.062      32.719
2015    5       17    16  43    3.6589   439.8    5.073      32.725
2015    5       17    16  49    3.6620   439.6    5.084      32.731
2015    5       17    16  55    3.6652   439.4    5.096      32.739
2015    5       17    17   1    3.6686   439.3    5.108      32.747
2015    5       17    17   7    3.6719   439.1    5.120      32.755
2015    5       17    17  13    3.6754   439.0    5.132      32.765
2015    5       17    17  18    3.6789   438.8    5.145      32.775
2015    5       17    17  24    3.6826   438.6    5.158      32.786
2015    5       17    17  30    3.6863   438.5    5.171      32.798
2015    5       17    17  36    3.6901   438.3    5.185      32.811
2015    5       17    17  42    3.6940   438.2    5.199      32.824
2015    5       17    17  48    3.6980   438.0    5.213      32.838
2015    5       17    17  54    3.7020   437.9    5.228      32.853
2015    5       17    17  59    3.7061   437.7    5.243      32.868
2015    5       17    18   5    3.7104   437.5    5.259      32.884
2015    5       17    18  11    3.7147   437.4    5.274      32.901
2015    5       17    18  17    3.7191   437.2    5.291      32.918
2015    5       17    18  23    3.7236   437.1    5.307      32.936
2015    5       17    18  29    3.7281   437.0    5.324      32.955
2015    5       17    18  34    3.7328   436.8    5.341      32.974
2015    5       17    18  40    3.7375   436.7    5.359      32.993
2015    5       17    18  46    3.7423   436.5    5.377      33.013
2015    5       17    18  52    3.7472   436.4    5.395      33.033
2015    5       17    18  58    3.7522   436.2    5.414      33.054
2015    5       17    19   4    3.7572   436.1    5.433      33.075
2015    5       17    19   9    3.7623   436.0    5.453      33.097
2015    5       17    19  15    3.7674   435.8    5.473      33.119
2015    5       17    19  21    3.7726   435.7    5.493      33.141
2015    5       17    19  27    3.7778   435.6    5.514      33.163
2015    5       17    19  33    3.7831   435.4    5.535      33.185
2015    5       17    19  39    3.7883   435.3    5.557      33.208
2015    5       17    19  44    3.7936   435.2    5.579      33.230
2015    5       17    19  50    3.7989   435.0    5.602      33.253
2015    5       17    19  56    3.8043   434.9    5.625      33.275
2015    5       17    20   2    3.8095   434.8    5.649      33.297
2015    5       17    20   8    3.8149   434.7    5.673      33.319
2015    5       17    20  14    3.8202   434.5    5.698      33.340
2015    5       17    20  19    3.8255   434.4    5.723      33.361
2015    5       17    20  25    3.8308   434.3    5.749      33.382
2015    5       17    20  31    3.8361   434.2    5.775      33.401
2015    5       17    20  37    3.8414   434.1    5.802      33.419
2015    5       17    20  43    3.8466   434.0    5.830      33.437
2015    5       17    20  49    3.8518   433.8    5.858      33.454
2015    5       17    20  55    3.8571   433.7    5.887      33.471
2015    5       17    21   0    3.8622   433.6    5.916      33.489
2015    5       17    21   6    3.8673   433.5    5.945      33.507
2015    5       17    21  12    3.8724   433.4    5.974      33.529
2015    5       17    21  18    3.8774   433.3    6.003      33.554
2015    5       17    21  24    3.8824   433.2    6.032      33.583
2015    5       17    21  30    3.8873   433.1    6.060      33.617
2015    5       17    21  35    3.8922   433.0    6.088      33.655
2015    5       17    21  41    3.8970   432.9    6.115      33.698
2015    5       17    21  47    3.9017   432.8    6.141      33.747
2015    5       17    21  53    3.9064   432.7    6.167      33.801
2015    5       17    21  59    3.9110   432.6    6.192      33.861
2015    5       17    22   5    3.9155   432.5    6.216      33.926
2015    5       17    22  10    3.9200   432.4    6.240      33.997
2015    5       17    22  16    3.9244   432.3    6.263      34.074
2015    5       17    22  22    3.9287   432.2    6.285      34.156
2015    5       17    22  28    3.9329   432.1    6.306      34.243
2015    5       17    22  34    3.9371   432.0    6.326      34.336
2015    5       17    22  40    3.9412   431.9    6.345      34.434
2015    5       17    22  45    3.9453   431.8    6.364      34.537
2015    5       17    22  51    3.9493   431.7    6.382      34.645
2015    5       17    22  57    3.9532   431.6    6.399      34.758
2015    5       17    23   3    3.9571   431.5    6.416      34.876
2015    5       17    23   9    3.9609   431.4    6.431      34.998
2015    5       17    23  15    3.9647   431.3    6.446      35.126
2015    5       17    23  20    3.9685   431.2    6.460      35.258
2015    5       17    23  26    3.9722   431.1    6.474      35.394
2015    5       17    23  32    3.9758   431.0    6.487      35.534
2015    5       17    23  38    3.9795   430.9    6.499      35.678
2015    5       17    23  44    3.9831   430.8    6.510      35.828
2015    5       17    23  50    3.9867   430.7    6.521      35.982
2015    5       17    23  56    3.9902   430.6    6.531      36.140
2015    5       18     0   1    3.9938   430.5    6.541      36.301
2015    5       18     0   7    3.9973   430.4    6.550      36.466
2015    5       18     0  13    4.0008   430.3    6.558      36.633
2015    5       18     0  19    4.0043   430.2    6.566      36.802
2015    5       18     0  25    4.0078   430.1    6.574      36.973
2015    5       18     0  31    4.0113   430.0    6.580      37.144
2015    5       18     0  36    4.0148   429.9    6.587      37.315
2015    5       18     0  42    4.0182   429.8    6.593      37.485
2015    5       18     0  48    4.0217   429.7    6.598      37.655
2015    5       18     0  54    4.0252   429.6    6.603      37.825
2015    5       18     1   0    4.0286   429.5    6.607      37.994
2015    5       18     1   6    4.0321   429.4    6.612      38.162
2015    5       18     1  11    4.0356   429.3    6.615      38.329
2015    5       18     1  17    4.0391   429.2    6.618      38.495
2015    5       18     1  23    4.0426   429.1    6.621      38.660
2015    5       18     1  29    4.0461   429.0    6.623      38.823
2015    5       18     1  35    4.0496   428.9    6.625      38.985
2015    5       18     1  41    4.0532   428.8    6.627      39.145
2015    5       18     1  46    4.0567   428.7    6.628      39.304
2015    5       18     1  52    4.0603   428.6    6.629      39.460
2015    5       18     1  58    4.0639   428.5    6.629      39.615
2015    5       18     2   4    4.0676   428.4    6.629      39.767
2015    5       18     2  10    4.0713   428.3    6.628      39.918
2015    5       18     2  16    4.0750   428.2    6.627      40.066
2015    5       18     2  21    4.0787   428.1    6.626      40.211
2015    5       18     2  27    4.0825   428.0    6.624      40.354
2015    5       18     2  33    4.0864   427.9    6.621      40.495
2015    5       18     2  39    4.0903   427.8    6.619      40.633
2015    5       18     2  45    4.0942   427.7    6.615      40.767
2015    5       18     2  51    4.0982   427.7    6.612      40.900
2015    5       18     2  57    4.1022   427.6    6.608      41.028
2015    5       18     3   2    4.1063   427.5    6.604      41.154
2015    5       18     3   8    4.1103   427.4    6.599      41.277
2015    5       18     3  14    4.1144   427.3    6.594      41.397
2015    5       18     3  20    4.1185   427.3    6.588      41.513
2015    5       18     3  26    4.1227   427.2    6.582      41.626
2015    5       18     3  32    4.1268   427.1    6.576      41.735
2015    5       18     3  37    4.1310   427.1    6.569      41.841
2015    5       18     3  43    4.1351   427.0    6.562      41.944
2015    5       18     3  49    4.1392   426.9    6.555      42.042
2015    5       18     3  55    4.1434   426.9    6.548      42.136
2015    5       18     4   1    4.1475   426.8    6.540      42.225
2015    5       18     4   7    4.1516   426.8    6.531      42.311
2015    5       18     4  12    4.1557   426.7    6.523      42.392
2015    5       18     4  18    4.1598   426.6    6.514      42.470
2015    5       18     4  24    4.1639   426.6    6.505      42.542
2015    5       18     4  30    4.1680   426.5    6.496      42.611
2015    5       18     4  36    4.1720   426.5    6.487      42.677
2015    5       18     4  42    4.1761   426.4    6.477      42.739
2015    5       18     4  47    4.1802   426.4    6.468      42.798
2015    5       18     4  53    4.1842   426.3    6.458      42.854
2015    5       18     4  59    4.1882   426.2    6.448      42.908
2015    5       18     5   5    4.1923   426.2    6.437      42.962
2015    5       18     5  11    4.1963   426.1    6.427      43.013
2015    5       18     5  17    4.2003   426.0    6.416      43.064
2015    5       18     5  22    4.2043   425.9    6.404      43.114
2015    5       18     5  28    4.2083   425.9    6.393      43.163
2015    5       18     5  34    4.2122   425.8    6.382      43.210
2015    5       18     5  40    4.2162   425.7    6.371      43.256
2015    5       18     5  46    4.2202   425.6    6.359      43.300
2015    5       18     5  52    4.2242   425.5    6.348      43.343
2015    5       18     5  58    4.2282   425.4    6.337      43.384
2015    5       18     6   3    4.2322   425.3    6.326      43.424
2015    5       18     6   9    4.2363   425.2    6.315      43.462
2015    5       18     6  15    4.2403   425.1    6.305      43.498
2015    5       18     6  21    4.2444   425.0    6.294      43.533
2015    5       18     6  27    4.2486   425.0    6.284      43.566
2015    5       18     6  33    4.2529   424.9    6.274      43.598
2015    5       18     6  38    4.2571   424.8    6.264      43.628
2015    5       18     6  44    4.2615   424.7    6.254      43.656
2015    5       18     6  50    4.2659   424.6    6.244      43.683
2015    5       18     6  56    4.2704   424.5    6.235      43.707
2015    5       18     7   2    4.2749   424.4    6.225      43.730
2015    5       18     7   8    4.2796   424.3    6.216      43.751
2015    5       18     7  13    4.2843   424.3    6.207      43.770
2015    5       18     7  19    4.2890   424.2    6.198      43.787
2015    5       18     7  25    4.2938   424.1    6.189      43.803
2015    5       18     7  31    4.2987   424.0    6.180      43.817
2015    5       18     7  37    4.3036   423.9    6.172      43.830
2015    5       18     7  43    4.3087   423.9    6.163      43.841
2015    5       18     7  48    4.3137   423.8    6.155      43.851
2015    5       18     7  54    4.3188   423.7    6.147      43.860
2015    5       18     8   0    4.3240   423.6    6.139      43.868
2015    5       18     8   6    4.3292   423.6    6.132      43.874
2015    5       18     8  12    4.3344   423.5    6.125      43.880
2015    5       18     8  18    4.3397   423.4    6.118      43.885
2015    5       18     8  23    4.3450   423.3    6.111      43.889
2015    5       18     8  29    4.3503   423.3    6.104      43.893
2015    5       18     8  35    4.3557   423.2    6.098      43.896
2015    5       18     8  41    4.3611   423.1    6.092      43.899
2015    5       18     8  47    4.3665   423.1    6.086      43.900
2015    5       18     8  53    4.3719   423.0    6.081      43.900
2015    5       18     8  59    4.3773   422.9    6.075      43.898
2015    5       18     9   4    4.3828   422.8    6.070      43.895
2015    5       18     9  10    4.3882   422.8    6.066      43.889
2015    5       18     9  16    4.3937   422.7    6.062      43.880
2015    5       18     9  22    4.3991   422.6    6.058      43.869
2015    5       18     9  28    4.4046   422.5    6.054      43.855
2015    5       18     9  34    4.4101   422.5    6.051      43.838
2015    5       18     9  39    4.4157   422.4    6.048      43.819
2015    5       18     9  45    4.4212   422.3    6.045      43.797
2015    5       18     9  51    4.4268   422.3    6.043      43.774
2015    5       18     9  57    4.4324   422.2    6.042      43.748
2015    5       18    10   3    4.4381   422.1    6.041      43.720
2015    5       18    10   9    4.4437   422.0    6.040      43.690
2015    5       18    10  14    4.4494   422.0    6.040      43.658
2015    5       18    10  20    4.4550   421.9    6.040      43.625
2015    5       18    10  26    4.4608   421.9    6.041      43.590
2015    5       18    10  32    4.4665   421.8    6.043      43.553
2015    5       18    10  38    4.4723   421.7    6.045      43.516
2015    5       18    10  44    4.4781   421.7    6.047      43.477
2015    5       18    10  49    4.4839   421.6    6.050      43.437
2015    5       18    10  55    4.4897   421.6    6.054      43.396
2015    5       18    11   1    4.4955   421.5    6.058      43.355
2015    5       18    11   7    4.5013   421.5    6.062      43.312
2015    5       18    11  13    4.5071   421.4    6.067      43.269
2015    5       18    11  19    4.5128   421.4    6.073      43.224
2015    5       18    11  25    4.5184   421.4    6.079      43.179
2015    5       18    11  30    4.5241   421.3    6.086      43.134
2015    5       18    11  36    4.5297   421.3    6.093      43.087
2015    5       18    11  42    4.5352   421.3    6.100      43.041
2015    5       18    11  48    4.5407   421.2    6.108      42.993
2015    5       18    11  54    4.5461   421.2    6.117      42.944
2015    5       18    12   0    4.5515   421.2    6.125      42.895
2015    5       18    12   5    4.5568   421.2    6.135      42.846
2015    5       18    12  11    4.5621   421.1    6.144      42.795
2015    5       18    12  17    4.5673   421.1    6.154      42.744
2015    5       18    12  23    4.5724   421.1    6.165      42.692
2015    5       18    12  29    4.5775   421.1    6.176      42.639
2015    5       18    12  35    4.5826   421.1    6.187      42.585
2015    5       18    12  40    4.5876   421.1    6.199      42.531
2015    5       18    12  46    4.5925   421.1    6.211      42.476
2015    5       18    12  52    4.5973   421.1    6.223      42.420
2015    5       18    12  58    4.6022   421.1    6.236      42.363
2015    5       18    13   4    4.6069   421.1    6.249      42.304
2015    5       18    13  10    4.6116   421.1    6.263      42.244
2015    5       18    13  15    4.6162   421.1    6.277      42.181
2015    5       18    13  21    4.6208   421.1    6.291      42.116
2015    5       18    13  27    4.6253   421.1    6.306      42.049
2015    5       18    13  33    4.6297   421.1    6.321      41.978
2015    5       18    13  39    4.6341   421.1    6.337      41.906
2015    5       18    13  45    4.6385   421.1    6.353      41.830
2015    5       18    13  50    4.6428   421.1    6.369      41.752
2015    5       18    13  56    4.6470   421.1    6.386      41.672
2015    5       18    14   2    4.6512   421.1    6.404      41.589
2015    5       18    14   8    4.6553   421.1    6.421      41.504
2015    5       18    14  14    4.6593   421.1    6.439      41.417
2015    5       18    14  20    4.6634   421.1    6.458      41.327
2015    5       18    14  26    4.6673   421.1    6.477      41.235
2015    5       18    14  31    4.6712   421.1    6.497      41.141
2015    5       18    14  37    4.6751   421.1    6.517      41.045
2015    5       18    14  43    4.6789   421.1    6.538      40.949
2015    5       18    14  49    4.6826   421.1    6.559      40.851
2015    5       18    14  55    4.6864   421.1    6.580      40.754
2015    5       18    15   1    4.6900   421.2    6.602      40.656
2015    5       18    15   6    4.6936   421.2    6.623      40.559
2015    5       18    15  12    4.6972   421.2    6.646      40.463
2015    5       18    15  18    4.7007   421.2    6.668      40.368
2015    5       18    15  24    4.7042   421.2    6.690      40.273
2015    5       18    15  30    4.7076   421.2    6.713      40.180
2015    5       18    15  36    4.7109   421.3    6.736      40.088
2015    5       18    15  41    4.7142   421.3    6.760      39.997
2015    5       18    15  47    4.7175   421.3    6.783      39.908
2015    5       18    15  53    4.7208   421.3    6.807      39.819
2015    5       18    15  59    4.7240   421.3    6.831      39.732
2015    5       18    16   5    4.7271   421.4    6.855      39.647
2015    5       18    16  11    4.7303   421.4    6.880      39.564
2015    5       18    16  16    4.7334   421.4    6.904      39.483
2015    5       18    16  22    4.7365   421.4    6.928      39.405
2015    5       18    16  28    4.7396   421.5    6.953      39.330
2015    5       18    16  34    4.7426   421.5    6.977      39.257
2015    5       18    16  40    4.7457   421.5    7.000      39.187
2015    5       18    16  46    4.7487   421.6    7.024      39.120
2015    5       18    16  51    4.7517   421.6    7.047      39.055
2015    5       18    16  57    4.7548   421.6    7.070      38.993
2015    5       18    17   3    4.7578   421.7    7.093      38.932
2015    5       18    17   9    4.7608   421.7    7.116      38.874
2015    5       18    17  15    4.7639   421.7    7.138      38.817
2015    5       18    17  21    4.7669   421.8    7.160      38.762
2015    5       18    17  27    4.7700   421.8    7.182      38.709
2015    5       18    17  32    4.7730   421.8    7.203      38.658
2015    5       18    17  38    4.7761   421.8    7.224      38.609
2015    5       18    17  44    4.7793   421.9    7.245      38.562
2015    5       18    17  50    4.7824   421.9    7.266      38.515
2015    5       18    17  56    4.7856   421.9    7.286      38.471
2015    5       18    18   2    4.7888   422.0    7.306      38.427
2015    5       18    18   7    4.7920   422.0    7.326      38.385
2015    5       18    18  13    4.7952   422.0    7.345      38.345
2015    5       18    18  19    4.7985   422.0    7.365      38.306
2015    5       18    18  25    4.8018   422.0    7.384      38.269
2015    5       18    18  31    4.8052   422.1    7.403      38.234
2015    5       18    18  37    4.8086   422.1    7.422      38.200
2015    5       18    18  42    4.8120   422.1    7.441      38.168
2015    5       18    18  48    4.8155   422.1    7.459      38.139
2015    5       18    18  54    4.8190   422.2    7.478      38.111
2015    5       18    19   0    4.8226   422.2    7.496      38.086
2015    5       18    19   6    4.8262   422.2    7.514      38.063
2015    5       18    19  12    4.8299   422.2    7.532      38.042
2015    5       18    19  17    4.8336   422.2    7.549      38.025
2015    5       18    19  23    4.8374   422.3    7.567      38.010
2015    5       18    19  29    4.8414   422.3    7.584      37.997
2015    5       18    19  35    4.8453   422.3    7.602      37.987
2015    5       18    19  41    4.8494   422.3    7.619      37.981
2015    5       18    19  47    4.8535   422.3    7.636      37.977
2015    5       18    19  52    4.8578   422.3    7.653      37.976
2015    5       18    19  58    4.8621   422.3    7.670      37.978
2015    5       18    20   4    4.8666   422.4    7.686      37.983
2015    5       18    20  10    4.8712   422.4    7.703      37.990
2015    5       18    20  16    4.8759   422.4    7.720      38.001
2015    5       18    20  22    4.8807   422.4    7.737      38.015
2015    5       18    20  28    4.8856   422.4    7.753      38.031
2015    5       18    20  33    4.8907   422.4    7.770      38.050
2015    5       18    20  39    4.8960   422.4    7.787      38.072
2015    5       18    20  45    4.9013   422.4    7.804      38.096
2015    5       18    20  51    4.9068   422.4    7.821      38.124
2015    5       18    20  57    4.9125   422.4    7.838      38.153
2015    5       18    21   3    4.9184   422.4    7.855      38.186
2015    5       18    21   8    4.9243   422.4    7.873      38.221
2015    5       18    21  14    4.9306   422.4    7.890      38.258
2015    5       18    21  20    4.9369   422.3    7.908      38.298
2015    5       18    21  26    4.9435   422.3    7.926      38.339
2015    5       18    21  32    4.9502   422.3    7.945      38.384
2015    5       18    21  38    4.9572   422.3    7.963      38.430
2015    5       18    21  43    4.9643   422.3    7.982      38.480
2015    5       18    21  49    4.9717   422.3    8.002      38.533
2015    5       18    21  55    4.9793   422.3    8.021      38.589
2015    5       18    22   1    4.9871   422.3    8.040      38.647
2015    5       18    22   7    4.9951   422.3    8.060      38.709
2015    5       18    22  13    5.0033   422.3    8.079      38.773
2015    5       18    22  18    5.0117   422.3    8.099      38.839
2015    5       18    22  24    5.0204   422.3    8.119      38.907
2015    5       18    22  30    5.0293   422.3    8.139      38.976
2015    5       18    22  36    5.0384   422.3    8.159      39.045
2015    5       18    22  42    5.0477   422.3    8.179      39.116
2015    5       18    22  48    5.0572   422.3    8.199      39.190
2015    5       18    22  53    5.0668   422.3    8.218      39.264
2015    5       18    22  59    5.0766   422.3    8.238      39.341
2015    5       18    23   5    5.0865   422.3    8.256      39.418
2015    5       18    23  11    5.0965   422.3    8.274      39.497
2015    5       18    23  17    5.1066   422.3    8.292      39.575
2015    5       18    23  23    5.1167   422.3    8.309      39.653
2015    5       18    23  29    5.1269   422.4    8.326      39.731
2015    5       18    23  34    5.1372   422.4    8.343      39.806
2015    5       18    23  40    5.1475   422.4    8.359      39.880
2015    5       18    23  46    5.1578   422.4    8.374      39.952
2015    5       18    23  52    5.1682   422.4    8.389      40.022
2015    5       18    23  58    5.1787   422.4    8.404      40.091
2015    5       19     0   4    5.1891   422.4    8.418      40.159
2015    5       19     0   9    5.1995   422.5    8.432      40.225
2015    5       19     0  15    5.2099   422.5    8.445      40.290
2015    5       19     0  21    5.2203   422.5    8.458      40.353
2015    5       19     0  27    5.2306   422.5    8.471      40.415
2015    5       19     0  33    5.2410   422.5    8.483      40.475
2015    5       19     0  39    5.2512   422.6    8.495      40.534
2015    5       19     0  44    5.2615   422.6    8.507      40.593
2015    5       19     0  50    5.2717   422.6    8.519      40.650
2015    5       19     0  56    5.2820   422.6    8.530      40.706
2015    5       19     1   2    5.2922   422.7    8.541      40.762
2015    5       19     1   8    5.3023   422.7    8.552      40.817
2015    5       19     1  14    5.3125   422.7    8.563      40.871
2015    5       19     1  19    5.3227   422.7    8.574      40.925
2015    5       19     1  25    5.3329   422.8    8.584      40.979
2015    5       19     1  31    5.3431   422.8    8.594      41.032
2015    5       19     1  37    5.3533   422.8    8.605      41.085
2015    5       19     1  43    5.3635   422.9    8.615      41.137
2015    5       19     1  49    5.3737   422.9    8.625      41.190
2015    5       19     1  54    5.3839   423.0    8.635      41.242
2015    5       19     2   0    5.3941   423.0    8.645      41.294
2015    5       19     2   6    5.4043   423.1    8.655      41.347
2015    5       19     2  12    5.4144   423.1    8.665      41.400
2015    5       19     2  18    5.4246   423.2    8.675      41.453
2015    5       19     2  24    5.4347   423.2    8.685      41.507
2015    5       19     2  30    5.4447   423.3    8.694      41.562
2015    5       19     2  35    5.4547   423.4    8.704      41.617
2015    5       19     2  41    5.4647   423.4    8.713      41.672
2015    5       19     2  47    5.4745   423.5    8.722      41.728
2015    5       19     2  53    5.4843   423.6    8.731      41.783
2015    5       19     2  59    5.4939   423.7    8.740      41.839
2015    5       19     3   5    5.5035   423.7    8.749      41.895
2015    5       19     3  10    5.5129   423.8    8.757      41.950
2015    5       19     3  16    5.5221   423.9    8.766      42.005
2015    5       19     3  22    5.5313   424.0    8.773      42.061
2015    5       19     3  28    5.5402   424.1    8.781      42.116
2015    5       19     3  34    5.5490   424.2    8.789      42.171
2015    5       19     3  40    5.5576   424.3    8.796      42.225
2015    5       19     3  45    5.5660   424.4    8.803      42.280
2015    5       19     3  51    5.5742   424.5    8.809      42.334
2015    5       19     3  57    5.5823   424.6    8.816      42.388
2015    5       19     4   3    5.5901   424.7    8.821      42.442
2015    5       19     4   9    5.5977   424.8    8.827      42.495
2015    5       19     4  15    5.6051   425.0    8.832      42.548
2015    5       19     4  20    5.6123   425.1    8.837      42.601
2015    5       19     4  26    5.6193   425.2    8.842      42.653
2015    5       19     4  32    5.6261   425.3    8.846      42.704
2015    5       19     4  38    5.6326   425.5    8.849      42.754
2015    5       19     4  44    5.6390   425.6    8.853      42.803
2015    5       19     4  50    5.6451   425.7    8.855      42.852
2015    5       19     4  56    5.6510   425.9    8.858      42.900
2015    5       19     5   1    5.6567   426.0    8.860      42.947
2015    5       19     5   7    5.6622   426.2    8.861      42.993
2015    5       19     5  13    5.6674   426.3    8.862      43.038
2015    5       19     5  19    5.6726   426.4    8.863      43.082
2015    5       19     5  25    5.6774   426.6    8.863      43.126
2015    5       19     5  31    5.6821   426.7    8.863      43.168
2015    5       19     5  36    5.6866   426.9    8.862      43.209
2015    5       19     5  42    5.6909   427.0    8.861      43.250
2015    5       19     5  48    5.6950   427.2    8.860      43.289
2015    5       19     5  54    5.6989   427.4    8.858      43.328
2015    5       19     6   0    5.7027   427.5    8.856      43.366
2015    5       19     6   6    5.7063   427.7    8.853      43.403
2015    5       19     6  11    5.7097   427.8    8.850      43.440
2015    5       19     6  17    5.7130   428.0    8.847      43.475
2015    5       19     6  23    5.7160   428.2    8.843      43.509
2015    5       19     6  29    5.7190   428.3    8.839      43.543
2015    5       19     6  35    5.7217   428.5    8.834      43.576
2015    5       19     6  41    5.7244   428.7    8.829      43.608
2015    5       19     6  46    5.7269   428.8    8.824      43.640
2015    5       19     6  52    5.7292   429.0    8.818      43.671
2015    5       19     6  58    5.7314   429.2    8.813      43.701
2015    5       19     7   4    5.7335   429.4    8.806      43.730
2015    5       19     7  10    5.7355   429.6    8.800      43.759
2015    5       19     7  16    5.7374   429.7    8.793      43.787
2015    5       19     7  21    5.7391   429.9    8.786      43.815
2015    5       19     7  27    5.7407   430.1    8.778      43.841
2015    5       19     7  33    5.7422   430.3    8.770      43.868
2015    5       19     7  39    5.7436   430.5    8.762      43.894
2015    5       19     7  45    5.7450   430.7    8.754      43.919
2015    5       19     7  51    5.7462   430.9    8.745      43.944
2015    5       19     7  56    5.7474   431.0    8.737      43.968
2015    5       19     8   2    5.7484   431.2    8.728      43.992
2015    5       19     8   8    5.7494   431.4    8.718      44.016
2015    5       19     8  14    5.7504   431.6    8.709      44.039
2015    5       19     8  20    5.7512   431.8    8.700      44.062
2015    5       19     8  26    5.7520   432.0    8.690      44.084
2015    5       19     8  32    5.7527   432.2    8.680      44.107
2015    5       19     8  37    5.7534   432.4    8.670      44.129
2015    5       19     8  43    5.7540   432.6    8.660      44.151
2015    5       19     8  49    5.7546   432.8    8.650      44.173
2015    5       19     8  55    5.7550   433.0    8.640      44.195
2015    5       19     9   1    5.7555   433.2    8.630      44.217
2015    5       19     9   7    5.7559   433.4    8.620      44.239
2015    5       19     9  12    5.7562   433.6    8.610      44.261
2015    5       19     9  18    5.7565   433.8    8.600      44.282
2015    5       19     9  24    5.7568   434.0    8.590      44.304
2015    5       19     9  30    5.7569   434.2    8.580      44.327
2015    5       19     9  36    5.7571   434.4    8.570      44.349
2015    5       19     9  42    5.7572   434.6    8.560      44.371
2015    5       19     9  47    5.7573   434.8    8.550      44.394
2015    5       19     9  53    5.7573   435.0    8.540      44.417
2015    5       19     9  59    5.7573   435.2    8.530      44.441
2015    5       19    10   5    5.7572   435.4    8.520      44.464
2015    5       19    10  11    5.7571   435.6    8.510      44.488
2015    5       19    10  17    5.7570   435.8    8.501      44.512
2015    5       19    10  22    5.7568   436.1    8.491      44.537
2015    5       19    10  28    5.7565   436.3    8.482      44.563
2015    5       19    10  34    5.7562   436.5    8.472      44.589
2015    5       19    10  40    5.7559   436.7    8.463      44.615
2015    5       19    10  46    5.7555   436.9    8.453      44.642
2015    5       19    10  52    5.7551   437.1    8.444      44.668
2015    5       19    10  58    5.7546   437.4    8.434      44.695
2015    5       19    11   3    5.7541   437.6    8.425      44.721
2015    5       19    11   9    5.7535   437.8    8.416      44.747
2015    5       19    11  15    5.7529   438.0    8.406      44.774
2015    5       19    11  21    5.7522   438.3    8.397      44.800
2015    5       19    11  27    5.7514   438.5    8.387      44.826
2015    5       19    11  33    5.7506   438.7    8.377      44.852
2015    5       19    11  38    5.7496   439.0    8.368      44.877
2015    5       19    11  44    5.7486   439.2    8.358      44.903
2015    5       19    11  50    5.7475   439.4    8.349      44.929
2015    5       19    11  56    5.7464   439.6    8.339      44.956
2015    5       19    12   2    5.7452   439.9    8.330      44.983
2015    5       19    12   8    5.7440   440.1    8.321      45.010
2015    5       19    12  13    5.7428   440.3    8.311      45.038
2015    5       19    12  19    5.7416   440.6    8.302      45.066
2015    5       19    12  25    5.7403   440.8    8.293      45.094
2015    5       19    12  31    5.7390   441.0    8.283      45.122
2015    5       19    12  37    5.7378   441.3    8.274      45.151
2015    5       19    12  43    5.7365   441.5    8.265      45.179
2015    5       19    12  48    5.7352   441.7    8.255      45.208
2015    5       19    12  54    5.7340   442.0    8.246      45.236
2015    5       19    13   0    5.7327   442.2    8.237      45.265
2015    5       19    13   6    5.7314   442.4    8.228      45.294
2015    5       19    13  12    5.7301   442.7    8.219      45.324
2015    5       19    13  18    5.7289   442.9    8.210      45.353
2015    5       19    13  23    5.7276   443.2    8.201      45.383
2015    5       19    13  29    5.7264   443.4    8.192      45.413
2015    5       19    13  35    5.7252   443.6    8.183      45.443
2015    5       19    13  41    5.7239   443.9    8.174      45.472
2015    5       19    13  47    5.7227   444.1    8.165      45.503
2015    5       19    13  53    5.7214   444.3    8.156      45.534
2015    5       19    13  59    5.7202   444.6    8.147      45.566
2015    5       19    14   4    5.7189   444.8    8.138      45.597
2015    5       19    14  10    5.7176   445.1    8.129      45.629
2015    5       19    14  16    5.7163   445.3    8.120      45.661
2015    5       19    14  22    5.7149   445.6    8.110      45.693
2015    5       19    14  28    5.7136   445.8    8.101      45.725
2015    5       19    14  34    5.7122   446.1    8.091      45.756
2015    5       19    14  39    5.7107   446.3    8.080      45.787
2015    5       19    14  45    5.7093   446.6    8.070      45.817
2015    5       19    14  51    5.7078   446.8    8.059      45.847
2015    5       19    14  57    5.7063   447.1    8.048      45.876
2015    5       19    15   3    5.7047   447.3    8.037      45.904
2015    5       19    15   9    5.7032   447.6    8.026      45.930
2015    5       19    15  14    5.7016   447.8    8.014      45.955
2015    5       19    15  20    5.7001   448.1    8.003      45.979
2015    5       19    15  26    5.6986   448.3    7.992      46.001
2015    5       19    15  32    5.6971   448.5    7.980      46.021
2015    5       19    15  38    5.6958   448.7    7.969      46.041
2015    5       19    15  44    5.6944   448.9    7.958      46.060
2015    5       19    15  49    5.6932   449.1    7.947      46.080
2015    5       19    15  55    5.6919   449.3    7.937      46.099
2015    5       19    16   1    5.6908   449.5    7.926      46.120
2015    5       19    16   7    5.6896   449.7    7.916      46.142
2015    5       19    16  13    5.6886   449.9    7.906      46.165
2015    5       19    16  19    5.6876   450.1    7.896      46.191
2015    5       19    16  24    5.6867   450.3    7.886      46.219
2015    5       19    16  30    5.6859   450.5    7.877      46.251
2015    5       19    16  36    5.6853   450.8    7.868      46.286
2015    5       19    16  42    5.6849   451.0    7.860      46.324
2015    5       19    16  48    5.6846   451.3    7.852      46.364
2015    5       19    16  54    5.6844   451.5    7.844      46.406
2015    5       19    17   0    5.6842   451.8    7.835      46.449
2015    5       19    17   5    5.6842   452.1    7.827      46.492
2015    5       19    17  11    5.6841   452.4    7.818      46.534
2015    5       19    17  17    5.6841   452.6    7.809      46.575
2015    5       19    17  23    5.6840   452.9    7.800      46.615
2015    5       19    17  29    5.6839   453.2    7.791      46.654
2015    5       19    17  35    5.6838   453.5    7.782      46.691
2015    5       19    17  40    5.6837   453.7    7.773      46.728
2015    5       19    17  46    5.6836   454.0    7.764      46.764
2015    5       19    17  52    5.6836   454.2    7.754      46.798
2015    5       19    17  58    5.6836   454.5    7.745      46.833
2015    5       19    18   4    5.6836   454.7    7.736      46.868
2015    5       19    18  10    5.6836   455.0    7.727      46.902
2015    5       19    18  15    5.6836   455.2    7.718      46.937
2015    5       19    18  21    5.6837   455.5    7.709      46.972
2015    5       19    18  27    5.6838   455.7    7.700      47.006
2015    5       19    18  33    5.6840   456.0    7.691      47.040
2015    5       19    18  39    5.6841   456.2    7.683      47.075
2015    5       19    18  45    5.6844   456.5    7.674      47.110
2015    5       19    18  50    5.6845   456.8    7.665      47.147
2015    5       19    18  56    5.6847   457.0    7.657      47.185
2015    5       19    19   2    5.6848   457.3    7.648      47.224
2015    5       19    19   8    5.6850   457.5    7.639      47.265
2015    5       19    19  14    5.6850   457.8    7.630      47.307
2015    5       19    19  20    5.6850   458.1    7.621      47.349
2015    5       19    19  25    5.6849   458.3    7.612      47.392
2015    5       19    19  31    5.6847   458.6    7.602      47.434
2015    5       19    19  37    5.6844   458.8    7.592      47.475
2015    5       19    19  43    5.6841   459.1    7.582      47.515
2015    5       19    19  49    5.6837   459.4    7.571      47.554
2015    5       19    19  55    5.6833   459.6    7.560      47.592
2015    5       19    20   1    5.6827   459.9    7.550      47.628
2015    5       19    20   6    5.6821   460.1    7.538      47.664
2015    5       19    20  12    5.6815   460.4    7.527      47.699
2015    5       19    20  18    5.6808   460.7    7.516      47.732
2015    5       19    20  24    5.6801   460.9    7.504      47.765
2015    5       19    20  30    5.6794   461.2    7.492      47.796
2015    5       19    20  36    5.6786   461.4    7.480      47.827
2015    5       19    20  41    5.6778   461.7    7.468      47.856
2015    5       19    20  47    5.6769   461.9    7.456      47.884
2015    5       19    20  53    5.6761   462.2    7.443      47.912
2015    5       19    20  59    5.6751   462.5    7.431      47.938
2015    5       19    21   5    5.6742   462.7    7.418      47.963
2015    5       19    21  11    5.6732   463.0    7.406      47.987
2015    5       19    21  16    5.6723   463.2    7.393      48.011
2015    5       19    21  22    5.6712   463.5    7.380      48.033
2015    5       19    21  28    5.6701   463.8    7.367      48.054
2015    5       19    21  34    5.6690   464.0    7.353      48.074
2015    5       19    21  40    5.6678   464.3    7.340      48.094
2015    5       19    21  46    5.6666   464.6    7.326      48.115
2015    5       19    21  51    5.6654   464.9    7.313      48.136
2015    5       19    21  57    5.6641   465.2    7.299      48.156
2015    5       19    22   3    5.6627   465.5    7.284      48.175
2015    5       19    22   9    5.6612   465.8    7.269      48.195
2015    5       19    22  15    5.6597   466.1    7.254      48.215
2015    5       19    22  21    5.6578   466.4    7.237      48.232
2015    5       19    22  27    5.6558   466.7    7.220      48.244
2015    5       19    22  32    5.6535   467.0    7.203      48.253
2015    5       19    22  38    5.6511   467.3    7.186      48.259
2015    5       19    22  44    5.6486   467.5    7.168      48.262
2015    5       19    22  50    5.6460   467.8    7.150      48.261
2015    5       19    22  56    5.6433   468.0    7.133      48.257
2015    5       19    23   2    5.6406   468.3    7.115      48.253
2015    5       19    23   7    5.6380   468.5    7.099      48.249
2015    5       19    23  13    5.6354   468.7    7.082      48.246
2015    5       19    23  19    5.6329   468.9    7.066      48.244
2015    5       19    23  25    5.6304   469.1    7.051      48.243
2015    5       19    23  31    5.6280   469.4    7.036      48.241
2015    5       19    23  37    5.6256   469.5    7.021      48.240
2015    5       19    23  42    5.6234   469.7    7.007      48.240
2015    5       19    23  48    5.6212   469.9    6.994      48.241
2015    5       19    23  54    5.6190   470.1    6.981      48.243
2015    5       20     0   0    5.6170   470.3    6.968      48.244
2015    5       20     0   6    5.6150   470.5    6.956      48.248
2015    5       20     0  12    5.6132   470.6    6.945      48.252
2015    5       20     0  17    5.6114   470.8    6.934      48.258
2015    5       20     0  23    5.6099   471.0    6.923      48.267
2015    5       20     0  29    5.6085   471.2    6.913      48.282
2015    5       20     0  35    5.6071   471.4    6.903      48.301
2015    5       20     0  41    5.6059   471.6    6.893      48.325
2015    5       20     0  47    5.6047   471.8    6.884      48.353
2015    5       20     0  52    5.6035   472.1    6.874      48.385
2015    5       20     0  58    5.6023   472.4    6.864      48.417
2015    5       20     1   4    5.6009   472.6    6.854      48.448
2015    5       20     1  10    5.5994   472.9    6.844      48.478
2015    5       20     1  16    5.5977   473.2    6.834      48.505
2015    5       20     1  22    5.5959   473.4    6.823      48.530
2015    5       20     1  28    5.5939   473.7    6.812      48.552
2015    5       20     1  33    5.5918   474.0    6.800      48.571
2015    5       20     1  39    5.5895   474.2    6.788      48.588
2015    5       20     1  45    5.5871   474.4    6.776      48.602
2015    5       20     1  51    5.5846   474.7    6.763      48.614
2015    5       20     1  57    5.5820   474.9    6.751      48.624
2015    5       20     2   3    5.5793   475.2    6.738      48.633
2015    5       20     2   8    5.5766   475.4    6.725      48.640
2015    5       20     2  14    5.5738   475.6    6.712      48.646
2015    5       20     2  20    5.5709   475.8    6.699      48.651
2015    5       20     2  26    5.5680   476.1    6.686      48.655
2015    5       20     2  32    5.5650   476.3    6.673      48.658
2015    5       20     2  38    5.5620   476.5    6.660      48.660
2015    5       20     2  43    5.5590   476.7    6.647      48.661
2015    5       20     2  49    5.5558   476.9    6.634      48.662
2015    5       20     2  55    5.5527   477.1    6.621      48.662
2015    5       20     3   1    5.5495   477.3    6.608      48.661
2015    5       20     3   7    5.5463   477.5    6.595      48.660
2015    5       20     3  13    5.5431   477.7    6.582      48.658
2015    5       20     3  18    5.5398   478.0    6.569      48.656
2015    5       20     3  24    5.5364   478.2    6.556      48.653
2015    5       20     3  30    5.5331   478.4    6.543      48.650
2015    5       20     3  36    5.5297   478.6    6.530      48.645
2015    5       20     3  42    5.5263   478.8    6.517      48.640
2015    5       20     3  48    5.5228   479.0    6.503      48.634
2015    5       20     3  53    5.5193   479.2    6.490      48.626
2015    5       20     3  59    5.5158   479.4    6.477      48.618
2015    5       20     4   5    5.5122   479.6    6.464      48.608
2015    5       20     4  11    5.5086   479.8    6.451      48.597
2015    5       20     4  17    5.5050   480.0    6.438      48.586
2015    5       20     4  23    5.5013   480.2    6.425      48.573
2015    5       20     4  29    5.4975   480.5    6.412      48.559
2015    5       20     4  34    5.4937   480.7    6.399      48.545
2015    5       20     4  40    5.4899   480.9    6.386      48.529
2015    5       20     4  46    5.4860   481.1    6.373      48.512
2015    5       20     4  52    5.4821   481.3    6.360      48.494
2015    5       20     4  58    5.4782   481.5    6.347      48.475
2015    5       20     5   4    5.4743   481.7    6.334      48.455
2015    5       20     5   9    5.4703   481.9    6.320      48.435
2015    5       20     5  15    5.4663   482.1    6.307      48.414
2015    5       20     5  21    5.4622   482.3    6.294      48.395
2015    5       20     5  27    5.4582   482.5    6.281      48.375
2015    5       20     5  33    5.4541   482.7    6.268      48.356
2015    5       20     5  39    5.4500   482.9    6.254      48.336
2015    5       20     5  44    5.4458   483.2    6.241      48.317
2015    5       20     5  50    5.4415   483.4    6.227      48.300
2015    5       20     5  56    5.4371   483.7    6.212      48.281
2015    5       20     6   2    5.4325   483.9    6.197      48.256
2015    5       20     6   8    5.4277   484.2    6.182      48.227
2015    5       20     6  14    5.4228   484.4    6.167      48.195
2015    5       20     6  19    5.4177   484.6    6.152      48.161
2015    5       20     6  25    5.4127   484.8    6.137      48.124
2015    5       20     6  31    5.4075   484.9    6.123      48.084
2015    5       20     6  37    5.4024   485.0    6.109      48.042
2015    5       20     6  43    5.3974   485.2    6.096      48.001
2015    5       20     6  49    5.3925   485.3    6.084      47.964
2015    5       20     6  54    5.3877   485.4    6.073      47.931
2015    5       20     7   0    5.3831   485.5    6.062      47.901
2015    5       20     7   6    5.3786   485.6    6.052      47.873
2015    5       20     7  12    5.3742   485.7    6.043      47.847
2015    5       20     7  18    5.3700   485.8    6.034      47.822
2015    5       20     7  24    5.3659   485.9    6.025      47.800
2015    5       20     7  30    5.3619   486.0    6.017      47.780
2015    5       20     7  35    5.3579   486.1    6.008      47.760
2015    5       20     7  41    5.3540   486.1    6.001      47.739
2015    5       20     7  47    5.3502   486.2    5.993      47.719
2015    5       20     7  53    5.3465   486.3    5.985      47.700
2015    5       20     7  59    5.3427   486.4    5.978      47.683
2015    5       20     8   5    5.3390   486.4    5.970      47.668
2015    5       20     8  10    5.3354   486.5    5.963      47.655
2015    5       20     8  16    5.3317   486.7    5.955      47.646
2015    5       20     8  22    5.3281   486.8    5.948      47.638
2015    5       20     8  28    5.3244   486.9    5.940      47.631
2015    5       20     8  34    5.3207   487.0    5.933      47.625
2015    5       20     8  40    5.3170   487.2    5.925      47.619
2015    5       20     8  45    5.3132   487.3    5.918      47.612
2015    5       20     8  51    5.3093   487.5    5.910      47.603
2015    5       20     8  57    5.3053   487.6    5.903      47.591
2015    5       20     9   3    5.3013   487.7    5.895      47.577
2015    5       20     9   9    5.2972   487.8    5.887      47.561
2015    5       20     9  15    5.2931   487.9    5.879      47.544
2015    5       20     9  20    5.2889   488.1    5.870      47.525
2015    5       20     9  26    5.2847   488.2    5.862      47.506
2015    5       20     9  32    5.2804   488.3    5.854      47.486
2015    5       20     9  38    5.2760   488.4    5.845      47.465
2015    5       20     9  44    5.2717   488.5    5.836      47.444
2015    5       20     9  50    5.2673   488.6    5.828      47.422
2015    5       20     9  56    5.2629   488.7    5.819      47.400
2015    5       20    10   1    5.2585   488.8    5.811      47.376
2015    5       20    10   7    5.2540   488.9    5.802      47.352
2015    5       20    10  13    5.2496   489.0    5.794      47.327
2015    5       20    10  19    5.2451   489.1    5.785      47.302
2015    5       20    10  25    5.2407   489.2    5.777      47.276
2015    5       20    10  31    5.2362   489.3    5.769      47.252
2015    5       20    10  36    5.2318   489.4    5.761      47.227
2015    5       20    10  42    5.2273   489.5    5.752      47.203
2015    5       20    10  48    5.2229   489.6    5.744      47.179
2015    5       20    10  54    5.2184   489.7    5.736      47.155
2015    5       20    11   0    5.2140   489.8    5.728      47.131
2015    5       20    11   6    5.2095   489.9    5.720      47.106
2015    5       20    11  11    5.2051   490.0    5.712      47.081
2015    5       20    11  17    5.2007   490.1    5.705      47.054
2015    5       20    11  23    5.1963   490.2    5.697      47.027
2015    5       20    11  29    5.1918   490.3    5.689      46.999
2015    5       20    11  35    5.1874   490.4    5.681      46.970
2015    5       20    11  41    5.1829   490.5    5.673      46.940
2015    5       20    11  46    5.1784   490.6    5.665      46.910
2015    5       20    11  52    5.1738   490.7    5.658      46.879
2015    5       20    11  58    5.1693   490.8    5.650      46.847
2015    5       20    12   4    5.1647   490.8    5.642      46.816
2015    5       20    12  10    5.1602   490.9    5.634      46.784
2015    5       20    12  16    5.1556   491.0    5.626      46.752
2015    5       20    12  21    5.1510   491.1    5.619      46.719
2015    5       20    12  27    5.1465   491.2    5.611      46.686
2015    5       20    12  33    5.1420   491.2    5.603      46.653
2015    5       20    12  39    5.1375   491.3    5.596      46.619
2015    5       20    12  45    5.1331   491.4    5.588      46.586
2015    5       20    12  51    5.1287   491.4    5.581      46.552
2015    5       20    12  56    5.1243   491.5    5.574      46.518
2015    5       20    13   2    5.1199   491.5    5.567      46.484
2015    5       20    13   8    5.1156   491.6    5.560      46.450
2015    5       20    13  14    5.1114   491.6    5.554      46.417
2015    5       20    13  20    5.1072   491.7    5.547      46.384
2015    5       20    13  26    5.1031   491.7    5.541      46.352
2015    5       20    13  32    5.0990   491.7    5.535      46.321
2015    5       20    13  37    5.0950   491.7    5.530      46.291
2015    5       20    13  43    5.0911   491.8    5.525      46.262
2015    5       20    13  49    5.0873   491.8    5.521      46.234
2015    5       20    13  55    5.0835   491.8    5.516      46.209
2015    5       20    14   1    5.0798   491.8    5.513      46.186
2015    5       20    14   7    5.0761   491.8    5.509      46.165
2015    5       20    14  12    5.0726   491.8    5.507      46.145
2015    5       20    14  18    5.0691   491.8    5.504      46.127
2015    5       20    14  24    5.0657   491.8    5.502      46.113
2015    5       20    14  30    5.0624   491.8    5.501      46.102
2015    5       20    14  36    5.0592   491.9    5.500      46.093
2015    5       20    14  42    5.0560   491.9    5.498      46.086
2015    5       20    14  47    5.0530   491.9    5.497      46.081
2015    5       20    14  53    5.0500   491.9    5.497      46.078
2015    5       20    14  59    5.0471   491.9    5.496      46.076
2015    5       20    15   5    5.0442   492.0    5.494      46.074
2015    5       20    15  11    5.0413   492.0    5.493      46.070
2015    5       20    15  17    5.0384   492.0    5.492      46.066
2015    5       20    15  22    5.0355   492.0    5.490      46.061
2015    5       20    15  28    5.0325   492.0    5.488      46.054
2015    5       20    15  34    5.0296   492.1    5.486      46.047
2015    5       20    15  40    5.0266   492.1    5.484      46.038
2015    5       20    15  46    5.0235   492.1    5.482      46.029
2015    5       20    15  52    5.0205   492.1    5.479      46.018
2015    5       20    15  58    5.0174   492.2    5.477      46.006
2015    5       20    16   3    5.0143   492.2    5.474      45.993
2015    5       20    16   9    5.0112   492.2    5.471      45.979
2015    5       20    16  15    5.0081   492.2    5.468      45.965
2015    5       20    16  21    5.0050   492.2    5.465      45.949
2015    5       20    16  27    5.0019   492.3    5.462      45.933
2015    5       20    16  33    4.9987   492.3    5.458      45.917
2015    5       20    16  38    4.9956   492.3    5.455      45.899
2015    5       20    16  44    4.9924   492.3    5.452      45.882
2015    5       20    16  50    4.9893   492.3    5.448      45.863
2015    5       20    16  56    4.9862   492.4    5.445      45.844
2015    5       20    17   2    4.9831   492.4    5.441      45.825
2015    5       20    17   8    4.9799   492.4    5.437      45.805
2015    5       20    17  13    4.9768   492.4    5.434      45.785
2015    5       20    17  19    4.9737   492.4    5.430      45.765
2015    5       20    17  25    4.9706   492.4    5.426      45.744
2015    5       20    17  31    4.9675   492.4    5.422      45.723
2015    5       20    17  37    4.9645   492.5    5.419      45.702
2015    5       20    17  43    4.9614   492.5    5.415      45.680
2015    5       20    17  48    4.9584   492.5    5.411      45.658
2015    5       20    17  54    4.9553   492.5    5.407      45.636
2015    5       20    18   0    4.9523   492.5    5.403      45.613
2015    5       20    18   6    4.9493   492.5    5.399      45.590
2015    5       20    18  12    4.9463   492.5    5.395      45.567
2015    5       20    18  18    4.9433   492.5    5.391      45.544
2015    5       20    18  23    4.9403   492.5    5.387      45.520
2015    5       20    18  29    4.9373   492.6    5.383      45.496
2015    5       20    18  35    4.9344   492.6    5.379      45.472
2015    5       20    18  41    4.9314   492.6    5.375      45.448
2015    5       20    18  47    4.9285   492.6    5.371      45.424
2015    5       20    18  53    4.9255   492.6    5.367      45.399
2015    5       20    18  59    4.9226   492.6    5.363      45.374
2015    5       20    19   4    4.9197   492.6    5.359      45.349
2015    5       20    19  10    4.9168   492.6    5.354      45.324
2015    5       20    19  16    4.9139   492.6    5.350      45.299
2015    5       20    19  22    4.9111   492.6    5.346      45.273
2015    5       20    19  28    4.9082   492.6    5.342      45.247
2015    5       20    19  34    4.9053   492.6    5.338      45.221
2015    5       20    19  39    4.9025   492.6    5.334      45.195
2015    5       20    19  45    4.8996   492.6    5.330      45.169
2015    5       20    19  51    4.8968   492.6    5.326      45.143
2015    5       20    19  57    4.8940   492.6    5.321      45.116
2015    5       20    20   3    4.8911   492.6    5.317      45.090
2015    5       20    20   9    4.8883   492.6    5.314      45.064
2015    5       20    20  14    4.8855   492.6    5.310      45.038
2015    5       20    20  20    4.8827   492.6    5.306      45.012
2015    5       20    20  26    4.8799   492.6    5.302      44.986
2015    5       20    20  32    4.8772   492.6    5.298      44.961
2015    5       20    20  38    4.8744   492.6    5.295      44.936
2015    5       20    20  44    4.8717   492.5    5.291      44.911
2015    5       20    20  49    4.8690   492.5    5.288      44.887
2015    5       20    20  55    4.8664   492.5    5.285      44.863
2015    5       20    21   1    4.8637   492.5    5.281      44.840
2015    5       20    21   7    4.8611   492.5    5.278      44.817
2015    5       20    21  13    4.8586   492.5    5.275      44.795
2015    5       20    21  19    4.8560   492.4    5.273      44.773
2015    5       20    21  24    4.8535   492.4    5.270      44.753
2015    5       20    21  30    4.8511   492.4    5.268      44.733
2015    5       20    21  36    4.8486   492.4    5.265      44.713
2015    5       20    21  42    4.8462   492.4    5.263      44.695
2015    5       20    21  48    4.8438   492.3    5.261      44.677
2015    5       20    21  54    4.8415   492.3    5.259      44.660
2015    5       20    22   0    4.8392   492.3    5.257      44.643
2015    5       20    22   5    4.8369   492.3    5.255      44.627
2015    5       20    22  11    4.8346   492.3    5.254      44.612
2015    5       20    22  17    4.8324   492.2    5.252      44.597
2015    5       20    22  23    4.8301   492.2    5.251      44.582
2015    5       20    22  29    4.8279   492.2    5.249      44.568
2015    5       20    22  35    4.8256   492.2    5.248      44.554
2015    5       20    22  40    4.8234   492.1    5.246      44.539
2015    5       20    22  46    4.8211   492.1    5.245      44.525
2015    5       20    22  52    4.8188   492.1    5.244      44.510
2015    5       20    22  58    4.8165   492.1    5.242      44.494
2015    5       20    23   4    4.8143   492.0    5.241      44.479
2015    5       20    23  10    4.8120   492.0    5.239      44.463
2015    5       20    23  15    4.8097   492.0    5.238      44.447
2015    5       20    23  21    4.8074   491.9    5.236      44.430
2015    5       20    23  27    4.8051   491.9    5.234      44.413
2015    5       20    23  33    4.8028   491.9    5.233      44.396
2015    5       20    23  39    4.8005   491.9    5.231      44.378
2015    5       20    23  45    4.7982   491.8    5.229      44.360
2015    5       20    23  50    4.7959   491.8    5.227      44.342
2015    5       20    23  56    4.7936   491.8    5.226      44.323
2015    5       21     0   2    4.7913   491.7    5.224      44.303
2015    5       21     0   8    4.7890   491.7    5.222      44.284
2015    5       21     0  14    4.7867   491.7    5.220      44.264
2015    5       21     0  20    4.7844   491.6    5.218      44.244
2015    5       21     0  26    4.7821   491.6    5.216      44.224
2015    5       21     0  31    4.7798   491.6    5.214      44.203
2015    5       21     0  37    4.7776   491.5    5.212      44.182
2015    5       21     0  43    4.7753   491.5    5.210      44.161
2015    5       21     0  49    4.7730   491.5    5.208      44.140
2015    5       21     0  55    4.7708   491.4    5.206      44.118
2015    5       21     1   1    4.7686   491.4    5.203      44.096
2015    5       21     1   6    4.7663   491.4    5.201      44.074
2015    5       21     1  12    4.7641   491.3    5.199      44.052
2015    5       21     1  18    4.7619   491.3    5.197      44.030
2015    5       21     1  24    4.7597   491.3    5.194      44.007
2015    5       21     1  30    4.7575   491.2    5.192      43.984
2015    5       21     1  36    4.7553   491.2    5.190      43.962
2015    5       21     1  41    4.7531   491.1    5.188      43.939
2015    5       21     1  47    4.7509   491.1    5.185      43.916
2015    5       21     1  53    4.7487   491.1    5.183      43.893
2015    5       21     1  59    4.7466   491.0    5.181      43.870
2015    5       21     2   5    4.7444   491.0    5.178      43.847
2015    5       21     2  11    4.7422   490.9    5.176      43.824
2015    5       21     2  16    4.7401   490.9    5.174      43.801
2015    5       21     2  22    4.7380   490.9    5.171      43.778
2015    5       21     2  28    4.7358   490.8    5.169      43.755
2015    5       21     2  34    4.7337   490.8    5.167      43.733
2015    5       21     2  40    4.7316   490.7    5.165      43.710
2015    5       21     2  46    4.7295   490.7    5.162      43.687
2015    5       21     2  51    4.7274   490.6    5.160      43.664
2015    5       21     2  57    4.7253   490.6    5.158      43.642
2015    5       21     3   3    4.7232   490.6    5.156      43.619
2015    5       21     3   9    4.7211   490.5    5.153      43.597
2015    5       21     3  15    4.7190   490.5    5.151      43.575
2015    5       21     3  21    4.7169   490.4    5.149      43.553
2015    5       21     3  27    4.7149   490.4    5.147      43.532
2015    5       21     3  32    4.7128   490.3    5.145      43.510
2015    5       21     3  38    4.7107   490.3    5.143      43.489
2015    5       21     3  44    4.7087   490.2    5.141      43.468
2015    5       21     3  50    4.7066   490.2    5.139      43.447
2015    5       21     3  56    4.7046   490.1    5.137      43.427
2015    5       21     4   2    4.7026   490.1    5.135      43.406
2015    5       21     4   7    4.7006   490.0    5.134      43.387
2015    5       21     4  13    4.6986   489.9    5.132      43.367
2015    5       21     4  19    4.6966   489.9    5.130      43.348
2015    5       21     4  25    4.6947   489.8    5.129      43.329
2015    5       21     4  31    4.6928   489.8    5.127      43.310
2015    5       21     4  37    4.6908   489.7    5.126      43.292
2015    5       21     4  42    4.6889   489.7    5.124      43.273
2015    5       21     4  48    4.6870   489.6    5.123      43.256
2015    5       21     4  54    4.6852   489.6    5.121      43.238
2015    5       21     5   0    4.6833   489.5    5.120      43.221
2015    5       21     5   6    4.6815   489.4    5.119      43.204
2015    5       21     5  12    4.6797   489.4    5.118      43.187
2015    5       21     5  17    4.6779   489.3    5.116      43.170
2015    5       21     5  23    4.6761   489.3    5.115      43.154
2015    5       21     5  29    4.6743   489.2    5.114      43.137
2015    5       21     5  35    4.6725   489.1    5.113      43.121
2015    5       21     5  41    4.6707   489.1    5.112      43.105
2015    5       21     5  47    4.6690   489.0    5.111      43.089
2015    5       21     5  52    4.6672   489.0    5.110      43.073
2015    5       21     5  58    4.6655   488.9    5.109      43.057
2015    5       21     6   4    4.6637   488.8    5.108      43.041
2015    5       21     6  10    4.6619   488.8    5.107      43.026
2015    5       21     6  16    4.6602   488.7    5.106      43.010
2015    5       21     6  22    4.6584   488.7    5.106      42.994
2015    5       21     6  28    4.6566   488.6    5.105      42.978
2015    5       21     6  33    4.6549   488.6    5.104      42.962
2015    5       21     6  39    4.6531   488.5    5.103      42.946
2015    5       21     6  45    4.6513   488.4    5.102      42.930
2015    5       21     6  51    4.6495   488.4    5.102      42.914
2015    5       21     6  57    4.6478   488.3    5.101      42.897
2015    5       21     7   3    4.6460   488.3    5.100      42.881
2015    5       21     7   8    4.6442   488.2    5.099      42.864
2015    5       21     7  14    4.6424   488.1    5.098      42.847
2015    5       21     7  20    4.6406   488.1    5.098      42.830
2015    5       21     7  26    4.6388   488.0    5.097      42.813
2015    5       21     7  32    4.6370   488.0    5.096      42.796
2015    5       21     7  38    4.6353   487.9    5.095      42.778
2015    5       21     7  43    4.6335   487.8    5.094      42.761
2015    5       21     7  49    4.6317   487.8    5.093      42.743
2015    5       21     7  55    4.6299   487.7    5.092      42.725
2015    5       21     8   1    4.6281   487.7    5.092      42.707
2015    5       21     8   7    4.6263   487.6    5.091      42.689
2015    5       21     8  13    4.6245   487.5    5.090      42.670
2015    5       21     8  18    4.6227   487.5    5.089      42.652
2015    5       21     8  24    4.6209   487.4    5.088      42.633
2015    5       21     8  30    4.6191   487.4    5.087      42.615
2015    5       21     8  36    4.6174   487.3    5.086      42.596
2015    5       21     8  42    4.6156   487.2    5.085      42.577
2015    5       21     8  48    4.6138   487.2    5.084      42.558
2015    5       21     8  53    4.6120   487.1    5.083      42.539
2015    5       21     8  59    4.6102   487.1    5.082      42.520
2015    5       21     9   5    4.6084   487.0    5.081      42.501
2015    5       21     9  11    4.6066   486.9    5.080      42.482
2015    5       21     9  17    4.6048   486.9    5.079      42.462
2015    5       21     9  23    4.6030   486.8    5.077      42.443
2015    5       21     9  29    4.6013   486.7    5.076      42.424
2015    5       21     9  34    4.5995   486.7    5.075      42.405
2015    5       21     9  40    4.5977   486.6    5.074      42.385
2015    5       21     9  46    4.5959   486.5    5.073      42.366
2015    5       21     9  52    4.5941   486.5    5.072      42.347
2015    5       21     9  58    4.5923   486.4    5.071      42.328
2015    5       21    10   4    4.5906   486.3    5.070      42.309
2015    5       21    10   9    4.5888   486.3    5.069      42.290
2015    5       21    10  15    4.5870   486.2    5.067      42.271
2015    5       21    10  21    4.5853   486.1    5.066      42.252
2015    5       21    10  27    4.5835   486.1    5.065      42.234
2015    5       21    10  33    4.5817   486.0    5.064      42.216
2015    5       21    10  39    4.5800   485.9    5.063      42.198
2015    5       21    10  44    4.5783   485.9    5.062      42.180
2015    5       21    10  50    4.5766   485.8    5.062      42.163
2015    5       21    10  56    4.5748   485.7    5.061      42.145
2015    5       21    11   2    4.5731   485.6    5.060      42.129
2015    5       21    11   8    4.5715   485.6    5.059      42.112
2015    5       21    11  14    4.5698   485.5    5.058      42.096
2015    5       21    11  19    4.5681   485.4    5.058      42.080
2015    5       21    11  25    4.5665   485.3    5.057      42.064
2015    5       21    11  31    4.5649   485.3    5.056      42.048
2015    5       21    11  37    4.5633   485.2    5.056      42.033
2015    5       21    11  43    4.5617   485.1    5.055      42.018
2015    5       21    11  49    4.5601   485.0    5.055      42.004
2015    5       21    11  54    4.5585   485.0    5.054      41.990
2015    5       21    12   0    4.5570   484.9    5.054      41.976
2015    5       21    12   6    4.5555   484.8    5.054      41.962
2015    5       21    12  12    4.5540   484.7    5.053      41.948
2015    5       21    12  18    4.5525   484.7    5.053      41.935
2015    5       21    12  24    4.5510   484.6    5.053      41.922
2015    5       21    12  30    4.5496   484.5    5.053      41.909
2015    5       21    12  35    4.5481   484.4    5.052      41.897
2015    5       21    12  41    4.5467   484.4    5.052      41.884
2015    5       21    12  47    4.5452   484.3    5.052      41.871
2015    5       21    12  53    4.5438   484.2    5.052      41.859
2015    5       21    12  59    4.5423   484.1    5.052      41.847
2015    5       21    13   5    4.5409   484.1    5.052      41.835
2015    5       21    13  10    4.5395   484.0    5.052      41.822
2015    5       21    13  16    4.5380   483.9    5.051      41.810
2015    5       21    13  22    4.5366   483.9    5.051      41.798
2015    5       21    13  28    4.5351   483.8    5.051      41.786
2015    5       21    13  34    4.5336   483.7    5.051      41.774
2015    5       21    13  40    4.5321   483.6    5.051      41.761
2015    5       21    13  45    4.5306   483.6    5.051      41.749
2015    5       21    13  51    4.5292   483.5    5.051      41.737
2015    5       21    13  57    4.5277   483.4    5.051      41.724
2015    5       21    14   3    4.5262   483.3    5.051      41.712
2015    5       21    14   9    4.5246   483.3    5.050      41.699
2015    5       21    14  15    4.5231   483.2    5.050      41.687
2015    5       21    14  20    4.5216   483.1    5.050      41.674
2015    5       21    14  26    4.5201   483.0    5.050      41.661
2015    5       21    14  32    4.5185   483.0    5.050      41.648
2015    5       21    14  38    4.5170   482.9    5.050      41.635
2015    5       21    14  44    4.5154   482.8    5.050      41.622
2015    5       21    14  50    4.5138   482.8    5.049      41.609
2015    5       21    14  55    4.5123   482.7    5.049      41.596
2015    5       21    15   1    4.5107   482.6    5.049      41.583
2015    5       21    15   7    4.5091   482.5    5.049      41.569
2015    5       21    15  13    4.5075   482.5    5.049      41.556
2015    5       21    15  19    4.5060   482.4    5.049      41.543
2015    5       21    15  25    4.5044   482.3    5.048      41.529
2015    5       21    15  31    4.5028   482.2    5.048      41.516
2015    5       21    15  36    4.5012   482.2    5.048      41.502
2015    5       21    15  42    4.4996   482.1    5.048      41.489
2015    5       21    15  48    4.4979   482.0    5.048      41.475
2015    5       21    15  54    4.4963   482.0    5.047      41.461
2015    5       21    16   0    4.4947   481.9    5.047      41.447
2015    5       21    16   6    4.4931   481.8    5.047      41.433
2015    5       21    16  11    4.4914   481.7    5.047      41.419
2015    5       21    16  17    4.4898   481.7    5.046      41.404
2015    5       21    16  23    4.4882   481.6    5.046      41.390
2015    5       21    16  29    4.4865   481.5    5.046      41.376
2015    5       21    16  35    4.4849   481.5    5.045      41.361
2015    5       21    16  41    4.4833   481.4    5.045      41.346
2015    5       21    16  46    4.4816   481.3    5.045      41.331
2015    5       21    16  52    4.4800   481.2    5.044      41.315
2015    5       21    16  58    4.4784   481.2    5.044      41.300
2015    5       21    17   4    4.4767   481.1    5.043      41.284
2015    5       21    17  10    4.4751   481.0    5.043      41.269
2015    5       21    17  16    4.4735   480.9    5.042      41.253
2015    5       21    17  21    4.4719   480.9    5.042      41.237
2015    5       21    17  27    4.4703   480.8    5.041      41.220
2015    5       21    17  33    4.4687   480.7    5.041      41.204
2015    5       21    17  39    4.4671   480.6    5.040      41.187
2015    5       21    17  45    4.4655   480.6    5.040      41.171
2015    5       21    17  51    4.4640   480.5    5.039      41.154
2015    5       21    17  57    4.4624   480.4    5.038      41.137
2015    5       21    18   2    4.4609   480.3    5.038      41.120
2015    5       21    18   8    4.4594   480.2    5.037      41.103
2015    5       21    18  14    4.4579   480.2    5.036      41.087
2015    5       21    18  20    4.4565   480.1    5.036      41.070
2015    5       21    18  26    4.4551   480.0    5.035      41.053
2015    5       21    18  32    4.4536   479.9    5.035      41.036
2015    5       21    18  37    4.4523   479.8    5.034      41.019
2015    5       21    18  43    4.4509   479.8    5.034      41.002
2015    5       21    18  49    4.4496   479.7    5.033      40.985
2015    5       21    18  55    4.4483   479.6    5.032      40.969
2015    5       21    19   1    4.4470   479.5    5.032      40.952
2015    5       21    19   7    4.4457   479.4    5.032      40.936
2015    5       21    19  12    4.4445   479.4    5.031      40.919
2015    5       21    19  18    4.4433   479.3    5.031      40.903
2015    5       21    19  24    4.4422   479.2    5.030      40.887
2015    5       21    19  30    4.4410   479.1    5.030      40.871
2015    5       21    19  36    4.4399   479.0    5.030      40.855
2015    5       21    19  42    4.4387   479.0    5.030      40.840
2015    5       21    19  47    4.4376   478.9    5.029      40.824
2015    5       21    19  53    4.4365   478.8    5.029      40.809
2015    5       21    19  59    4.4353   478.7    5.029      40.794
2015    5       21    20   5    4.4342   478.6    5.029      40.779
2015    5       21    20  11    4.4330   478.6    5.029      40.764
2015    5       21    20  17    4.4318   478.5    5.029      40.750
2015    5       21    20  22    4.4306   478.4    5.028      40.736
2015    5       21    20  28    4.4294   478.3    5.028      40.721
2015    5       21    20  34    4.4281   478.3    5.028      40.708
2015    5       21    20  40    4.4269   478.2    5.028      40.694
2015    5       21    20  46    4.4256   478.1    5.027      40.680
2015    5       21    20  52    4.4243   478.0    5.027      40.666
2015    5       21    20  58    4.4230   478.0    5.027      40.651
2015    5       21    21   3    4.4216   477.9    5.026      40.637
2015    5       21    21   9    4.4203   477.8    5.026      40.623
2015    5       21    21  15    4.4189   477.7    5.026      40.608
2015    5       21    21  21    4.4175   477.6    5.025      40.593
2015    5       21    21  27    4.4161   477.6    5.025      40.578
2015    5       21    21  33    4.4147   477.5    5.024      40.562
2015    5       21    21  38    4.4132   477.4    5.024      40.547
2015    5       21    21  44    4.4118   477.3    5.023      40.531
2015    5       21    21  50    4.4103   477.3    5.022      40.515
2015    5       21    21  56    4.4089   477.2    5.022      40.498
2015    5       21    22   2    4.4074   477.1    5.021      40.482
2015    5       21    22   8    4.4059   477.0    5.020      40.465
2015    5       21    22  13    4.4044   476.9    5.020      40.447
2015    5       21    22  19    4.4029   476.8    5.019      40.430
2015    5       21    22  25    4.4014   476.8    5.018      40.413
2015    5       21    22  31    4.3998   476.7    5.017      40.395
2015    5       21    22  37    4.3983   476.6    5.016      40.377
2015    5       21    22  43    4.3968   476.5    5.016      40.358
2015    5       21    22  48    4.3952   476.4    5.015      40.340
2015    5       21    22  54    4.3937   476.3    5.014      40.321
2015    5       21    23   0    4.3921   476.3    5.013      40.302
2015    5       21    23   6    4.3905   476.2    5.012      40.283
2015    5       21    23  12    4.3890   476.1    5.011      40.264
2015    5       21    23  18    4.3874   476.0    5.010      40.245
2015    5       21    23  23    4.3858   475.9    5.009      40.225
2015    5       21    23  29    4.3843   475.8    5.009      40.205
2015    5       21    23  35    4.3827   475.7    5.008      40.185
2015    5       21    23  41    4.3811   475.6    5.007      40.166
2015    5       21    23  47    4.3795   475.5    5.006      40.145
2015    5       21    23  53    4.3780   475.4    5.005      40.125
2015    5       21    23  59    4.3764   475.4    5.004      40.104
2015    5       22     0   4    4.3748   475.3    5.004      40.084
2015    5       22     0  10    4.3732   475.2    5.003      40.063
2015    5       22     0  16    4.3717   475.1    5.002      40.042
2015    5       22     0  22    4.3701   475.0    5.002      40.022
2015    5       22     0  28    4.3686   474.9    5.001      40.001
2015    5       22     0  34    4.3671   474.8    5.000      39.980
2015    5       22     0  39    4.3656   474.7    5.000      39.959
2015    5       22     0  45    4.3641   474.6    5.000      39.939
2015    5       22     0  51    4.3626   474.5    4.999      39.918
2015    5       22     0  57    4.3612   474.4    4.999      39.898
2015    5       22     1   3    4.3598   474.3    4.999      39.878
2015    5       22     1   9    4.3583   474.2    4.999      39.858
2015    5       22     1  14    4.3570   474.1    4.999      39.839
2015    5       22     1  20    4.3556   474.0    4.999      39.819
2015    5       22     1  26    4.3543   473.9    4.999      39.800
2015    5       22     1  32    4.3530   473.7    5.000      39.782
2015    5       22     1  38    4.3518   473.6    5.000      39.764
2015    5       22     1  44    4.3506   473.5    5.001      39.746
2015    5       22     1  49    4.3494   473.4    5.002      39.729
2015    5       22     1  55    4.3483   473.3    5.003      39.712
2015    5       22     2   1    4.3472   473.2    5.004      39.696
2015    5       22     2   7    4.3461   473.1    5.005      39.680
2015    5       22     2  13    4.3450   473.0    5.006      39.664
2015    5       22     2  19    4.3441   472.9    5.008      39.650
2015    5       22     2  24    4.3431   472.8    5.009      39.636
2015    5       22     2  30    4.3422   472.7    5.011      39.623
2015    5       22     2  36    4.3412   472.6    5.012      39.610
2015    5       22     2  42    4.3403   472.5    5.014      39.597
2015    5       22     2  48    4.3395   472.4    5.015      39.584
2015    5       22     2  54    4.3386   472.3    5.017      39.572
2015    5       22     3   0    4.3377   472.2    5.018      39.559
2015    5       22     3   5    4.3368   472.1    5.019      39.545
2015    5       22     3  11    4.3359   472.0    5.020      39.531
2015    5       22     3  17    4.3350   471.9    5.021      39.517
2015    5       22     3  23    4.3341   471.8    5.022      39.502
2015    5       22     3  29    4.3331   471.7    5.023      39.487
2015    5       22     3  35    4.3322   471.6    5.024      39.471
2015    5       22     3  40    4.3312   471.5    5.024      39.455
2015    5       22     3  46    4.3302   471.4    5.025      39.439
2015    5       22     3  52    4.3292   471.3    5.026      39.422
2015    5       22     3  58    4.3281   471.2    5.026      39.405
2015    5       22     4   4    4.3270   471.1    5.026      39.388
2015    5       22     4  10    4.3260   471.0    5.027      39.370
2015    5       22     4  15    4.3249   470.9    5.027      39.352
2015    5       22     4  21    4.3238   470.8    5.027      39.334
2015    5       22     4  27    4.3226   470.7    5.027      39.316
2015    5       22     4  33    4.3215   470.6    5.027      39.296
2015    5       22     4  39    4.3203   470.5    5.027      39.277
2015    5       22     4  45    4.3191   470.4    5.027      39.257
2015    5       22     4  50    4.3180   470.3    5.027      39.236
2015    5       22     4  56    4.3168   470.2    5.026      39.215
2015    5       22     5   2    4.3156   470.1    5.026      39.194
2015    5       22     5   8    4.3144   470.0    5.026      39.173
2015    5       22     5  14    4.3132   469.9    5.025      39.151
2015    5       22     5  20    4.3120   469.8    5.025      39.128
2015    5       22     5  26    4.3107   469.7    5.024      39.105
2015    5       22     5  31    4.3095   469.6    5.024      39.082
2015    5       22     5  37    4.3083   469.5    5.023      39.059
2015    5       22     5  43    4.3071   469.4    5.023      39.035
2015    5       22     5  49    4.3058   469.3    5.022      39.011
2015    5       22     5  55    4.3046   469.2    5.021      38.987
2015    5       22     6   1    4.3033   469.1    5.021      38.962
2015    5       22     6   6    4.3021   469.0    5.020      38.938
2015    5       22     6  12    4.3009   468.9    5.019      38.912
2015    5       22     6  18    4.2996   468.8    5.018      38.887
2015    5       22     6  24    4.2984   468.7    5.018      38.861
2015    5       22     6  30    4.2971   468.6    5.017      38.835
2015    5       22     6  36    4.2959   468.5    5.016      38.809
2015    5       22     6  41    4.2947   468.3    5.015      38.782
2015    5       22     6  47    4.2934   468.2    5.014      38.755
2015    5       22     6  53    4.2922   468.1    5.013      38.728
2015    5       22     6  59    4.2910   468.0    5.012      38.701
2015    5       22     7   5    4.2898   467.9    5.011      38.673
2015    5       22     7  11    4.2886   467.8    5.010      38.645
2015    5       22     7  16    4.2873   467.7    5.009      38.617
2015    5       22     7  22    4.2861   467.6    5.009      38.589
2015    5       22     7  28    4.2849   467.5    5.008      38.560
2015    5       22     7  34    4.2837   467.4    5.007      38.532
2015    5       22     7  40    4.2825   467.3    5.006      38.503
2015    5       22     7  46    4.2814   467.2    5.005      38.474
2015    5       22     7  51    4.2802   467.0    5.004      38.445
2015    5       22     7  57    4.2790   466.9    5.003      38.416
2015    5       22     8   3    4.2779   466.8    5.003      38.387
2015    5       22     8   9    4.2768   466.7    5.002      38.358
2015    5       22     8  15    4.2757   466.6    5.001      38.329
2015    5       22     8  21    4.2746   466.5    5.001      38.300
2015    5       22     8  26    4.2735   466.4    5.000      38.272
2015    5       22     8  32    4.2725   466.2    5.000      38.243
2015    5       22     8  38    4.2714   466.1    5.000      38.215
2015    5       22     8  44    4.2704   466.0    4.999      38.187
2015    5       22     8  50    4.2694   465.9    4.999      38.160
2015    5       22     8  56    4.2684   465.8    4.999      38.133
2015    5       22     9   2    4.2675   465.7    5.000      38.106
2015    5       22     9   7    4.2666   465.5    5.000      38.080
2015    5       22     9  13    4.2657   465.4    5.000      38.054
2015    5       22     9  19    4.2649   465.3    5.001      38.029
2015    5       22     9  25    4.2640   465.2    5.002      38.005
2015    5       22     9  31    4.2632   465.1    5.002      37.981
2015    5       22     9  37    4.2624   464.9    5.003      37.958
2015    5       22     9  42    4.2617   464.8    5.005      37.936
2015    5       22     9  48    4.2609   464.7    5.006      37.914
2015    5       22     9  54    4.2602   464.6    5.007      37.893
2015    5       22    10   0    4.2595   464.5    5.008      37.873
2015    5       22    10   6    4.2588   464.3    5.010      37.853
2015    5       22    10  12    4.2581   464.2    5.011      37.834
2015    5       22    10  17    4.2573   464.1    5.013      37.814
2015    5       22    10  23    4.2566   464.0    5.014      37.794
2015    5       22    10  29    4.2559   463.9    5.015      37.774
2015    5       22    10  35    4.2552   463.7    5.016      37.754
2015    5       22    10  41    4.2545   463.6    5.018      37.733
2015    5       22    10  47    4.2537   463.5    5.019      37.713
2015    5       22    10  52    4.2530   463.4    5.020      37.693
2015    5       22    10  58    4.2523   463.3    5.021      37.672
2015    5       22    11   4    4.2515   463.1    5.023      37.651
2015    5       22    11  10    4.2508   463.0    5.024      37.630
2015    5       22    11  16    4.2501   462.9    5.025      37.609
2015    5       22    11  22    4.2493   462.8    5.027      37.588
2015    5       22    11  28    4.2486   462.7    5.028      37.567
2015    5       22    11  33    4.2479   462.5    5.029      37.545
2015    5       22    11  39    4.2472   462.4    5.031      37.524
2015    5       22    11  45    4.2465   462.3    5.032      37.503
2015    5       22    11  51    4.2458   462.2    5.034      37.481
2015    5       22    11  57    4.2450   462.0    5.035      37.460
2015    5       22    12   3    4.2443   461.9    5.037      37.438
2015    5       22    12   8    4.2436   461.8    5.038      37.416
2015    5       22    12  14    4.2429   461.7    5.039      37.394
2015    5       22    12  20    4.2422   461.6    5.041      37.372
2015    5       22    12  26    4.2415   461.4    5.042      37.350
2015    5       22    12  32    4.2408   461.3    5.044      37.328
2015    5       22    12  38    4.2401   461.2    5.045      37.305
2015    5       22    12  43    4.2394   461.1    5.046      37.282
2015    5       22    12  49    4.2387   460.9    5.048      37.259
2015    5       22    12  55    4.2380   460.8    5.049      37.236
2015    5       22    13   1    4.2373   460.7    5.050      37.213
2015    5       22    13   7    4.2366   460.6    5.052      37.189
2015    5       22    13  13    4.2358   460.4    5.053      37.165
2015    5       22    13  18    4.2351   460.3    5.054      37.141
2015    5       22    13  24    4.2344   460.2    5.055      37.117
2015    5       22    13  30    4.2337   460.1    5.056      37.093
2015    5       22    13  36    4.2330   459.9    5.057      37.068
2015    5       22    13  42    4.2323   459.8    5.058      37.043
2015    5       22    13  48    4.2316   459.7    5.059      37.018
2015    5       22    13  53    4.2309   459.5    5.060      36.993
2015    5       22    13  59    4.2303   459.4    5.060      36.968
2015    5       22    14   5    4.2296   459.3    5.061      36.943
2015    5       22    14  11    4.2289   459.2    5.062      36.918
2015    5       22    14  17    4.2283   459.0    5.063      36.894
2015    5       22    14  23    4.2276   458.9    5.063      36.868
2015    5       22    14  29    4.2270   458.8    5.064      36.843
2015    5       22    14  34    4.2263   458.7    5.064      36.818
2015    5       22    14  40    4.2257   458.5    5.065      36.793
2015    5       22    14  46    4.2250   458.4    5.065      36.767
2015    5       22    14  52    4.2244   458.3    5.066      36.742
2015    5       22    14  58    4.2237   458.1    5.066      36.716
2015    5       22    15   4    4.2231   458.0    5.067      36.690
2015    5       22    15   9    4.2224   457.9    5.067      36.664
2015    5       22    15  15    4.2218   457.8    5.067      36.637
2015    5       22    15  21    4.2211   457.6    5.068      36.610
2015    5       22    15  27    4.2205   457.5    5.068      36.583
2015    5       22    15  33    4.2198   457.4    5.068      36.556
2015    5       22    15  39    4.2192   457.2    5.068      36.528
2015    5       22    15  44    4.2185   457.1    5.068      36.501
2015    5       22    15  50    4.2179   457.0    5.068      36.473
2015    5       22    15  56    4.2172   456.9    5.068      36.444
2015    5       22    16   2    4.2166   456.7    5.069      36.416
2015    5       22    16   8    4.2159   456.6    5.069      36.387
2015    5       22    16  14    4.2153   456.5    5.069      36.358
2015    5       22    16  19    4.2146   456.3    5.069      36.329
2015    5       22    16  25    4.2140   456.2    5.069      36.299
2015    5       22    16  31    4.2133   456.1    5.069      36.270
2015    5       22    16  37    4.2127   455.9    5.069      36.239
2015    5       22    16  43    4.2120   455.8    5.069      36.209
2015    5       22    16  49    4.2114   455.7    5.069      36.179
2015    5       22    16  54    4.2108   455.5    5.069      36.148
2015    5       22    17   0    4.2101   455.4    5.069      36.118
2015    5       22    17   6    4.2095   455.3    5.069      36.087
2015    5       22    17  12    4.2089   455.1    5.069      36.056
2015    5       22    17  18    4.2083   455.0    5.069      36.025
2015    5       22    17  24    4.2077   454.8    5.069      35.995
2015    5       22    17  30    4.2071   454.7    5.069      35.964
2015    5       22    17  35    4.2065   454.6    5.069      35.933
2015    5       22    17  41    4.2059   454.4    5.070      35.903
2015    5       22    17  47    4.2053   454.3    5.070      35.873
2015    5       22    17  53    4.2048   454.1    5.070      35.843
2015    5       22    17  59    4.2043   454.0    5.071      35.813
2015    5       22    18   5    4.2037   453.8    5.071      35.783
2015    5       22    18  10    4.2032   453.7    5.072      35.754
2015    5       22    18  16    4.2027   453.6    5.073      35.725
2015    5       22    18  22    4.2022   453.4    5.074      35.696
2015    5       22    18  28    4.2018   453.3    5.075      35.667
2015    5       22    18  34    4.2013   453.1    5.076      35.639
2015    5       22    18  40    4.2009   453.0    5.077      35.611
2015    5       22    18  45    4.2005   452.8    5.078      35.583
2015    5       22    18  51    4.2001   452.7    5.080      35.555
2015    5       22    18  57    4.1997   452.5    5.081      35.528
2015    5       22    19   3    4.1994   452.4    5.083      35.501
2015    5       22    19   9    4.1991   452.2    5.085      35.474
2015    5       22    19  15    4.1988   452.1    5.086      35.447
2015    5       22    19  20    4.1985   451.9    5.088      35.421
2015    5       22    19  26    4.1982   451.8    5.090      35.395
2015    5       22    19  32    4.1979   451.6    5.093      35.368
2015    5       22    19  38    4.1977   451.5    5.095      35.343
2015    5       22    19  44    4.1975   451.3    5.097      35.317
2015    5       22    19  50    4.1973   451.2    5.100      35.291
2015    5       22    19  55    4.1972   451.0    5.102      35.266
2015    5       22    20   1    4.1970   450.9    5.105      35.241
2015    5       22    20   7    4.1969   450.7    5.108      35.216
2015    5       22    20  13    4.1968   450.6    5.110      35.191
2015    5       22    20  19    4.1967   450.4    5.113      35.166
2015    5       22    20  25    4.1966   450.2    5.116      35.142
2015    5       22    20  31    4.1966   450.1    5.119      35.117
2015    5       22    20  36    4.1966   449.9    5.123      35.093
2015    5       22    20  42    4.1966   449.8    5.126      35.069
2015    5       22    20  48    4.1966   449.6    5.129      35.045
2015    5       22    20  54    4.1966   449.4    5.132      35.022
2015    5       22    21   0    4.1967   449.3    5.136      34.999
2015    5       22    21   6    4.1968   449.1    5.139      34.976
2015    5       22    21  11    4.1970   449.0    5.143      34.953
2015    5       22    21  17    4.1971   448.8    5.147      34.931
2015    5       22    21  23    4.1973   448.6    5.150      34.910
2015    5       22    21  29    4.1975   448.5    5.154      34.888
2015    5       22    21  35    4.1978   448.3    5.158      34.867
2015    5       22    21  41    4.1981   448.1    5.162      34.846
2015    5       22    21  46    4.1983   448.0    5.166      34.826
2015    5       22    21  52    4.1986   447.8    5.170      34.806
2015    5       22    21  58    4.1990   447.7    5.174      34.787
2015    5       22    22   4    4.1993   447.5    5.178      34.768
2015    5       22    22  10    4.1997   447.3    5.182      34.749
2015    5       22    22  16    4.2000   447.2    5.186      34.730
2015    5       22    22  21    4.2004   447.0    5.190      34.712
2015    5       22    22  27    4.2007   446.9    5.194      34.693
2015    5       22    22  33    4.2011   446.7    5.198      34.675
2015    5       22    22  39    4.2015   446.5    5.202      34.656
2015    5       22    22  45    4.2018   446.4    5.207      34.638
2015    5       22    22  51    4.2022   446.2    5.211      34.619
2015    5       22    22  57    4.2026   446.0    5.215      34.601
2015    5       22    23   2    4.2030   445.9    5.219      34.583
2015    5       22    23   8    4.2034   445.7    5.223      34.564
2015    5       22    23  14    4.2038   445.6    5.227      34.546
2015    5       22    23  20    4.2042   445.4    5.231      34.527
2015    5       22    23  26    4.2046   445.2    5.235      34.509
2015    5       22    23  32    4.2051   445.1    5.239      34.490
2015    5       22    23  37    4.2055   444.9    5.244      34.471
2015    5       22    23  43    4.2060   444.8    5.248      34.452
2015    5       22    23  49    4.2064   444.6    5.252      34.433
2015    5       22    23  55    4.2069   444.4    5.256      34.414
2015    5       23     0   1    4.2074   444.3    5.260      34.395
