year    month   day   hour  minute  B_enl V_enl   n_enl       T_enl
[year] [month] [day] [hour][minute] [nT]  [km/s]  [cm-3]      [kK]
2015    5       21     0   0    3.3367   406.7    5.321      28.866
2015    5       21     0   6    3.3381   406.5    5.328      28.853
2015    5       21     0  12    3.3396   406.3    5.334      28.840
2015    5       21     0  17    3.3410   406.1    5.341      28.826
2015    5       21     0  23    3.3425   405.9    5.348      28.813
2015    5       21     0  29    3.3440   405.7    5.354      28.800
2015    5       21     0  35    3.3456   405.5    5.361      28.788
2015    5       21     0  41    3.3471   405.3    5.368      28.775
2015    5       21     0  47    3.3487   405.1    5.375      28.762
2015    5       21     0  53    3.3503   405.0    5.382      28.750
2015    5       21     0  59    3.3519   404.8    5.390      28.737
2015    5       21     1   5    3.3536   404.6    5.397      28.725
2015    5       21     1  11    3.3552   404.4    5.404      28.713
2015    5       21     1  16    3.3569   404.2    5.412      28.701
2015    5       21     1  22    3.3587   404.0    5.419      28.690
2015    5       21     1  28    3.3604   403.9    5.427      28.679
2015    5       21     1  34    3.3622   403.7    5.434      28.668
2015    5       21     1  40    3.3640   403.5    5.442      28.657
2015    5       21     1  46    3.3658   403.3    5.450      28.646
2015    5       21     1  52    3.3677   403.1    5.458      28.636
2015    5       21     1  58    3.3696   402.9    5.466      28.626
2015    5       21     2   4    3.3715   402.8    5.474      28.617
2015    5       21     2   9    3.3734   402.6    5.482      28.607
2015    5       21     2  15    3.3754   402.4    5.491      28.598
2015    5       21     2  21    3.3773   402.2    5.499      28.589
2015    5       21     2  27    3.3794   402.1    5.507      28.581
2015    5       21     2  33    3.3814   401.9    5.516      28.573
2015    5       21     2  39    3.3834   401.7    5.524      28.565
2015    5       21     2  45    3.3855   401.5    5.533      28.557
2015    5       21     2  51    3.3876   401.4    5.542      28.550
2015    5       21     2  57    3.3897   401.2    5.550      28.542
2015    5       21     3   2    3.3918   401.0    5.559      28.535
2015    5       21     3   8    3.3940   400.9    5.568      28.529
2015    5       21     3  14    3.3962   400.7    5.577      28.523
2015    5       21     3  20    3.3983   400.5    5.586      28.516
2015    5       21     3  26    3.4005   400.4    5.594      28.510
2015    5       21     3  32    3.4027   400.2    5.603      28.505
2015    5       21     3  38    3.4050   400.0    5.612      28.499
2015    5       21     3  44    3.4072   399.9    5.621      28.494
2015    5       21     3  50    3.4095   399.7    5.630      28.488
2015    5       21     3  56    3.4117   399.5    5.639      28.483
2015    5       21     4   1    3.4140   399.4    5.648      28.478
2015    5       21     4   7    3.4163   399.2    5.657      28.474
2015    5       21     4  13    3.4186   399.1    5.666      28.469
2015    5       21     4  19    3.4209   398.9    5.675      28.464
2015    5       21     4  25    3.4232   398.7    5.684      28.460
2015    5       21     4  31    3.4255   398.6    5.693      28.456
2015    5       21     4  37    3.4278   398.4    5.702      28.451
2015    5       21     4  43    3.4301   398.3    5.711      28.447
2015    5       21     4  49    3.4325   398.1    5.719      28.443
2015    5       21     4  54    3.4348   398.0    5.728      28.439
2015    5       21     5   0    3.4372   397.8    5.737      28.435
2015    5       21     5   6    3.4396   397.7    5.746      28.431
2015    5       21     5  12    3.4419   397.5    5.754      28.427
2015    5       21     5  18    3.4443   397.4    5.763      28.424
2015    5       21     5  24    3.4467   397.2    5.772      28.420
2015    5       21     5  30    3.4491   397.1    5.781      28.416
2015    5       21     5  36    3.4515   396.9    5.789      28.413
2015    5       21     5  42    3.4539   396.8    5.798      28.410
2015    5       21     5  48    3.4563   396.6    5.806      28.406
2015    5       21     5  53    3.4588   396.5    5.815      28.403
2015    5       21     5  59    3.4612   396.3    5.823      28.400
2015    5       21     6   5    3.4636   396.2    5.832      28.397
2015    5       21     6  11    3.4661   396.0    5.840      28.394
2015    5       21     6  17    3.4686   395.9    5.849      28.391
2015    5       21     6  23    3.4710   395.8    5.857      28.388
2015    5       21     6  29    3.4735   395.6    5.866      28.386
2015    5       21     6  35    3.4760   395.5    5.874      28.383
2015    5       21     6  41    3.4785   395.3    5.883      28.381
2015    5       21     6  46    3.4810   395.2    5.891      28.379
2015    5       21     6  52    3.4836   395.1    5.900      28.377
2015    5       21     6  58    3.4861   394.9    5.909      28.375
2015    5       21     7   4    3.4887   394.8    5.917      28.373
2015    5       21     7  10    3.4912   394.6    5.926      28.372
2015    5       21     7  16    3.4938   394.5    5.934      28.370
2015    5       21     7  22    3.4964   394.4    5.943      28.369
2015    5       21     7  28    3.4990   394.2    5.952      28.368
2015    5       21     7  34    3.5016   394.1    5.960      28.367
2015    5       21     7  40    3.5042   394.0    5.969      28.366
2015    5       21     7  45    3.5069   393.8    5.978      28.366
2015    5       21     7  51    3.5095   393.7    5.987      28.366
2015    5       21     7  57    3.5122   393.6    5.996      28.366
2015    5       21     8   3    3.5149   393.4    6.005      28.366
2015    5       21     8   9    3.5175   393.3    6.014      28.366
2015    5       21     8  15    3.5202   393.2    6.023      28.367
2015    5       21     8  21    3.5229   393.0    6.032      28.368
2015    5       21     8  27    3.5257   392.9    6.041      28.369
2015    5       21     8  33    3.5284   392.8    6.051      28.371
2015    5       21     8  38    3.5311   392.7    6.060      28.373
2015    5       21     8  44    3.5339   392.5    6.070      28.375
2015    5       21     8  50    3.5366   392.4    6.079      28.377
2015    5       21     8  56    3.5394   392.3    6.089      28.380
2015    5       21     9   2    3.5421   392.2    6.098      28.383
2015    5       21     9   8    3.5449   392.1    6.108      28.386
2015    5       21     9  14    3.5477   391.9    6.118      28.390
2015    5       21     9  20    3.5505   391.8    6.128      28.393
2015    5       21     9  26    3.5533   391.7    6.138      28.397
2015    5       21     9  32    3.5561   391.6    6.148      28.401
2015    5       21     9  37    3.5589   391.5    6.158      28.406
2015    5       21     9  43    3.5617   391.4    6.168      28.410
2015    5       21     9  49    3.5645   391.2    6.178      28.415
2015    5       21     9  55    3.5673   391.1    6.188      28.420
2015    5       21    10   1    3.5701   391.0    6.198      28.425
2015    5       21    10   7    3.5729   390.9    6.208      28.431
2015    5       21    10  13    3.5757   390.8    6.218      28.436
2015    5       21    10  19    3.5785   390.7    6.229      28.442
2015    5       21    10  25    3.5813   390.6    6.239      28.448
2015    5       21    10  30    3.5841   390.5    6.249      28.454
2015    5       21    10  36    3.5869   390.4    6.259      28.460
2015    5       21    10  42    3.5897   390.3    6.270      28.466
2015    5       21    10  48    3.5925   390.2    6.280      28.472
2015    5       21    10  54    3.5953   390.1    6.290      28.479
2015    5       21    11   0    3.5981   390.0    6.300      28.485
2015    5       21    11   6    3.6009   389.9    6.311      28.492
2015    5       21    11  12    3.6036   389.8    6.321      28.498
2015    5       21    11  18    3.6064   389.6    6.331      28.505
2015    5       21    11  24    3.6092   389.5    6.341      28.512
2015    5       21    11  29    3.6120   389.4    6.351      28.518
2015    5       21    11  35    3.6147   389.3    6.361      28.525
2015    5       21    11  41    3.6175   389.2    6.371      28.532
2015    5       21    11  47    3.6203   389.1    6.382      28.539
2015    5       21    11  53    3.6230   389.0    6.392      28.546
2015    5       21    11  59    3.6258   389.0    6.402      28.553
2015    5       21    12   5    3.6285   388.9    6.412      28.560
2015    5       21    12  11    3.6313   388.8    6.422      28.567
2015    5       21    12  17    3.6340   388.7    6.431      28.575
2015    5       21    12  22    3.6368   388.6    6.441      28.582
2015    5       21    12  28    3.6396   388.5    6.451      28.590
2015    5       21    12  34    3.6423   388.4    6.461      28.598
2015    5       21    12  40    3.6451   388.3    6.470      28.606
2015    5       21    12  46    3.6478   388.2    6.480      28.614
2015    5       21    12  52    3.6506   388.1    6.489      28.623
2015    5       21    12  58    3.6533   388.0    6.499      28.632
2015    5       21    13   4    3.6561   387.9    6.508      28.641
2015    5       21    13  10    3.6588   387.8    6.517      28.650
2015    5       21    13  16    3.6616   387.7    6.527      28.659
2015    5       21    13  21    3.6643   387.6    6.536      28.668
2015    5       21    13  27    3.6671   387.6    6.545      28.678
2015    5       21    13  33    3.6698   387.5    6.554      28.687
2015    5       21    13  39    3.6726   387.4    6.563      28.696
2015    5       21    13  45    3.6753   387.3    6.572      28.705
2015    5       21    13  51    3.6781   387.2    6.580      28.714
2015    5       21    13  57    3.6808   387.1    6.589      28.722
2015    5       21    14   3    3.6836   387.0    6.598      28.731
2015    5       21    14   9    3.6863   386.9    6.607      28.739
2015    5       21    14  14    3.6890   386.9    6.615      28.748
2015    5       21    14  20    3.6918   386.8    6.624      28.756
2015    5       21    14  26    3.6945   386.7    6.632      28.764
2015    5       21    14  32    3.6973   386.6    6.641      28.773
2015    5       21    14  38    3.7000   386.5    6.650      28.780
2015    5       21    14  44    3.7027   386.4    6.658      28.788
2015    5       21    14  50    3.7055   386.4    6.666      28.796
2015    5       21    14  56    3.7082   386.3    6.675      28.804
2015    5       21    15   2    3.7110   386.2    6.683      28.812
2015    5       21    15   8    3.7137   386.1    6.692      28.819
2015    5       21    15  13    3.7164   386.0    6.700      28.827
2015    5       21    15  19    3.7191   386.0    6.708      28.835
2015    5       21    15  25    3.7219   385.9    6.717      28.842
2015    5       21    15  31    3.7246   385.8    6.725      28.850
2015    5       21    15  37    3.7273   385.7    6.733      28.857
2015    5       21    15  43    3.7300   385.7    6.742      28.865
2015    5       21    15  49    3.7327   385.6    6.750      28.872
2015    5       21    15  55    3.7354   385.5    6.758      28.880
2015    5       21    16   1    3.7381   385.4    6.766      28.887
2015    5       21    16   6    3.7408   385.4    6.775      28.895
2015    5       21    16  12    3.7435   385.3    6.783      28.902
2015    5       21    16  18    3.7462   385.2    6.791      28.910
2015    5       21    16  24    3.7489   385.2    6.799      28.917
2015    5       21    16  30    3.7515   385.1    6.807      28.924
2015    5       21    16  36    3.7542   385.0    6.816      28.932
2015    5       21    16  42    3.7568   384.9    6.824      28.939
2015    5       21    16  48    3.7595   384.9    6.832      28.947
2015    5       21    16  54    3.7621   384.8    6.840      28.954
2015    5       21    17   0    3.7647   384.7    6.848      28.961
2015    5       21    17   5    3.7673   384.7    6.856      28.968
2015    5       21    17  11    3.7700   384.6    6.864      28.976
2015    5       21    17  17    3.7725   384.5    6.872      28.983
2015    5       21    17  23    3.7752   384.5    6.881      28.990
2015    5       21    17  29    3.7777   384.4    6.889      28.997
2015    5       21    17  35    3.7803   384.3    6.897      29.004
2015    5       21    17  41    3.7829   384.3    6.905      29.011
2015    5       21    17  47    3.7855   384.2    6.913      29.018
2015    5       21    17  53    3.7880   384.1    6.921      29.025
2015    5       21    17  58    3.7906   384.1    6.929      29.032
2015    5       21    18   4    3.7931   384.0    6.936      29.039
2015    5       21    18  10    3.7957   383.9    6.944      29.046
2015    5       21    18  16    3.7982   383.9    6.952      29.053
2015    5       21    18  22    3.8007   383.8    6.960      29.060
2015    5       21    18  28    3.8033   383.7    6.968      29.067
2015    5       21    18  34    3.8058   383.7    6.976      29.074
2015    5       21    18  40    3.8083   383.6    6.984      29.081
2015    5       21    18  46    3.8108   383.5    6.992      29.088
2015    5       21    18  52    3.8134   383.5    7.000      29.095
2015    5       21    18  57    3.8159   383.4    7.008      29.102
2015    5       21    19   3    3.8184   383.4    7.015      29.110
2015    5       21    19   9    3.8209   383.3    7.023      29.117
2015    5       21    19  15    3.8234   383.2    7.031      29.124
2015    5       21    19  21    3.8259   383.2    7.039      29.132
2015    5       21    19  27    3.8285   383.1    7.047      29.140
2015    5       21    19  33    3.8310   383.0    7.055      29.147
2015    5       21    19  39    3.8335   383.0    7.062      29.156
2015    5       21    19  45    3.8360   382.9    7.070      29.164
2015    5       21    19  50    3.8385   382.9    7.078      29.172
2015    5       21    19  56    3.8410   382.8    7.085      29.181
2015    5       21    20   2    3.8435   382.7    7.093      29.190
2015    5       21    20   8    3.8460   382.7    7.101      29.200
2015    5       21    20  14    3.8485   382.6    7.108      29.209
2015    5       21    20  20    3.8510   382.6    7.116      29.218
2015    5       21    20  26    3.8535   382.5    7.123      29.228
2015    5       21    20  32    3.8560   382.4    7.131      29.238
2015    5       21    20  38    3.8584   382.4    7.138      29.247
2015    5       21    20  44    3.8609   382.3    7.145      29.257
2015    5       21    20  49    3.8634   382.3    7.153      29.266
2015    5       21    20  55    3.8658   382.2    7.160      29.275
2015    5       21    21   1    3.8682   382.1    7.167      29.284
2015    5       21    21   7    3.8707   382.1    7.175      29.293
2015    5       21    21  13    3.8731   382.0    7.182      29.302
2015    5       21    21  19    3.8755   382.0    7.189      29.311
2015    5       21    21  25    3.8779   381.9    7.196      29.319
2015    5       21    21  31    3.8803   381.9    7.203      29.328
2015    5       21    21  37    3.8827   381.8    7.210      29.336
2015    5       21    21  42    3.8851   381.7    7.217      29.344
2015    5       21    21  48    3.8875   381.7    7.224      29.352
2015    5       21    21  54    3.8898   381.6    7.231      29.359
2015    5       21    22   0    3.8922   381.6    7.238      29.367
2015    5       21    22   6    3.8945   381.5    7.245      29.374
2015    5       21    22  12    3.8969   381.5    7.252      29.381
2015    5       21    22  18    3.8992   381.4    7.258      29.388
2015    5       21    22  24    3.9016   381.3    7.265      29.395
2015    5       21    22  30    3.9039   381.3    7.272      29.402
2015    5       21    22  35    3.9062   381.2    7.278      29.408
2015    5       21    22  41    3.9085   381.2    7.285      29.415
2015    5       21    22  47    3.9108   381.1    7.291      29.421
2015    5       21    22  53    3.9131   381.1    7.298      29.427
2015    5       21    22  59    3.9154   381.0    7.305      29.433
2015    5       21    23   5    3.9177   380.9    7.311      29.439
2015    5       21    23  11    3.9201   380.9    7.317      29.444
2015    5       21    23  17    3.9224   380.8    7.324      29.450
2015    5       21    23  23    3.9247   380.8    7.330      29.455
2015    5       21    23  29    3.9270   380.7    7.337      29.460
2015    5       21    23  34    3.9293   380.6    7.343      29.465
2015    5       21    23  40    3.9316   380.6    7.349      29.471
2015    5       21    23  46    3.9339   380.5    7.356      29.476
2015    5       21    23  52    3.9362   380.5    7.362      29.480
2015    5       21    23  58    3.9385   380.4    7.368      29.485
2015    5       22     0   4    3.9408   380.4    7.375      29.490
2015    5       22     0  10    3.9431   380.3    7.381      29.495
2015    5       22     0  16    3.9455   380.2    7.387      29.499
2015    5       22     0  22    3.9478   380.2    7.394      29.504
2015    5       22     0  27    3.9501   380.1    7.400      29.509
2015    5       22     0  33    3.9525   380.1    7.406      29.513
2015    5       22     0  39    3.9549   380.0    7.413      29.518
2015    5       22     0  45    3.9573   379.9    7.419      29.522
2015    5       22     0  51    3.9597   379.9    7.425      29.527
2015    5       22     0  57    3.9621   379.8    7.432      29.532
2015    5       22     1   3    3.9645   379.8    7.438      29.537
2015    5       22     1   9    3.9669   379.7    7.445      29.541
2015    5       22     1  15    3.9694   379.7    7.451      29.546
2015    5       22     1  21    3.9718   379.6    7.458      29.551
2015    5       22     1  26    3.9743   379.5    7.465      29.556
2015    5       22     1  32    3.9768   379.5    7.471      29.561
2015    5       22     1  38    3.9793   379.4    7.478      29.566
2015    5       22     1  44    3.9818   379.4    7.485      29.571
2015    5       22     1  50    3.9843   379.3    7.491      29.576
2015    5       22     1  56    3.9869   379.3    7.498      29.582
2015    5       22     2   2    3.9894   379.2    7.505      29.587
2015    5       22     2   8    3.9920   379.1    7.512      29.592
2015    5       22     2  14    3.9945   379.1    7.519      29.598
2015    5       22     2  19    3.9971   379.0    7.526      29.603
2015    5       22     2  25    3.9997   379.0    7.533      29.609
2015    5       22     2  31    4.0023   378.9    7.540      29.615
2015    5       22     2  37    4.0048   378.9    7.547      29.620
2015    5       22     2  43    4.0074   378.8    7.554      29.626
2015    5       22     2  49    4.0100   378.8    7.561      29.632
2015    5       22     2  55    4.0126   378.7    7.568      29.638
2015    5       22     3   1    4.0152   378.6    7.575      29.644
2015    5       22     3   7    4.0178   378.6    7.582      29.650
2015    5       22     3  13    4.0204   378.5    7.589      29.656
2015    5       22     3  18    4.0230   378.5    7.597      29.662
2015    5       22     3  24    4.0256   378.4    7.604      29.668
2015    5       22     3  30    4.0282   378.4    7.611      29.674
2015    5       22     3  36    4.0307   378.3    7.618      29.680
2015    5       22     3  42    4.0333   378.3    7.625      29.686
2015    5       22     3  48    4.0359   378.2    7.633      29.692
2015    5       22     3  54    4.0385   378.2    7.640      29.698
2015    5       22     4   0    4.0411   378.1    7.647      29.704
2015    5       22     4   6    4.0436   378.1    7.654      29.710
2015    5       22     4  11    4.0462   378.0    7.662      29.716
2015    5       22     4  17    4.0488   378.0    7.669      29.721
2015    5       22     4  23    4.0513   377.9    7.676      29.727
2015    5       22     4  29    4.0539   377.9    7.684      29.733
2015    5       22     4  35    4.0564   377.8    7.691      29.739
2015    5       22     4  41    4.0590   377.8    7.698      29.745
2015    5       22     4  47    4.0615   377.7    7.705      29.751
2015    5       22     4  53    4.0641   377.7    7.712      29.756
2015    5       22     4  59    4.0666   377.6    7.720      29.762
2015    5       22     5   5    4.0692   377.6    7.727      29.768
2015    5       22     5  10    4.0717   377.5    7.734      29.774
2015    5       22     5  16    4.0742   377.5    7.741      29.779
2015    5       22     5  22    4.0768   377.4    7.749      29.785
2015    5       22     5  28    4.0793   377.4    7.756      29.791
2015    5       22     5  34    4.0819   377.3    7.763      29.796
2015    5       22     5  40    4.0844   377.3    7.770      29.802
2015    5       22     5  46    4.0869   377.2    7.777      29.807
2015    5       22     5  52    4.0895   377.1    7.784      29.813
2015    5       22     5  58    4.0920   377.1    7.792      29.819
2015    5       22     6   3    4.0946   377.0    7.799      29.824
2015    5       22     6   9    4.0972   377.0    7.806      29.830
2015    5       22     6  15    4.0997   376.9    7.813      29.836
2015    5       22     6  21    4.1023   376.9    7.820      29.842
2015    5       22     6  27    4.1049   376.8    7.828      29.848
2015    5       22     6  33    4.1075   376.8    7.835      29.854
2015    5       22     6  39    4.1101   376.7    7.842      29.860
2015    5       22     6  45    4.1127   376.7    7.849      29.866
2015    5       22     6  51    4.1153   376.6    7.857      29.873
2015    5       22     6  57    4.1180   376.6    7.864      29.879
2015    5       22     7   2    4.1207   376.5    7.871      29.886
2015    5       22     7   8    4.1234   376.5    7.879      29.892
2015    5       22     7  14    4.1261   376.4    7.886      29.899
2015    5       22     7  20    4.1288   376.3    7.894      29.906
2015    5       22     7  26    4.1315   376.3    7.902      29.913
2015    5       22     7  32    4.1343   376.2    7.909      29.921
2015    5       22     7  38    4.1371   376.2    7.917      29.928
2015    5       22     7  44    4.1399   376.1    7.925      29.936
2015    5       22     7  50    4.1428   376.1    7.933      29.944
2015    5       22     7  55    4.1456   376.0    7.941      29.952
2015    5       22     8   1    4.1485   376.0    7.949      29.960
2015    5       22     8   7    4.1515   375.9    7.957      29.968
2015    5       22     8  13    4.1544   375.9    7.965      29.977
2015    5       22     8  19    4.1574   375.8    7.973      29.985
2015    5       22     8  25    4.1604   375.8    7.981      29.994
2015    5       22     8  31    4.1634   375.7    7.990      30.003
2015    5       22     8  37    4.1665   375.7    7.998      30.012
2015    5       22     8  43    4.1696   375.6    8.006      30.021
2015    5       22     8  49    4.1727   375.6    8.015      30.031
2015    5       22     8  54    4.1758   375.5    8.024      30.040
2015    5       22     9   0    4.1789   375.5    8.032      30.050
2015    5       22     9   6    4.1821   375.5    8.041      30.059
2015    5       22     9  12    4.1853   375.4    8.050      30.069
2015    5       22     9  18    4.1885   375.4    8.059      30.079
2015    5       22     9  24    4.1917   375.3    8.067      30.089
2015    5       22     9  30    4.1950   375.3    8.076      30.099
2015    5       22     9  36    4.1982   375.2    8.085      30.109
2015    5       22     9  42    4.2015   375.2    8.094      30.119
2015    5       22     9  47    4.2048   375.1    8.103      30.129
2015    5       22     9  53    4.2081   375.1    8.112      30.139
2015    5       22     9  59    4.2114   375.1    8.122      30.149
2015    5       22    10   5    4.2148   375.0    8.131      30.159
2015    5       22    10  11    4.2181   375.0    8.140      30.169
2015    5       22    10  17    4.2214   374.9    8.149      30.179
2015    5       22    10  23    4.2248   374.9    8.158      30.189
2015    5       22    10  29    4.2281   374.9    8.168      30.199
2015    5       22    10  35    4.2314   374.8    8.177      30.210
2015    5       22    10  41    4.2348   374.8    8.186      30.220
2015    5       22    10  46    4.2381   374.7    8.195      30.230
2015    5       22    10  52    4.2414   374.7    8.205      30.241
2015    5       22    10  58    4.2448   374.7    8.214      30.251
2015    5       22    11   4    4.2481   374.6    8.223      30.262
2015    5       22    11  10    4.2514   374.6    8.232      30.272
2015    5       22    11  16    4.2548   374.6    8.241      30.282
2015    5       22    11  22    4.2581   374.5    8.250      30.292
2015    5       22    11  28    4.2614   374.5    8.259      30.302
2015    5       22    11  34    4.2648   374.5    8.268      30.312
2015    5       22    11  39    4.2681   374.4    8.277      30.322
2015    5       22    11  45    4.2714   374.4    8.285      30.332
2015    5       22    11  51    4.2747   374.4    8.294      30.341
2015    5       22    11  57    4.2781   374.4    8.303      30.351
2015    5       22    12   3    4.2814   374.3    8.311      30.360
2015    5       22    12   9    4.2847   374.3    8.320      30.370
2015    5       22    12  15    4.2881   374.3    8.329      30.379
2015    5       22    12  21    4.2914   374.2    8.337      30.388
2015    5       22    12  27    4.2948   374.2    8.346      30.397
2015    5       22    12  33    4.2981   374.2    8.354      30.406
2015    5       22    12  38    4.3015   374.1    8.363      30.415
2015    5       22    12  44    4.3048   374.1    8.371      30.424
2015    5       22    12  50    4.3082   374.1    8.380      30.433
2015    5       22    12  56    4.3116   374.0    8.388      30.442
2015    5       22    13   2    4.3150   374.0    8.397      30.450
2015    5       22    13   8    4.3184   374.0    8.405      30.459
2015    5       22    13  14    4.3218   373.9    8.413      30.468
2015    5       22    13  20    4.3252   373.9    8.422      30.477
2015    5       22    13  26    4.3286   373.9    8.430      30.486
2015    5       22    13  31    4.3321   373.9    8.438      30.495
2015    5       22    13  37    4.3355   373.8    8.447      30.505
2015    5       22    13  43    4.3390   373.8    8.455      30.514
2015    5       22    13  49    4.3425   373.8    8.464      30.524
2015    5       22    13  55    4.3460   373.7    8.472      30.534
2015    5       22    14   1    4.3495   373.7    8.481      30.544
2015    5       22    14   7    4.3531   373.7    8.489      30.554
2015    5       22    14  13    4.3566   373.7    8.498      30.564
2015    5       22    14  19    4.3602   373.6    8.506      30.575
2015    5       22    14  25    4.3638   373.6    8.515      30.586
2015    5       22    14  30    4.3674   373.6    8.523      30.597
2015    5       22    14  36    4.3711   373.6    8.532      30.608
2015    5       22    14  42    4.3747   373.5    8.541      30.620
2015    5       22    14  48    4.3784   373.5    8.550      30.631
2015    5       22    14  54    4.3821   373.5    8.558      30.643
2015    5       22    15   0    4.3858   373.5    8.567      30.656
2015    5       22    15   6    4.3896   373.4    8.576      30.668
2015    5       22    15  12    4.3933   373.4    8.585      30.681
2015    5       22    15  18    4.3971   373.4    8.594      30.694
2015    5       22    15  23    4.4009   373.4    8.603      30.707
2015    5       22    15  29    4.4048   373.4    8.612      30.721
2015    5       22    15  35    4.4086   373.3    8.621      30.735
2015    5       22    15  41    4.4125   373.3    8.630      30.748
2015    5       22    15  47    4.4164   373.3    8.640      30.763
2015    5       22    15  53    4.4203   373.3    8.649      30.777
2015    5       22    15  59    4.4242   373.3    8.658      30.791
2015    5       22    16   5    4.4281   373.2    8.668      30.806
2015    5       22    16  11    4.4321   373.2    8.677      30.821
2015    5       22    16  16    4.4360   373.2    8.686      30.836
2015    5       22    16  22    4.4400   373.2    8.696      30.851
2015    5       22    16  28    4.4440   373.2    8.705      30.866
2015    5       22    16  34    4.4481   373.2    8.715      30.881
2015    5       22    16  40    4.4521   373.2    8.724      30.897
2015    5       22    16  46    4.4562   373.1    8.734      30.912
2015    5       22    16  52    4.4602   373.1    8.743      30.928
2015    5       22    16  58    4.4643   373.1    8.753      30.943
2015    5       22    17   4    4.4684   373.1    8.762      30.959
2015    5       22    17  10    4.4725   373.1    8.772      30.975
2015    5       22    17  15    4.4767   373.1    8.782      30.991
2015    5       22    17  21    4.4808   373.1    8.792      31.006
2015    5       22    17  27    4.4850   373.1    8.801      31.022
2015    5       22    17  33    4.4892   373.1    8.811      31.038
2015    5       22    17  39    4.4933   373.1    8.821      31.054
2015    5       22    17  45    4.4975   373.0    8.831      31.070
2015    5       22    17  51    4.5017   373.0    8.841      31.086
2015    5       22    17  57    4.5060   373.0    8.850      31.102
2015    5       22    18   3    4.5102   373.0    8.860      31.119
2015    5       22    18   9    4.5144   373.0    8.870      31.135
2015    5       22    18  14    4.5186   373.0    8.880      31.152
2015    5       22    18  20    4.5229   373.0    8.889      31.168
2015    5       22    18  26    4.5271   373.0    8.899      31.185
2015    5       22    18  32    4.5314   373.0    8.909      31.201
2015    5       22    18  38    4.5357   373.0    8.918      31.218
2015    5       22    18  44    4.5400   373.0    8.928      31.234
2015    5       22    18  50    4.5443   373.0    8.938      31.250
2015    5       22    18  56    4.5486   373.0    8.947      31.267
2015    5       22    19   2    4.5529   373.0    8.957      31.283
2015    5       22    19   7    4.5572   373.0    8.966      31.299
2015    5       22    19  13    4.5616   373.0    8.976      31.314
2015    5       22    19  19    4.5659   373.0    8.985      31.330
2015    5       22    19  25    4.5703   373.0    8.995      31.346
2015    5       22    19  31    4.5747   373.0    9.004      31.361
2015    5       22    19  37    4.5791   373.0    9.014      31.376
2015    5       22    19  43    4.5835   373.0    9.023      31.391
2015    5       22    19  49    4.5880   373.0    9.033      31.406
2015    5       22    19  55    4.5924   373.0    9.042      31.421
2015    5       22    20   0    4.5968   373.0    9.052      31.436
2015    5       22    20   6    4.6013   373.0    9.061      31.452
2015    5       22    20  12    4.6057   373.0    9.071      31.467
2015    5       22    20  18    4.6102   373.0    9.080      31.483
2015    5       22    20  24    4.6146   373.1    9.089      31.500
2015    5       22    20  30    4.6191   373.1    9.099      31.517
2015    5       22    20  36    4.6235   373.1    9.108      31.534
2015    5       22    20  42    4.6280   373.1    9.117      31.552
2015    5       22    20  48    4.6324   373.1    9.126      31.569
2015    5       22    20  54    4.6368   373.1    9.135      31.587
2015    5       22    20  59    4.6413   373.1    9.143      31.606
2015    5       22    21   5    4.6457   373.1    9.152      31.624
2015    5       22    21  11    4.6502   373.1    9.161      31.642
2015    5       22    21  17    4.6546   373.2    9.169      31.660
2015    5       22    21  23    4.6590   373.2    9.178      31.678
2015    5       22    21  29    4.6635   373.2    9.186      31.697
2015    5       22    21  35    4.6679   373.2    9.194      31.715
2015    5       22    21  41    4.6723   373.2    9.202      31.733
2015    5       22    21  47    4.6768   373.2    9.210      31.751
2015    5       22    21  52    4.6812   373.2    9.219      31.769
2015    5       22    21  58    4.6857   373.3    9.227      31.788
2015    5       22    22   4    4.6902   373.3    9.235      31.806
2015    5       22    22  10    4.6946   373.3    9.243      31.824
2015    5       22    22  16    4.6991   373.3    9.250      31.843
2015    5       22    22  22    4.7036   373.3    9.258      31.861
2015    5       22    22  28    4.7081   373.3    9.266      31.880
2015    5       22    22  34    4.7126   373.4    9.274      31.898
2015    5       22    22  40    4.7171   373.4    9.282      31.917
2015    5       22    22  46    4.7216   373.4    9.290      31.935
2015    5       22    22  51    4.7261   373.4    9.297      31.954
2015    5       22    22  57    4.7307   373.4    9.305      31.973
2015    5       22    23   3    4.7352   373.5    9.313      31.991
2015    5       22    23   9    4.7398   373.5    9.321      32.010
2015    5       22    23  15    4.7444   373.5    9.328      32.029
2015    5       22    23  21    4.7489   373.5    9.336      32.048
2015    5       22    23  27    4.7535   373.5    9.344      32.067
2015    5       22    23  33    4.7581   373.6    9.351      32.086
2015    5       22    23  39    4.7627   373.6    9.359      32.105
2015    5       22    23  44    4.7674   373.6    9.367      32.124
2015    5       22    23  50    4.7720   373.6    9.374      32.143
2015    5       22    23  56    4.7767   373.7    9.382      32.162
2015    5       23     0   2    4.7813   373.7    9.389      32.181
2015    5       23     0   8    4.7860   373.7    9.397      32.200
2015    5       23     0  14    4.7907   373.7    9.405      32.220
2015    5       23     0  20    4.7954   373.8    9.412      32.239
2015    5       23     0  26    4.8002   373.8    9.420      32.259
2015    5       23     0  32    4.8049   373.8    9.428      32.278
2015    5       23     0  38    4.8097   373.8    9.435      32.298
2015    5       23     0  43    4.8145   373.9    9.443      32.318
2015    5       23     0  49    4.8194   373.9    9.451      32.338
2015    5       23     0  55    4.8242   373.9    9.459      32.359
2015    5       23     1   1    4.8291   374.0    9.466      32.379
2015    5       23     1   7    4.8341   374.0    9.474      32.400
2015    5       23     1  13    4.8390   374.0    9.482      32.421
2015    5       23     1  19    4.8440   374.1    9.490      32.442
2015    5       23     1  25    4.8490   374.1    9.498      32.463
2015    5       23     1  31    4.8540   374.1    9.507      32.484
2015    5       23     1  36    4.8591   374.2    9.515      32.506
2015    5       23     1  42    4.8642   374.2    9.523      32.528
2015    5       23     1  48    4.8693   374.2    9.531      32.550
2015    5       23     1  54    4.8745   374.3    9.540      32.573
2015    5       23     2   0    4.8797   374.3    9.548      32.595
2015    5       23     2   6    4.8850   374.3    9.557      32.618
2015    5       23     2  12    4.8902   374.4    9.566      32.641
2015    5       23     2  18    4.8955   374.4    9.575      32.664
2015    5       23     2  24    4.9009   374.4    9.584      32.687
2015    5       23     2  30    4.9063   374.5    9.593      32.710
2015    5       23     2  35    4.9117   374.5    9.602      32.734
2015    5       23     2  41    4.9171   374.6    9.611      32.757
2015    5       23     2  47    4.9226   374.6    9.621      32.781
2015    5       23     2  53    4.9281   374.6    9.630      32.805
2015    5       23     2  59    4.9336   374.7    9.640      32.829
2015    5       23     3   5    4.9390   374.7    9.650      32.853
2015    5       23     3  11    4.9445   374.8    9.660      32.878
2015    5       23     3  17    4.9500   374.8    9.670      32.903
2015    5       23     3  23    4.9554   374.9    9.680      32.929
2015    5       23     3  28    4.9609   374.9    9.690      32.955
2015    5       23     3  34    4.9663   375.0    9.700      32.983
2015    5       23     3  40    4.9717   375.0    9.710      33.011
2015    5       23     3  46    4.9771   375.1    9.719      33.040
2015    5       23     3  52    4.9825   375.1    9.729      33.070
2015    5       23     3  58    4.9878   375.2    9.739      33.100
2015    5       23     4   4    4.9931   375.2    9.748      33.132
2015    5       23     4  10    4.9984   375.3    9.757      33.163
2015    5       23     4  16    5.0036   375.4    9.766      33.195
2015    5       23     4  22    5.0088   375.4    9.775      33.227
2015    5       23     4  27    5.0140   375.5    9.783      33.259
2015    5       23     4  33    5.0192   375.5    9.792      33.290
2015    5       23     4  39    5.0243   375.6    9.800      33.321
2015    5       23     4  45    5.0294   375.7    9.807      33.352
2015    5       23     4  51    5.0344   375.7    9.815      33.382
2015    5       23     4  57    5.0395   375.8    9.823      33.413
2015    5       23     5   3    5.0445   375.8    9.830      33.443
2015    5       23     5   9    5.0495   375.9    9.837      33.473
2015    5       23     5  15    5.0545   376.0    9.844      33.502
2015    5       23     5  20    5.0595   376.0    9.850      33.532
2015    5       23     5  26    5.0645   376.1    9.857      33.561
2015    5       23     5  32    5.0694   376.2    9.863      33.590
2015    5       23     5  38    5.0744   376.2    9.870      33.618
2015    5       23     5  44    5.0794   376.3    9.876      33.647
2015    5       23     5  50    5.0843   376.4    9.882      33.675
2015    5       23     5  56    5.0893   376.4    9.888      33.703
2015    5       23     6   2    5.0942   376.5    9.894      33.731
2015    5       23     6   8    5.0992   376.5    9.899      33.759
2015    5       23     6  14    5.1042   376.6    9.905      33.787
2015    5       23     6  19    5.1091   376.7    9.910      33.814
2015    5       23     6  25    5.1141   376.7    9.916      33.842
2015    5       23     6  31    5.1191   376.8    9.921      33.869
2015    5       23     6  37    5.1241   376.9    9.926      33.896
2015    5       23     6  43    5.1290   376.9    9.931      33.923
2015    5       23     6  49    5.1340   377.0    9.936      33.950
2015    5       23     6  55    5.1390   377.1    9.941      33.977
2015    5       23     7   1    5.1440   377.2    9.946      34.004
2015    5       23     7   7    5.1490   377.2    9.951      34.031
2015    5       23     7  12    5.1540   377.3    9.956      34.057
2015    5       23     7  18    5.1590   377.4    9.960      34.084
2015    5       23     7  24    5.1641   377.4    9.965      34.111
2015    5       23     7  30    5.1691   377.5    9.969      34.137
2015    5       23     7  36    5.1742   377.6    9.974      34.164
2015    5       23     7  42    5.1793   377.7    9.978      34.191
2015    5       23     7  48    5.1844   377.7    9.982      34.218
2015    5       23     7  54    5.1895   377.8    9.987      34.245
2015    5       23     8   0    5.1946   377.9    9.991      34.272
2015    5       23     8   5    5.1998   378.0    9.995      34.299
2015    5       23     8  11    5.2049   378.0   10.000      34.326
2015    5       23     8  17    5.2101   378.1   10.004      34.353
2015    5       23     8  23    5.2153   378.2   10.008      34.381
2015    5       23     8  29    5.2206   378.3   10.012      34.408
2015    5       23     8  35    5.2258   378.4   10.017      34.436
2015    5       23     8  41    5.2311   378.4   10.021      34.464
2015    5       23     8  47    5.2364   378.5   10.025      34.491
2015    5       23     8  53    5.2417   378.6   10.030      34.519
2015    5       23     8  59    5.2471   378.7   10.034      34.547
2015    5       23     9   4    5.2525   378.8   10.039      34.575
2015    5       23     9  10    5.2579   378.8   10.043      34.604
2015    5       23     9  16    5.2633   378.9   10.048      34.632
2015    5       23     9  22    5.2688   379.0   10.053      34.661
2015    5       23     9  28    5.2743   379.1   10.057      34.690
2015    5       23     9  34    5.2799   379.2   10.062      34.719
2015    5       23     9  40    5.2855   379.3   10.067      34.748
2015    5       23     9  46    5.2911   379.3   10.072      34.778
2015    5       23     9  52    5.2968   379.4   10.077      34.808
2015    5       23     9  57    5.3025   379.5   10.082      34.838
2015    5       23    10   3    5.3082   379.6   10.088      34.868
2015    5       23    10   9    5.3140   379.7   10.093      34.899
2015    5       23    10  15    5.3198   379.8   10.099      34.931
2015    5       23    10  21    5.3256   379.9   10.105      34.962
2015    5       23    10  27    5.3315   380.0   10.110      34.994
2015    5       23    10  33    5.3373   380.1   10.117      35.026
2015    5       23    10  39    5.3431   380.2   10.123      35.058
2015    5       23    10  45    5.3490   380.3   10.129      35.091
2015    5       23    10  51    5.3548   380.3   10.136      35.125
2015    5       23    10  56    5.3606   380.4   10.143      35.159
2015    5       23    11   2    5.3664   380.6   10.149      35.194
2015    5       23    11   8    5.3721   380.7   10.156      35.231
2015    5       23    11  14    5.3778   380.8   10.163      35.268
2015    5       23    11  20    5.3835   380.9   10.169      35.307
2015    5       23    11  26    5.3892   381.0   10.175      35.347
2015    5       23    11  32    5.3948   381.1   10.181      35.388
2015    5       23    11  38    5.4003   381.2   10.187      35.429
2015    5       23    11  44    5.4058   381.4   10.193      35.471
2015    5       23    11  49    5.4113   381.5   10.199      35.512
2015    5       23    11  55    5.4167   381.6   10.204      35.552
2015    5       23    12   1    5.4220   381.7   10.209      35.593
2015    5       23    12   7    5.4273   381.8   10.214      35.633
2015    5       23    12  13    5.4325   381.9   10.218      35.673
2015    5       23    12  19    5.4378   382.0   10.223      35.714
2015    5       23    12  25    5.4429   382.2   10.227      35.753
2015    5       23    12  31    5.4481   382.3   10.231      35.793
2015    5       23    12  37    5.4532   382.4   10.235      35.832
2015    5       23    12  43    5.4583   382.5   10.238      35.871
2015    5       23    12  48    5.4634   382.6   10.242      35.910
2015    5       23    12  54    5.4684   382.7   10.245      35.949
2015    5       23    13   0    5.4734   382.8   10.249      35.987
2015    5       23    13   6    5.4785   382.9   10.252      36.025
2015    5       23    13  12    5.4835   383.1   10.255      36.063
2015    5       23    13  18    5.4885   383.2   10.258      36.101
2015    5       23    13  24    5.4935   383.3   10.260      36.139
2015    5       23    13  30    5.4984   383.4   10.263      36.177
2015    5       23    13  36    5.5034   383.5   10.266      36.214
2015    5       23    13  41    5.5084   383.6   10.268      36.251
2015    5       23    13  47    5.5133   383.7   10.270      36.288
2015    5       23    13  53    5.5183   383.9   10.272      36.325
2015    5       23    13  59    5.5232   384.0   10.275      36.362
2015    5       23    14   5    5.5281   384.1   10.277      36.399
2015    5       23    14  11    5.5331   384.2   10.278      36.435
2015    5       23    14  17    5.5380   384.3   10.280      36.471
2015    5       23    14  23    5.5429   384.4   10.282      36.508
2015    5       23    14  29    5.5478   384.5   10.283      36.544
2015    5       23    14  35    5.5528   384.7   10.285      36.579
2015    5       23    14  40    5.5577   384.8   10.286      36.615
2015    5       23    14  46    5.5626   384.9   10.287      36.651
2015    5       23    14  52    5.5675   385.0   10.289      36.686
2015    5       23    14  58    5.5725   385.1   10.290      36.721
2015    5       23    15   4    5.5774   385.2   10.291      36.757
2015    5       23    15  10    5.5823   385.4   10.292      36.792
2015    5       23    15  16    5.5872   385.5   10.293      36.827
2015    5       23    15  22    5.5922   385.6   10.293      36.861
2015    5       23    15  28    5.5971   385.7   10.294      36.896
2015    5       23    15  33    5.6021   385.8   10.295      36.931
2015    5       23    15  39    5.6070   385.9   10.296      36.966
2015    5       23    15  45    5.6120   386.1   10.296      37.000
2015    5       23    15  51    5.6169   386.2   10.297      37.035
2015    5       23    15  57    5.6219   386.3   10.298      37.069
2015    5       23    16   3    5.6269   386.4   10.299      37.103
2015    5       23    16   9    5.6319   386.5   10.299      37.138
2015    5       23    16  15    5.6370   386.7   10.300      37.172
2015    5       23    16  21    5.6420   386.8   10.301      37.206
2015    5       23    16  27    5.6471   386.9   10.302      37.241
2015    5       23    16  32    5.6522   387.0   10.303      37.275
2015    5       23    16  38    5.6574   387.1   10.304      37.310
2015    5       23    16  44    5.6626   387.2   10.306      37.344
2015    5       23    16  50    5.6678   387.4   10.307      37.380
2015    5       23    16  56    5.6731   387.5   10.309      37.415
2015    5       23    17   2    5.6784   387.6   10.311      37.450
2015    5       23    17   8    5.6838   387.7   10.313      37.486
2015    5       23    17  14    5.6893   387.8   10.315      37.522
2015    5       23    17  20    5.6948   387.9   10.318      37.560
2015    5       23    17  25    5.7004   388.1   10.321      37.598
2015    5       23    17  31    5.7060   388.2   10.324      37.636
2015    5       23    17  37    5.7118   388.3   10.328      37.675
2015    5       23    17  43    5.7176   388.4   10.332      37.715
2015    5       23    17  49    5.7234   388.5   10.337      37.755
2015    5       23    17  55    5.7293   388.7   10.342      37.797
2015    5       23    18   1    5.7352   388.8   10.347      37.840
2015    5       23    18   7    5.7412   388.9   10.352      37.886
2015    5       23    18  13    5.7472   389.1   10.358      37.933
2015    5       23    18  18    5.7532   389.2   10.364      37.981
2015    5       23    18  24    5.7591   389.4   10.369      38.031
2015    5       23    18  30    5.7650   389.5   10.374      38.083
2015    5       23    18  36    5.7709   389.7   10.380      38.136
2015    5       23    18  42    5.7767   389.9   10.385      38.191
2015    5       23    18  48    5.7824   390.0   10.389      38.244
2015    5       23    18  54    5.7881   390.2   10.394      38.298
2015    5       23    19   0    5.7936   390.4   10.398      38.351
2015    5       23    19   6    5.7991   390.5   10.401      38.403
2015    5       23    19  12    5.8045   390.7   10.405      38.455
2015    5       23    19  17    5.8098   390.9   10.408      38.506
2015    5       23    19  23    5.8151   391.0   10.410      38.557
2015    5       23    19  29    5.8202   391.2   10.412      38.608
2015    5       23    19  35    5.8253   391.4   10.414      38.658
2015    5       23    19  41    5.8303   391.5   10.416      38.708
2015    5       23    19  47    5.8353   391.7   10.417      38.757
2015    5       23    19  53    5.8402   391.9   10.419      38.806
2015    5       23    19  59    5.8451   392.0   10.419      38.854
2015    5       23    20   5    5.8500   392.2   10.420      38.903
2015    5       23    20  10    5.8548   392.4   10.421      38.950
2015    5       23    20  16    5.8595   392.5   10.421      38.998
2015    5       23    20  22    5.8643   392.7   10.421      39.045
2015    5       23    20  28    5.8690   392.9   10.421      39.093
2015    5       23    20  34    5.8737   393.1   10.421      39.140
2015    5       23    20  40    5.8783   393.2   10.420      39.186
2015    5       23    20  46    5.8829   393.4   10.419      39.233
2015    5       23    20  52    5.8875   393.6   10.419      39.280
2015    5       23    20  58    5.8921   393.7   10.418      39.326
2015    5       23    21   4    5.8967   393.9   10.417      39.373
2015    5       23    21   9    5.9012   394.1   10.415      39.419
2015    5       23    21  15    5.9057   394.2   10.414      39.465
2015    5       23    21  21    5.9102   394.4   10.412      39.511
2015    5       23    21  27    5.9147   394.6   10.411      39.557
2015    5       23    21  33    5.9191   394.8   10.409      39.603
2015    5       23    21  39    5.9236   394.9   10.407      39.649
2015    5       23    21  45    5.9280   395.1   10.405      39.695
2015    5       23    21  51    5.9324   395.3   10.402      39.740
2015    5       23    21  57    5.9367   395.4   10.400      39.786
2015    5       23    22   2    5.9411   395.6   10.398      39.831
2015    5       23    22   8    5.9454   395.8   10.395      39.877
2015    5       23    22  14    5.9497   396.0   10.392      39.922
2015    5       23    22  20    5.9540   396.1   10.390      39.968
2015    5       23    22  26    5.9583   396.3   10.387      40.013
2015    5       23    22  32    5.9626   396.5   10.384      40.058
2015    5       23    22  38    5.9669   396.7   10.381      40.103
2015    5       23    22  44    5.9711   396.8   10.378      40.149
2015    5       23    22  50    5.9754   397.0   10.375      40.194
2015    5       23    22  55    5.9796   397.2   10.372      40.239
2015    5       23    23   1    5.9838   397.3   10.369      40.284
2015    5       23    23   7    5.9881   397.5   10.366      40.328
2015    5       23    23  13    5.9923   397.7   10.363      40.373
2015    5       23    23  19    5.9965   397.9   10.360      40.418
2015    5       23    23  25    6.0007   398.0   10.357      40.463
2015    5       23    23  31    6.0050   398.2   10.354      40.507
2015    5       23    23  37    6.0092   398.4   10.351      40.552
2015    5       23    23  43    6.0134   398.6   10.348      40.596
2015    5       23    23  49    6.0177   398.7   10.345      40.641
2015    5       23    23  54    6.0220   398.9   10.342      40.685
2015    5       24     0   0    6.0262   399.1   10.339      40.730
2015    5       24     0   6    6.0305   399.2   10.336      40.774
2015    5       24     0  12    6.0349   399.4   10.334      40.819
2015    5       24     0  18    6.0392   399.6   10.332      40.864
2015    5       24     0  24    6.0436   399.7   10.329      40.909
2015    5       24     0  30    6.0480   399.9   10.327      40.955
2015    5       24     0  36    6.0525   400.1   10.326      41.001
2015    5       24     0  42    6.0570   400.2   10.324      41.046
2015    5       24     0  47    6.0615   400.4   10.323      41.092
2015    5       24     0  53    6.0661   400.6   10.322      41.138
2015    5       24     0  59    6.0707   400.8   10.321      41.186
2015    5       24     1   5    6.0753   400.9   10.320      41.234
2015    5       24     1  11    6.0799   401.1   10.319      41.284
2015    5       24     1  17    6.0845   401.3   10.318      41.333
2015    5       24     1  23    6.0891   401.5   10.317      41.384
2015    5       24     1  29    6.0936   401.7   10.316      41.435
2015    5       24     1  35    6.0981   401.9   10.314      41.486
2015    5       24     1  41    6.1025   402.1   10.313      41.538
2015    5       24     1  46    6.1069   402.3   10.311      41.589
2015    5       24     1  52    6.1112   402.5   10.309      41.640
2015    5       24     1  58    6.1155   402.7   10.307      41.690
2015    5       24     2   4    6.1196   402.9   10.304      41.739
2015    5       24     2  10    6.1238   403.1   10.302      41.787
2015    5       24     2  16    6.1278   403.3   10.299      41.836
2015    5       24     2  22    6.1318   403.5   10.295      41.883
2015    5       24     2  28    6.1357   403.7   10.292      41.930
2015    5       24     2  34    6.1396   403.9   10.288      41.977
2015    5       24     2  39    6.1434   404.1   10.284      42.023
2015    5       24     2  45    6.1471   404.3   10.280      42.069
2015    5       24     2  51    6.1508   404.5   10.275      42.114
2015    5       24     2  57    6.1545   404.7   10.271      42.159
2015    5       24     3   3    6.1581   404.9   10.266      42.204
2015    5       24     3   9    6.1617   405.1   10.261      42.248
2015    5       24     3  15    6.1653   405.4   10.255      42.292
2015    5       24     3  21    6.1688   405.6   10.250      42.336
2015    5       24     3  27    6.1723   405.8   10.244      42.380
2015    5       24     3  33    6.1757   406.0   10.239      42.424
2015    5       24     3  38    6.1792   406.2   10.233      42.468
2015    5       24     3  44    6.1826   406.4   10.227      42.512
2015    5       24     3  50    6.1859   406.6   10.220      42.556
2015    5       24     3  56    6.1893   406.9   10.214      42.599
2015    5       24     4   2    6.1926   407.1   10.208      42.643
2015    5       24     4   8    6.1959   407.3   10.201      42.687
2015    5       24     4  14    6.1992   407.5   10.194      42.731
2015    5       24     4  20    6.2024   407.7   10.187      42.775
2015    5       24     4  26    6.2057   408.0   10.180      42.819
2015    5       24     4  31    6.2088   408.2   10.173      42.862
2015    5       24     4  37    6.2120   408.4   10.165      42.906
2015    5       24     4  43    6.2151   408.6   10.158      42.950
2015    5       24     4  49    6.2182   408.9   10.150      42.994
2015    5       24     4  55    6.2213   409.1   10.142      43.038
2015    5       24     5   1    6.2244   409.3   10.135      43.082
2015    5       24     5   7    6.2274   409.5   10.126      43.126
2015    5       24     5  13    6.2304   409.8   10.118      43.170
2015    5       24     5  19    6.2333   410.0   10.110      43.214
2015    5       24     5  24    6.2363   410.2   10.101      43.257
2015    5       24     5  30    6.2392   410.4   10.093      43.301
2015    5       24     5  36    6.2421   410.7   10.084      43.345
2015    5       24     5  42    6.2449   410.9   10.075      43.389
2015    5       24     5  48    6.2477   411.1   10.066      43.432
2015    5       24     5  54    6.2505   411.4   10.057      43.476
2015    5       24     6   0    6.2533   411.6   10.048      43.520
2015    5       24     6   6    6.2560   411.8   10.038      43.563
2015    5       24     6  12    6.2587   412.1   10.029      43.606
2015    5       24     6  18    6.2613   412.3   10.019      43.649
2015    5       24     6  23    6.2639   412.6   10.009      43.692
2015    5       24     6  29    6.2665   412.8    9.999      43.734
2015    5       24     6  35    6.2690   413.0    9.989      43.776
2015    5       24     6  41    6.2715   413.3    9.979      43.818
2015    5       24     6  47    6.2740   413.5    9.968      43.859
2015    5       24     6  53    6.2764   413.7    9.958      43.900
2015    5       24     6  59    6.2787   414.0    9.947      43.941
2015    5       24     7   5    6.2811   414.2    9.937      43.982
2015    5       24     7  11    6.2834   414.4    9.926      44.022
2015    5       24     7  16    6.2857   414.7    9.915      44.062
2015    5       24     7  22    6.2880   414.9    9.904      44.102
2015    5       24     7  28    6.2903   415.2    9.893      44.142
2015    5       24     7  34    6.2925   415.4    9.883      44.182
2015    5       24     7  40    6.2947   415.6    9.872      44.222
2015    5       24     7  46    6.2969   415.9    9.861      44.261
2015    5       24     7  52    6.2990   416.1    9.849      44.301
2015    5       24     7  58    6.3011   416.4    9.838      44.340
2015    5       24     8   4    6.3031   416.6    9.827      44.379
2015    5       24     8  10    6.3051   416.8    9.815      44.417
2015    5       24     8  15    6.3070   417.1    9.804      44.455
2015    5       24     8  21    6.3089   417.3    9.792      44.492
2015    5       24     8  27    6.3107   417.6    9.780      44.529
2015    5       24     8  33    6.3125   417.8    9.769      44.565
2015    5       24     8  39    6.3142   418.1    9.757      44.601
2015    5       24     8  45    6.3159   418.3    9.744      44.636
2015    5       24     8  51    6.3175   418.6    9.732      44.671
2015    5       24     8  57    6.3190   418.8    9.720      44.706
2015    5       24     9   3    6.3205   419.1    9.707      44.740
2015    5       24     9   8    6.3220   419.3    9.694      44.773
2015    5       24     9  14    6.3234   419.6    9.682      44.806
2015    5       24     9  20    6.3247   419.8    9.669      44.838
2015    5       24     9  26    6.3260   420.0    9.656      44.870
2015    5       24     9  32    6.3273   420.3    9.643      44.901
2015    5       24     9  38    6.3286   420.5    9.631      44.930
2015    5       24     9  44    6.3298   420.8    9.618      44.960
2015    5       24     9  50    6.3310   421.0    9.605      44.989
2015    5       24     9  56    6.3322   421.2    9.593      45.017
2015    5       24    10   2    6.3334   421.4    9.580      45.046
2015    5       24    10   7    6.3346   421.7    9.568      45.074
2015    5       24    10  13    6.3358   421.9    9.556      45.103
2015    5       24    10  19    6.3370   422.1    9.543      45.132
2015    5       24    10  25    6.3383   422.4    9.531      45.162
2015    5       24    10  31    6.3395   422.6    9.519      45.193
2015    5       24    10  37    6.3408   422.8    9.507      45.225
2015    5       24    10  43    6.3420   423.1    9.495      45.257
2015    5       24    10  49    6.3433   423.3    9.483      45.291
2015    5       24    10  55    6.3445   423.6    9.471      45.325
2015    5       24    11   0    6.3457   423.8    9.460      45.359
2015    5       24    11   6    6.3468   424.1    9.448      45.393
2015    5       24    11  12    6.3479   424.3    9.437      45.427
2015    5       24    11  18    6.3489   424.6    9.425      45.461
2015    5       24    11  24    6.3499   424.9    9.413      45.494
2015    5       24    11  30    6.3508   425.1    9.402      45.526
2015    5       24    11  36    6.3517   425.4    9.390      45.558
2015    5       24    11  42    6.3525   425.6    9.378      45.590
2015    5       24    11  48    6.3533   425.9    9.366      45.621
2015    5       24    11  53    6.3540   426.1    9.353      45.652
2015    5       24    11  59    6.3547   426.4    9.341      45.682
2015    5       24    12   5    6.3553   426.7    9.329      45.712
2015    5       24    12  11    6.3559   426.9    9.317      45.741
2015    5       24    12  17    6.3565   427.2    9.304      45.770
2015    5       24    12  23    6.3570   427.4    9.292      45.799
2015    5       24    12  29    6.3574   427.7    9.279      45.828
2015    5       24    12  35    6.3579   427.9    9.267      45.856
2015    5       24    12  41    6.3582   428.2    9.254      45.884
2015    5       24    12  47    6.3586   428.4    9.241      45.912
2015    5       24    12  52    6.3589   428.7    9.229      45.939
2015    5       24    12  58    6.3592   428.9    9.216      45.966
2015    5       24    13   4    6.3595   429.2    9.203      45.993
2015    5       24    13  10    6.3598   429.4    9.190      46.020
2015    5       24    13  16    6.3600   429.7    9.177      46.046
2015    5       24    13  22    6.3602   430.0    9.164      46.072
2015    5       24    13  28    6.3603   430.2    9.151      46.099
2015    5       24    13  34    6.3605   430.5    9.138      46.124
2015    5       24    13  40    6.3606   430.7    9.125      46.150
2015    5       24    13  45    6.3607   431.0    9.112      46.175
2015    5       24    13  51    6.3608   431.2    9.099      46.200
2015    5       24    13  57    6.3608   431.5    9.086      46.225
2015    5       24    14   3    6.3608   431.7    9.073      46.249
2015    5       24    14   9    6.3608   432.0    9.060      46.274
2015    5       24    14  15    6.3608   432.3    9.048      46.298
2015    5       24    14  21    6.3607   432.5    9.035      46.322
2015    5       24    14  27    6.3606   432.8    9.022      46.346
2015    5       24    14  33    6.3606   433.0    9.009      46.370
2015    5       24    14  39    6.3605   433.3    8.997      46.394
2015    5       24    14  44    6.3604   433.5    8.984      46.418
2015    5       24    14  50    6.3603   433.8    8.972      46.443
2015    5       24    14  56    6.3602   434.0    8.960      46.468
2015    5       24    15   2    6.3600   434.3    8.947      46.493
2015    5       24    15   8    6.3599   434.5    8.935      46.518
2015    5       24    15  14    6.3597   434.8    8.923      46.543
2015    5       24    15  20    6.3596   435.0    8.911      46.568
2015    5       24    15  26    6.3594   435.3    8.899      46.593
2015    5       24    15  32    6.3591   435.5    8.888      46.618
2015    5       24    15  37    6.3588   435.8    8.876      46.644
2015    5       24    15  43    6.3585   436.1    8.864      46.669
2015    5       24    15  49    6.3581   436.3    8.852      46.694
2015    5       24    15  55    6.3577   436.6    8.840      46.719
2015    5       24    16   1    6.3572   436.8    8.828      46.744
2015    5       24    16   7    6.3567   437.1    8.815      46.770
2015    5       24    16  13    6.3561   437.3    8.803      46.795
2015    5       24    16  19    6.3555   437.6    8.790      46.820
2015    5       24    16  25    6.3548   437.9    8.778      46.845
2015    5       24    16  30    6.3541   438.1    8.765      46.869
2015    5       24    16  36    6.3533   438.4    8.752      46.892
2015    5       24    16  42    6.3525   438.7    8.740      46.915
2015    5       24    16  48    6.3517   438.9    8.727      46.938
2015    5       24    16  54    6.3508   439.2    8.714      46.959
2015    5       24    17   0    6.3499   439.4    8.701      46.980
2015    5       24    17   6    6.3490   439.7    8.689      47.001
2015    5       24    17  12    6.3481   439.9    8.676      47.021
2015    5       24    17  18    6.3472   440.1    8.664      47.041
2015    5       24    17  24    6.3463   440.4    8.651      47.061
2015    5       24    17  29    6.3454   440.6    8.639      47.081
2015    5       24    17  35    6.3445   440.8    8.627      47.101
2015    5       24    17  41    6.3436   441.1    8.614      47.122
2015    5       24    17  47    6.3427   441.3    8.602      47.144
2015    5       24    17  53    6.3418   441.6    8.590      47.167
2015    5       24    17  59    6.3410   441.8    8.578      47.191
2015    5       24    18   5    6.3400   442.1    8.566      47.215
2015    5       24    18  11    6.3391   442.3    8.554      47.240
2015    5       24    18  17    6.3381   442.6    8.543      47.266
2015    5       24    18  22    6.3371   442.9    8.531      47.291
2015    5       24    18  28    6.3361   443.1    8.519      47.317
2015    5       24    18  34    6.3350   443.4    8.508      47.342
2015    5       24    18  40    6.3338   443.6    8.496      47.367
2015    5       24    18  46    6.3326   443.9    8.484      47.391
2015    5       24    18  52    6.3313   444.2    8.472      47.414
2015    5       24    18  58    6.3300   444.4    8.460      47.436
2015    5       24    19   4    6.3286   444.7    8.448      47.459
2015    5       24    19  10    6.3272   445.0    8.436      47.480
2015    5       24    19  16    6.3258   445.2    8.424      47.502
2015    5       24    19  21    6.3243   445.5    8.412      47.522
2015    5       24    19  27    6.3228   445.7    8.400      47.543
2015    5       24    19  33    6.3212   446.0    8.388      47.563
2015    5       24    19  39    6.3197   446.3    8.376      47.582
2015    5       24    19  45    6.3181   446.5    8.364      47.602
2015    5       24    19  51    6.3164   446.8    8.351      47.621
2015    5       24    19  57    6.3148   447.0    8.339      47.639
2015    5       24    20   3    6.3131   447.3    8.327      47.658
2015    5       24    20   9    6.3114   447.5    8.315      47.676
2015    5       24    20  14    6.3098   447.8    8.303      47.694
2015    5       24    20  20    6.3081   448.0    8.291      47.712
2015    5       24    20  26    6.3064   448.3    8.279      47.729
2015    5       24    20  32    6.3047   448.5    8.267      47.747
2015    5       24    20  38    6.3031   448.8    8.255      47.764
2015    5       24    20  44    6.3014   449.0    8.243      47.782
2015    5       24    20  50    6.2997   449.3    8.231      47.799
2015    5       24    20  56    6.2980   449.5    8.220      47.817
2015    5       24    21   2    6.2963   449.8    8.208      47.834
2015    5       24    21   8    6.2946   450.0    8.197      47.852
2015    5       24    21  13    6.2930   450.3    8.185      47.870
2015    5       24    21  19    6.2913   450.5    8.174      47.888
2015    5       24    21  25    6.2896   450.8    8.163      47.906
2015    5       24    21  31    6.2879   451.0    8.152      47.924
2015    5       24    21  37    6.2862   451.2    8.141      47.942
2015    5       24    21  43    6.2845   451.5    8.130      47.961
2015    5       24    21  49    6.2828   451.7    8.119      47.979
2015    5       24    21  55    6.2811   452.0    8.109      47.998
2015    5       24    22   1    6.2794   452.2    8.098      48.017
2015    5       24    22   6    6.2777   452.5    8.088      48.036
2015    5       24    22  12    6.2759   452.7    8.078      48.056
2015    5       24    22  18    6.2742   453.0    8.068      48.076
2015    5       24    22  24    6.2725   453.2    8.058      48.096
2015    5       24    22  30    6.2708   453.4    8.048      48.116
2015    5       24    22  36    6.2691   453.7    8.038      48.136
2015    5       24    22  42    6.2674   453.9    8.028      48.156
2015    5       24    22  48    6.2657   454.2    8.018      48.176
2015    5       24    22  54    6.2640   454.4    8.008      48.197
2015    5       24    22  59    6.2622   454.6    7.999      48.218
2015    5       24    23   5    6.2604   454.9    7.989      48.239
2015    5       24    23  11    6.2586   455.1    7.979      48.260
2015    5       24    23  17    6.2568   455.4    7.969      48.281
2015    5       24    23  23    6.2549   455.6    7.960      48.303
2015    5       24    23  29    6.2531   455.9    7.950      48.324
2015    5       24    23  35    6.2511   456.1    7.940      48.345
2015    5       24    23  41    6.2492   456.3    7.930      48.367
2015    5       24    23  47    6.2473   456.6    7.919      48.387
2015    5       24    23  53    6.2453   456.8    7.909      48.408
2015    5       24    23  58    6.2433   457.1    7.899      48.428
2015    5       25     0   4    6.2413   457.3    7.889      48.448
2015    5       25     0  10    6.2393   457.6    7.879      48.467
2015    5       25     0  16    6.2373   457.8    7.868      48.487
2015    5       25     0  22    6.2352   458.1    7.858      48.506
2015    5       25     0  28    6.2331   458.3    7.847      48.525
2015    5       25     0  34    6.2311   458.5    7.837      48.544
2015    5       25     0  40    6.2290   458.8    7.826      48.562
2015    5       25     0  46    6.2268   459.0    7.816      48.581
2015    5       25     0  51    6.2247   459.3    7.805      48.599
2015    5       25     0  57    6.2226   459.5    7.794      48.616
2015    5       25     1   3    6.2204   459.8    7.784      48.634
2015    5       25     1   9    6.2182   460.0    7.773      48.651
2015    5       25     1  15    6.2160   460.3    7.762      48.668
2015    5       25     1  21    6.2138   460.5    7.752      48.685
2015    5       25     1  27    6.2115   460.7    7.741      48.702
2015    5       25     1  33    6.2092   461.0    7.730      48.719
2015    5       25     1  39    6.2069   461.2    7.719      48.735
2015    5       25     1  45    6.2047   461.5    7.708      48.752
2015    5       25     1  50    6.2023   461.7    7.698      48.768
2015    5       25     1  56    6.2000   462.0    7.687      48.784
2015    5       25     2   2    6.1977   462.2    7.676      48.800
2015    5       25     2   8    6.1954   462.5    7.665      48.815
2015    5       25     2  14    6.1930   462.7    7.654      48.831
2015    5       25     2  20    6.1907   462.9    7.644      48.846
2015    5       25     2  26    6.1883   463.2    7.633      48.861
2015    5       25     2  32    6.1860   463.4    7.622      48.877
2015    5       25     2  38    6.1837   463.7    7.611      48.892
2015    5       25     2  43    6.1813   463.9    7.601      48.907
2015    5       25     2  49    6.1790   464.2    7.590      48.922
2015    5       25     2  55    6.1767   464.4    7.579      48.937
2015    5       25     3   1    6.1743   464.6    7.569      48.952
2015    5       25     3   7    6.1720   464.9    7.558      48.966
2015    5       25     3  13    6.1697   465.1    7.548      48.981
2015    5       25     3  19    6.1673   465.4    7.537      48.996
2015    5       25     3  25    6.1650   465.6    7.527      49.011
2015    5       25     3  31    6.1627   465.8    7.516      49.026
2015    5       25     3  36    6.1604   466.1    7.506      49.041
2015    5       25     3  42    6.1581   466.3    7.496      49.056
2015    5       25     3  48    6.1558   466.6    7.485      49.071
2015    5       25     3  54    6.1535   466.8    7.475      49.087
2015    5       25     4   0    6.1512   467.0    7.465      49.102
2015    5       25     4   6    6.1489   467.3    7.455      49.118
2015    5       25     4  12    6.1466   467.5    7.445      49.134
2015    5       25     4  18    6.1443   467.7    7.436      49.150
2015    5       25     4  24    6.1420   468.0    7.426      49.166
2015    5       25     4  30    6.1398   468.2    7.416      49.182
2015    5       25     4  35    6.1375   468.4    7.407      49.199
2015    5       25     4  41    6.1352   468.7    7.397      49.215
2015    5       25     4  47    6.1329   468.9    7.388      49.233
2015    5       25     4  53    6.1306   469.2    7.379      49.249
2015    5       25     4  59    6.1284   469.4    7.369      49.267
2015    5       25     5   5    6.1261   469.6    7.360      49.284
2015    5       25     5  11    6.1238   469.9    7.351      49.302
2015    5       25     5  17    6.1215   470.1    7.342      49.320
2015    5       25     5  23    6.1192   470.3    7.333      49.338
2015    5       25     5  28    6.1169   470.6    7.324      49.356
2015    5       25     5  34    6.1147   470.8    7.314      49.374
2015    5       25     5  40    6.1124   471.0    7.305      49.392
2015    5       25     5  46    6.1101   471.2    7.296      49.410
2015    5       25     5  52    6.1078   471.5    7.287      49.427
2015    5       25     5  58    6.1054   471.7    7.277      49.444
2015    5       25     6   4    6.1031   471.9    7.268      49.461
2015    5       25     6  10    6.1008   472.2    7.259      49.478
2015    5       25     6  16    6.0984   472.4    7.249      49.494
2015    5       25     6  22    6.0961   472.6    7.240      49.510
2015    5       25     6  27    6.0937   472.9    7.230      49.526
2015    5       25     6  33    6.0914   473.1    7.221      49.541
2015    5       25     6  39    6.0890   473.3    7.211      49.557
2015    5       25     6  45    6.0866   473.6    7.202      49.572
2015    5       25     6  51    6.0842   473.8    7.192      49.586
2015    5       25     6  57    6.0818   474.0    7.183      49.601
2015    5       25     7   3    6.0793   474.2    7.173      49.615
2015    5       25     7   9    6.0769   474.5    7.163      49.629
2015    5       25     7  15    6.0745   474.7    7.154      49.643
2015    5       25     7  20    6.0720   474.9    7.144      49.657
2015    5       25     7  26    6.0696   475.2    7.135      49.670
2015    5       25     7  32    6.0671   475.4    7.125      49.684
2015    5       25     7  38    6.0647   475.6    7.116      49.698
2015    5       25     7  44    6.0622   475.8    7.106      49.711
2015    5       25     7  50    6.0598   476.1    7.097      49.724
2015    5       25     7  56    6.0573   476.3    7.087      49.738
2015    5       25     8   2    6.0548   476.5    7.078      49.751
2015    5       25     8   8    6.0523   476.8    7.069      49.764
2015    5       25     8  14    6.0498   477.0    7.059      49.778
2015    5       25     8  19    6.0473   477.2    7.050      49.791
2015    5       25     8  25    6.0448   477.4    7.041      49.804
2015    5       25     8  31    6.0423   477.7    7.031      49.817
2015    5       25     8  37    6.0398   477.9    7.022      49.831
2015    5       25     8  43    6.0372   478.1    7.013      49.844
2015    5       25     8  49    6.0347   478.3    7.004      49.858
2015    5       25     8  55    6.0321   478.6    6.995      49.871
2015    5       25     9   1    6.0296   478.8    6.985      49.884
2015    5       25     9   7    6.0270   479.0    6.976      49.898
2015    5       25     9  12    6.0245   479.2    6.967      49.911
2015    5       25     9  18    6.0219   479.5    6.958      49.925
2015    5       25     9  24    6.0194   479.7    6.949      49.938
2015    5       25     9  30    6.0168   479.9    6.940      49.952
2015    5       25     9  36    6.0143   480.1    6.932      49.965
2015    5       25     9  42    6.0118   480.4    6.923      49.979
2015    5       25     9  48    6.0092   480.6    6.914      49.992
2015    5       25     9  54    6.0067   480.8    6.905      50.005
2015    5       25    10   0    6.0042   481.0    6.896      50.018
2015    5       25    10   5    6.0017   481.3    6.887      50.031
2015    5       25    10  11    5.9992   481.5    6.878      50.044
2015    5       25    10  17    5.9967   481.7    6.869      50.057
2015    5       25    10  23    5.9942   481.9    6.860      50.070
2015    5       25    10  29    5.9918   482.2    6.852      50.082
2015    5       25    10  35    5.9893   482.4    6.843      50.095
2015    5       25    10  41    5.9868   482.6    6.834      50.107
2015    5       25    10  47    5.9843   482.8    6.825      50.120
2015    5       25    10  53    5.9819   483.0    6.817      50.133
2015    5       25    10  59    5.9794   483.3    6.808      50.145
2015    5       25    11   4    5.9769   483.5    6.799      50.158
2015    5       25    11  10    5.9745   483.7    6.791      50.171
2015    5       25    11  16    5.9720   483.9    6.782      50.184
2015    5       25    11  22    5.9695   484.1    6.774      50.197
2015    5       25    11  28    5.9671   484.4    6.765      50.210
2015    5       25    11  34    5.9646   484.6    6.757      50.223
2015    5       25    11  40    5.9621   484.8    6.748      50.236
2015    5       25    11  46    5.9596   485.0    6.740      50.250
2015    5       25    11  52    5.9572   485.2    6.731      50.263
2015    5       25    11  57    5.9547   485.4    6.723      50.277
2015    5       25    12   3    5.9522   485.7    6.715      50.291
2015    5       25    12   9    5.9497   485.9    6.706      50.304
2015    5       25    12  15    5.9472   486.1    6.698      50.318
2015    5       25    12  21    5.9448   486.3    6.689      50.331
2015    5       25    12  27    5.9423   486.5    6.681      50.345
2015    5       25    12  33    5.9398   486.7    6.672      50.358
2015    5       25    12  39    5.9373   487.0    6.664      50.371
2015    5       25    12  45    5.9348   487.2    6.655      50.383
2015    5       25    12  51    5.9323   487.4    6.647      50.395
2015    5       25    12  56    5.9298   487.6    6.638      50.407
2015    5       25    13   2    5.9273   487.8    6.630      50.419
2015    5       25    13   8    5.9248   488.0    6.621      50.431
2015    5       25    13  14    5.9223   488.2    6.613      50.442
2015    5       25    13  20    5.9198   488.5    6.604      50.453
2015    5       25    13  26    5.9172   488.7    6.596      50.464
2015    5       25    13  32    5.9147   488.9    6.587      50.475
2015    5       25    13  38    5.9122   489.1    6.579      50.486
2015    5       25    13  44    5.9097   489.3    6.571      50.496
2015    5       25    13  49    5.9071   489.5    6.562      50.507
2015    5       25    13  55    5.9046   489.7    6.554      50.517
2015    5       25    14   1    5.9020   489.9    6.545      50.527
2015    5       25    14   7    5.8995   490.1    6.537      50.537
2015    5       25    14  13    5.8970   490.4    6.529      50.547
2015    5       25    14  19    5.8944   490.6    6.520      50.557
2015    5       25    14  25    5.8918   490.8    6.512      50.567
2015    5       25    14  31    5.8893   491.0    6.504      50.577
2015    5       25    14  37    5.8867   491.2    6.496      50.586
2015    5       25    14  43    5.8841   491.4    6.487      50.596
2015    5       25    14  48    5.8816   491.6    6.479      50.605
2015    5       25    14  54    5.8790   491.8    6.471      50.614
2015    5       25    15   0    5.8765   492.0    6.463      50.624
2015    5       25    15   6    5.8739   492.2    6.455      50.633
2015    5       25    15  12    5.8713   492.4    6.446      50.642
2015    5       25    15  18    5.8688   492.6    6.438      50.652
2015    5       25    15  24    5.8662   492.8    6.430      50.661
2015    5       25    15  30    5.8637   493.1    6.422      50.670
2015    5       25    15  36    5.8612   493.3    6.414      50.679
2015    5       25    15  41    5.8587   493.5    6.406      50.688
2015    5       25    15  47    5.8562   493.7    6.398      50.697
2015    5       25    15  53    5.8537   493.9    6.390      50.706
2015    5       25    15  59    5.8511   494.1    6.382      50.715
2015    5       25    16   5    5.8487   494.3    6.374      50.723
2015    5       25    16  11    5.8462   494.5    6.366      50.732
2015    5       25    16  17    5.8437   494.7    6.358      50.741
2015    5       25    16  23    5.8412   494.9    6.350      50.749
2015    5       25    16  29    5.8388   495.1    6.342      50.758
2015    5       25    16  34    5.8363   495.3    6.334      50.767
2015    5       25    16  40    5.8339   495.5    6.327      50.775
2015    5       25    16  46    5.8315   495.7    6.319      50.784
2015    5       25    16  52    5.8290   495.9    6.311      50.792
2015    5       25    16  58    5.8266   496.1    6.303      50.801
2015    5       25    17   4    5.8242   496.3    6.296      50.809
2015    5       25    17  10    5.8218   496.5    6.288      50.818
2015    5       25    17  16    5.8194   496.7    6.281      50.826
2015    5       25    17  22    5.8170   496.9    6.273      50.835
2015    5       25    17  28    5.8146   497.1    6.266      50.843
2015    5       25    17  33    5.8122   497.3    6.258      50.852
2015    5       25    17  39    5.8098   497.5    6.251      50.861
2015    5       25    17  45    5.8075   497.7    6.244      50.870
2015    5       25    17  51    5.8051   497.9    6.237      50.879
2015    5       25    17  57    5.8028   498.1    6.230      50.888
2015    5       25    18   3    5.8004   498.3    6.223      50.898
2015    5       25    18   9    5.7981   498.5    6.216      50.907
2015    5       25    18  15    5.7957   498.7    6.209      50.917
2015    5       25    18  21    5.7934   498.9    6.202      50.927
2015    5       25    18  26    5.7911   499.1    6.195      50.937
2015    5       25    18  32    5.7888   499.3    6.189      50.948
2015    5       25    18  38    5.7865   499.4    6.182      50.958
2015    5       25    18  44    5.7842   499.6    6.175      50.969
2015    5       25    18  50    5.7819   499.8    6.169      50.980
2015    5       25    18  56    5.7796   500.0    6.162      50.991
2015    5       25    19   2    5.7773   500.2    6.156      51.002
2015    5       25    19   8    5.7751   500.4    6.149      51.014
2015    5       25    19  14    5.7728   500.6    6.143      51.026
2015    5       25    19  20    5.7705   500.8    6.137      51.037
2015    5       25    19  25    5.7683   501.0    6.130      51.049
2015    5       25    19  31    5.7660   501.2    6.124      51.061
2015    5       25    19  37    5.7637   501.4    6.118      51.073
2015    5       25    19  43    5.7615   501.6    6.111      51.086
2015    5       25    19  49    5.7592   501.8    6.105      51.098
2015    5       25    19  55    5.7569   502.0    6.099      51.110
2015    5       25    20   1    5.7546   502.2    6.092      51.123
2015    5       25    20   7    5.7524   502.4    6.086      51.135
2015    5       25    20  13    5.7501   502.6    6.080      51.147
2015    5       25    20  18    5.7478   502.8    6.073      51.160
2015    5       25    20  24    5.7455   503.0    6.067      51.172
2015    5       25    20  30    5.7432   503.2    6.060      51.184
2015    5       25    20  36    5.7409   503.4    6.054      51.197
2015    5       25    20  42    5.7387   503.6    6.048      51.209
2015    5       25    20  48    5.7364   503.8    6.041      51.221
2015    5       25    20  54    5.7341   504.0    6.035      51.233
2015    5       25    21   0    5.7318   504.2    6.029      51.245
2015    5       25    21   6    5.7295   504.4    6.022      51.258
2015    5       25    21  11    5.7273   504.5    6.016      51.270
2015    5       25    21  17    5.7250   504.7    6.010      51.282
2015    5       25    21  23    5.7227   504.9    6.003      51.294
2015    5       25    21  29    5.7205   505.1    5.997      51.306
2015    5       25    21  35    5.7182   505.3    5.991      51.319
2015    5       25    21  41    5.7160   505.5    5.984      51.331
2015    5       25    21  47    5.7137   505.7    5.978      51.344
2015    5       25    21  53    5.7115   505.9    5.972      51.356
2015    5       25    21  59    5.7093   506.1    5.966      51.369
2015    5       25    22   5    5.7071   506.3    5.959      51.381
2015    5       25    22  10    5.7049   506.5    5.953      51.394
2015    5       25    22  16    5.7027   506.7    5.947      51.407
2015    5       25    22  22    5.7006   506.8    5.941      51.420
2015    5       25    22  28    5.6984   507.0    5.935      51.433
2015    5       25    22  34    5.6963   507.2    5.928      51.446
2015    5       25    22  40    5.6941   507.4    5.922      51.459
2015    5       25    22  46    5.6920   507.6    5.916      51.472
2015    5       25    22  52    5.6899   507.8    5.910      51.486
2015    5       25    22  58    5.6879   508.0    5.904      51.499
2015    5       25    23   3    5.6858   508.2    5.898      51.513
2015    5       25    23   9    5.6838   508.4    5.892      51.526
2015    5       25    23  15    5.6817   508.5    5.886      51.540
2015    5       25    23  21    5.6797   508.7    5.880      51.553
2015    5       25    23  27    5.6777   508.9    5.874      51.567
2015    5       25    23  33    5.6757   509.1    5.868      51.580
2015    5       25    23  39    5.6737   509.3    5.863      51.594
2015    5       25    23  45    5.6718   509.5    5.857      51.607
2015    5       25    23  51    5.6698   509.7    5.851      51.621
2015    5       25    23  57    5.6679   509.9    5.845      51.634
2015    5       26     0   2    5.6659   510.0    5.839      51.648
2015    5       26     0   8    5.6640   510.2    5.834      51.661
2015    5       26     0  14    5.6621   510.4    5.828      51.674
2015    5       26     0  20    5.6602   510.6    5.822      51.687
2015    5       26     0  26    5.6583   510.8    5.816      51.700
2015    5       26     0  32    5.6564   511.0    5.811      51.713
2015    5       26     0  38    5.6545   511.2    5.805      51.726
2015    5       26     0  44    5.6526   511.4    5.799      51.738
2015    5       26     0  50    5.6507   511.5    5.794      51.751
2015    5       26     0  55    5.6488   511.7    5.788      51.763
2015    5       26     1   1    5.6470   511.9    5.782      51.776
2015    5       26     1   7    5.6451   512.1    5.777      51.788
2015    5       26     1  13    5.6432   512.3    5.771      51.800
2015    5       26     1  19    5.6414   512.5    5.766      51.812
2015    5       26     1  25    5.6395   512.6    5.760      51.825
2015    5       26     1  31    5.6377   512.8    5.755      51.837
2015    5       26     1  37    5.6358   513.0    5.749      51.849
2015    5       26     1  43    5.6340   513.2    5.743      51.861
2015    5       26     1  49    5.6322   513.4    5.738      51.873
2015    5       26     1  54    5.6303   513.6    5.732      51.885
2015    5       26     2   0    5.6285   513.7    5.727      51.897
2015    5       26     2   6    5.6267   513.9    5.721      51.909
2015    5       26     2  12    5.6249   514.1    5.716      51.921
2015    5       26     2  18    5.6231   514.3    5.711      51.934
2015    5       26     2  24    5.6212   514.5    5.705      51.946
2015    5       26     2  30    5.6194   514.7    5.700      51.958
2015    5       26     2  36    5.6176   514.8    5.694      51.971
2015    5       26     2  42    5.6158   515.0    5.689      51.983
2015    5       26     2  47    5.6140   515.2    5.684      51.996
2015    5       26     2  53    5.6123   515.4    5.678      52.009
2015    5       26     2  59    5.6105   515.6    5.673      52.022
2015    5       26     3   5    5.6087   515.8    5.668      52.035
2015    5       26     3  11    5.6069   515.9    5.662      52.048
2015    5       26     3  17    5.6051   516.1    5.657      52.061
2015    5       26     3  23    5.6034   516.3    5.652      52.074
2015    5       26     3  29    5.6016   516.5    5.647      52.088
2015    5       26     3  35    5.5998   516.7    5.641      52.101
2015    5       26     3  40    5.5981   516.9    5.636      52.115
2015    5       26     3  46    5.5963   517.0    5.631      52.129
2015    5       26     3  52    5.5945   517.2    5.626      52.142
2015    5       26     3  58    5.5928   517.4    5.620      52.156
2015    5       26     4   4    5.5911   517.6    5.615      52.170
2015    5       26     4  10    5.5893   517.8    5.610      52.184
2015    5       26     4  16    5.5876   518.0    5.605      52.198
2015    5       26     4  22    5.5858   518.1    5.600      52.212
2015    5       26     4  28    5.5841   518.3    5.595      52.227
2015    5       26     4  34    5.5824   518.5    5.589      52.241
2015    5       26     4  39    5.5807   518.7    5.584      52.255
2015    5       26     4  45    5.5790   518.9    5.579      52.270
2015    5       26     4  51    5.5773   519.0    5.574      52.284
2015    5       26     4  57    5.5756   519.2    5.569      52.299
2015    5       26     5   3    5.5739   519.4    5.564      52.313
2015    5       26     5   9    5.5723   519.6    5.559      52.328
2015    5       26     5  15    5.5706   519.8    5.554      52.343
2015    5       26     5  21    5.5690   519.9    5.549      52.358
2015    5       26     5  27    5.5674   520.1    5.544      52.373
2015    5       26     5  32    5.5657   520.3    5.539      52.388
2015    5       26     5  38    5.5641   520.5    5.534      52.404
2015    5       26     5  44    5.5625   520.7    5.529      52.419
2015    5       26     5  50    5.5610   520.8    5.524      52.434
2015    5       26     5  56    5.5594   521.0    5.519      52.450
2015    5       26     6   2    5.5579   521.2    5.514      52.465
2015    5       26     6   8    5.5563   521.4    5.509      52.481
2015    5       26     6  14    5.5548   521.6    5.504      52.497
2015    5       26     6  20    5.5533   521.7    5.500      52.513
2015    5       26     6  26    5.5518   521.9    5.495      52.529
2015    5       26     6  31    5.5503   522.1    5.490      52.545
2015    5       26     6  37    5.5489   522.3    5.485      52.561
2015    5       26     6  43    5.5474   522.4    5.481      52.577
2015    5       26     6  49    5.5460   522.6    5.476      52.594
2015    5       26     6  55    5.5445   522.8    5.471      52.610
2015    5       26     7   1    5.5431   523.0    5.467      52.626
2015    5       26     7   7    5.5417   523.1    5.462      52.643
2015    5       26     7  13    5.5403   523.3    5.458      52.659
2015    5       26     7  19    5.5389   523.5    5.453      52.676
2015    5       26     7  24    5.5376   523.7    5.448      52.693
2015    5       26     7  30    5.5362   523.9    5.444      52.709
2015    5       26     7  36    5.5348   524.0    5.439      52.726
2015    5       26     7  42    5.5335   524.2    5.435      52.743
2015    5       26     7  48    5.5322   524.4    5.430      52.760
2015    5       26     7  54    5.5309   524.6    5.426      52.776
2015    5       26     8   0    5.5295   524.7    5.421      52.793
2015    5       26     8   6    5.5282   524.9    5.417      52.810
2015    5       26     8  12    5.5269   525.1    5.412      52.827
2015    5       26     8  18    5.5256   525.3    5.408      52.844
2015    5       26     8  23    5.5243   525.4    5.404      52.861
2015    5       26     8  29    5.5230   525.6    5.399      52.878
2015    5       26     8  35    5.5218   525.8    5.395      52.895
2015    5       26     8  41    5.5205   526.0    5.390      52.911
2015    5       26     8  47    5.5192   526.1    5.386      52.928
2015    5       26     8  53    5.5180   526.3    5.381      52.945
2015    5       26     8  59    5.5167   526.5    5.377      52.962
2015    5       26     9   5    5.5155   526.7    5.373      52.979
2015    5       26     9  11    5.5142   526.9    5.368      52.996
2015    5       26     9  16    5.5130   527.0    5.364      53.013
2015    5       26     9  22    5.5117   527.2    5.359      53.030
2015    5       26     9  28    5.5105   527.4    5.355      53.047
2015    5       26     9  34    5.5092   527.6    5.351      53.064
2015    5       26     9  40    5.5080   527.7    5.346      53.081
2015    5       26     9  46    5.5068   527.9    5.342      53.099
2015    5       26     9  52    5.5056   528.1    5.338      53.116
2015    5       26     9  58    5.5043   528.3    5.333      53.133
2015    5       26    10   4    5.5031   528.5    5.329      53.150
2015    5       26    10   9    5.5019   528.6    5.325      53.167
2015    5       26    10  15    5.5007   528.8    5.320      53.185
2015    5       26    10  21    5.4995   529.0    5.316      53.202
2015    5       26    10  27    5.4983   529.2    5.312      53.220
2015    5       26    10  33    5.4971   529.3    5.307      53.237
2015    5       26    10  39    5.4959   529.5    5.303      53.255
2015    5       26    10  45    5.4948   529.7    5.299      53.272
2015    5       26    10  51    5.4936   529.9    5.295      53.290
2015    5       26    10  57    5.4924   530.1    5.290      53.308
2015    5       26    11   3    5.4912   530.2    5.286      53.326
2015    5       26    11   8    5.4901   530.4    5.282      53.344
2015    5       26    11  14    5.4889   530.6    5.278      53.362
2015    5       26    11  20    5.4877   530.8    5.273      53.381
2015    5       26    11  26    5.4866   531.0    5.269      53.399
2015    5       26    11  32    5.4854   531.1    5.265      53.418
2015    5       26    11  38    5.4843   531.3    5.261      53.437
2015    5       26    11  44    5.4831   531.5    5.257      53.456
2015    5       26    11  50    5.4820   531.7    5.253      53.475
2015    5       26    11  56    5.4809   531.9    5.248      53.494
2015    5       26    12   1    5.4797   532.0    5.244      53.514
2015    5       26    12   7    5.4786   532.2    5.240      53.534
2015    5       26    12  13    5.4775   532.4    5.236      53.553
2015    5       26    12  19    5.4764   532.6    5.232      53.574
2015    5       26    12  25    5.4753   532.8    5.228      53.594
2015    5       26    12  31    5.4742   533.0    5.224      53.615
2015    5       26    12  37    5.4732   533.1    5.220      53.636
2015    5       26    12  43    5.4721   533.3    5.216      53.657
2015    5       26    12  49    5.4711   533.5    5.212      53.678
2015    5       26    12  55    5.4700   533.7    5.208      53.699
2015    5       26    13   0    5.4690   533.9    5.204      53.721
2015    5       26    13   6    5.4680   534.0    5.201      53.742
2015    5       26    13  12    5.4670   534.2    5.197      53.764
2015    5       26    13  18    5.4660   534.4    5.193      53.786
2015    5       26    13  24    5.4650   534.6    5.189      53.809
2015    5       26    13  30    5.4640   534.8    5.185      53.831
2015    5       26    13  36    5.4630   535.0    5.181      53.854
2015    5       26    13  42    5.4621   535.1    5.178      53.876
2015    5       26    13  48    5.4611   535.3    5.174      53.899
2015    5       26    13  53    5.4602   535.5    5.170      53.922
2015    5       26    13  59    5.4592   535.7    5.166      53.944
2015    5       26    14   5    5.4583   535.9    5.162      53.967
2015    5       26    14  11    5.4574   536.1    5.159      53.990
2015    5       26    14  17    5.4565   536.3    5.155      54.013
2015    5       26    14  23    5.4556   536.4    5.151      54.036
2015    5       26    14  29    5.4547   536.6    5.147      54.059
2015    5       26    14  35    5.4538   536.8    5.144      54.081
2015    5       26    14  41    5.4530   537.0    5.140      54.104
2015    5       26    14  47    5.4521   537.2    5.136      54.127
2015    5       26    14  52    5.4512   537.4    5.132      54.150
2015    5       26    14  58    5.4504   537.5    5.128      54.172
2015    5       26    15   4    5.4495   537.7    5.124      54.195
2015    5       26    15  10    5.4487   537.9    5.121      54.217
2015    5       26    15  16    5.4479   538.1    5.117      54.240
2015    5       26    15  22    5.4470   538.3    5.113      54.262
2015    5       26    15  28    5.4462   538.5    5.109      54.285
2015    5       26    15  34    5.4454   538.6    5.105      54.307
2015    5       26    15  40    5.4446   538.8    5.102      54.330
2015    5       26    15  45    5.4439   539.0    5.098      54.353
2015    5       26    15  51    5.4431   539.2    5.094      54.375
2015    5       26    15  57    5.4423   539.4    5.090      54.398
2015    5       26    16   3    5.4416   539.6    5.086      54.421
2015    5       26    16   9    5.4408   539.7    5.083      54.444
2015    5       26    16  15    5.4401   539.9    5.079      54.467
2015    5       26    16  21    5.4394   540.1    5.075      54.490
2015    5       26    16  27    5.4387   540.3    5.071      54.514
2015    5       26    16  33    5.4379   540.5    5.068      54.537
2015    5       26    16  38    5.4373   540.7    5.064      54.561
2015    5       26    16  44    5.4366   540.9    5.060      54.585
2015    5       26    16  50    5.4359   541.0    5.057      54.609
2015    5       26    16  56    5.4352   541.2    5.053      54.634
2015    5       26    17   2    5.4346   541.4    5.049      54.659
2015    5       26    17   8    5.4339   541.6    5.046      54.683
2015    5       26    17  14    5.4333   541.8    5.042      54.709
2015    5       26    17  20    5.4326   542.0    5.039      54.734
2015    5       26    17  26    5.4320   542.2    5.035      54.759
2015    5       26    17  32    5.4314   542.4    5.031      54.785
2015    5       26    17  37    5.4307   542.6    5.028      54.811
2015    5       26    17  43    5.4301   542.8    5.024      54.837
2015    5       26    17  49    5.4294   542.9    5.021      54.864
2015    5       26    17  55    5.4288   543.1    5.017      54.890
2015    5       26    18   1    5.4281   543.3    5.014      54.917
2015    5       26    18   7    5.4275   543.5    5.010      54.944
2015    5       26    18  13    5.4268   543.7    5.007      54.971
2015    5       26    18  19    5.4261   543.9    5.003      54.998
2015    5       26    18  25    5.4255   544.1    5.000      55.025
2015    5       26    18  30    5.4248   544.3    4.997      55.053
2015    5       26    18  36    5.4242   544.5    4.993      55.080
2015    5       26    18  42    5.4235   544.7    4.990      55.108
2015    5       26    18  48    5.4229   544.9    4.986      55.136
2015    5       26    18  54    5.4222   545.1    4.983      55.164
2015    5       26    19   0    5.4216   545.3    4.979      55.192
2015    5       26    19   6    5.4209   545.5    4.976      55.221
2015    5       26    19  12    5.4203   545.7    4.972      55.249
2015    5       26    19  18    5.4196   545.9    4.969      55.278
2015    5       26    19  24    5.4190   546.1    4.966      55.307
2015    5       26    19  29    5.4184   546.3    4.962      55.336
2015    5       26    19  35    5.4177   546.4    4.959      55.365
2015    5       26    19  41    5.4171   546.6    4.955      55.394
2015    5       26    19  47    5.4165   546.8    4.952      55.424
2015    5       26    19  53    5.4159   547.0    4.949      55.453
2015    5       26    19  59    5.4153   547.2    4.945      55.483
2015    5       26    20   5    5.4147   547.4    4.942      55.514
2015    5       26    20  11    5.4141   547.6    4.939      55.544
2015    5       26    20  17    5.4136   547.8    4.935      55.575
2015    5       26    20  22    5.4130   548.0    4.932      55.605
2015    5       26    20  28    5.4125   548.2    4.929      55.636
2015    5       26    20  34    5.4120   548.4    4.925      55.667
2015    5       26    20  40    5.4114   548.6    4.922      55.698
2015    5       26    20  46    5.4109   548.9    4.919      55.730
2015    5       26    20  52    5.4104   549.1    4.915      55.761
2015    5       26    20  58    5.4099   549.3    4.912      55.792
2015    5       26    21   4    5.4094   549.5    4.909      55.823
2015    5       26    21  10    5.4090   549.7    4.905      55.855
2015    5       26    21  16    5.4085   549.9    4.902      55.886
2015    5       26    21  21    5.4081   550.1    4.899      55.917
2015    5       26    21  27    5.4076   550.3    4.895      55.948
2015    5       26    21  33    5.4072   550.5    4.892      55.980
2015    5       26    21  39    5.4068   550.7    4.889      56.011
2015    5       26    21  45    5.4064   550.9    4.885      56.042
2015    5       26    21  51    5.4060   551.1    4.882      56.074
2015    5       26    21  57    5.4056   551.3    4.878      56.105
2015    5       26    22   3    5.4052   551.5    4.875      56.136
2015    5       26    22   9    5.4048   551.7    4.872      56.167
2015    5       26    22  14    5.4044   551.9    4.868      56.199
2015    5       26    22  20    5.4040   552.1    4.865      56.230
2015    5       26    22  26    5.4036   552.3    4.862      56.261
2015    5       26    22  32    5.4033   552.5    4.858      56.293
2015    5       26    22  38    5.4029   552.7    4.855      56.324
2015    5       26    22  44    5.4025   553.0    4.851      56.356
2015    5       26    22  50    5.4021   553.2    4.848      56.388
2015    5       26    22  56    5.4017   553.4    4.845      56.419
2015    5       26    23   2    5.4013   553.6    4.841      56.451
2015    5       26    23   7    5.4009   553.8    4.838      56.483
2015    5       26    23  13    5.4006   554.0    4.835      56.516
2015    5       26    23  19    5.4002   554.2    4.831      56.548
2015    5       26    23  25    5.3998   554.4    4.828      56.581
2015    5       26    23  31    5.3994   554.6    4.825      56.614
2015    5       26    23  37    5.3991   554.8    4.822      56.647
2015    5       26    23  43    5.3987   555.0    4.819      56.680
2015    5       26    23  49    5.3984   555.3    4.816      56.713
2015    5       26    23  55    5.3980   555.5    4.812      56.747
2015    5       27     0   1    5.3977   555.7    4.809      56.781
2015    5       27     0   6    5.3974   555.9    4.806      56.816
2015    5       27     0  12    5.3970   556.1    4.804      56.851
2015    5       27     0  18    5.3967   556.3    4.801      56.887
2015    5       27     0  24    5.3963   556.5    4.798      56.924
2015    5       27     0  30    5.3960   556.8    4.795      56.963
2015    5       27     0  36    5.3956   557.0    4.792      57.002
2015    5       27     0  42    5.3953   557.2    4.789      57.041
2015    5       27     0  48    5.3949   557.4    4.786      57.081
2015    5       27     0  54    5.3945   557.7    4.783      57.121
2015    5       27     0  59    5.3940   557.9    4.779      57.160
2015    5       27     1   5    5.3936   558.1    4.776      57.199
2015    5       27     1  11    5.3931   558.3    4.773      57.238
2015    5       27     1  17    5.3927   558.6    4.769      57.276
2015    5       27     1  23    5.3922   558.8    4.766      57.314
2015    5       27     1  29    5.3917   559.0    4.762      57.352
2015    5       27     1  35    5.3912   559.3    4.759      57.389
2015    5       27     1  41    5.3907   559.5    4.755      57.426
2015    5       27     1  47    5.3901   559.7    4.752      57.463
2015    5       27     1  53    5.3896   559.9    4.748      57.499
2015    5       27     1  58    5.3891   560.2    4.745      57.535
2015    5       27     2   4    5.3885   560.4    4.741      57.571
2015    5       27     2  10    5.3880   560.6    4.737      57.607
2015    5       27     2  16    5.3875   560.9    4.734      57.642
2015    5       27     2  22    5.3869   561.1    4.730      57.677
2015    5       27     2  28    5.3864   561.3    4.726      57.712
2015    5       27     2  34    5.3858   561.5    4.722      57.746
2015    5       27     2  40    5.3853   561.8    4.719      57.781
2015    5       27     2  46    5.3848   562.0    4.715      57.815
2015    5       27     2  51    5.3842   562.2    4.711      57.849
2015    5       27     2  57    5.3837   562.5    4.707      57.884
2015    5       27     3   3    5.3832   562.7    4.703      57.918
2015    5       27     3   9    5.3827   562.9    4.700      57.952
2015    5       27     3  15    5.3822   563.1    4.696      57.987
2015    5       27     3  21    5.3818   563.4    4.692      58.021
2015    5       27     3  27    5.3813   563.6    4.688      58.056
2015    5       27     3  33    5.3809   563.8    4.684      58.091
2015    5       27     3  39    5.3805   564.1    4.681      58.126
2015    5       27     3  45    5.3801   564.3    4.677      58.162
2015    5       27     3  50    5.3797   564.5    4.673      58.198
2015    5       27     3  56    5.3793   564.8    4.670      58.234
2015    5       27     4   2    5.3790   565.0    4.666      58.271
2015    5       27     4   8    5.3786   565.2    4.663      58.308
2015    5       27     4  14    5.3783   565.5    4.659      58.346
2015    5       27     4  20    5.3780   565.7    4.656      58.384
2015    5       27     4  26    5.3778   566.0    4.652      58.423
2015    5       27     4  32    5.3775   566.2    4.649      58.462
2015    5       27     4  38    5.3773   566.4    4.646      58.501
2015    5       27     4  43    5.3770   566.7    4.643      58.541
2015    5       27     4  49    5.3768   566.9    4.639      58.582
2015    5       27     4  55    5.3766   567.2    4.636      58.623
2015    5       27     5   1    5.3764   567.4    4.633      58.665
2015    5       27     5   7    5.3762   567.7    4.630      58.707
2015    5       27     5  13    5.3760   567.9    4.627      58.749
2015    5       27     5  19    5.3758   568.2    4.624      58.792
2015    5       27     5  25    5.3756   568.4    4.621      58.836
2015    5       27     5  31    5.3753   568.7    4.618      58.880
2015    5       27     5  36    5.3750   568.9    4.616      58.925
2015    5       27     5  42    5.3747   569.2    4.613      58.970
2015    5       27     5  48    5.3744   569.4    4.610      59.017
2015    5       27     5  54    5.3741   569.7    4.608      59.065
2015    5       27     6   0    5.3737   569.9    4.605      59.115
2015    5       27     6   6    5.3733   570.2    4.602      59.165
2015    5       27     6  12    5.3728   570.4    4.600      59.216
2015    5       27     6  18    5.3724   570.7    4.597      59.267
2015    5       27     6  24    5.3719   571.0    4.594      59.317
2015    5       27     6  30    5.3714   571.2    4.591      59.366
2015    5       27     6  35    5.3708   571.5    4.587      59.415
2015    5       27     6  41    5.3703   571.7    4.584      59.464
2015    5       27     6  47    5.3697   572.0    4.581      59.511
2015    5       27     6  53    5.3691   572.3    4.578      59.558
2015    5       27     6  59    5.3685   572.5    4.574      59.605
2015    5       27     7   5    5.3679   572.8    4.571      59.650
2015    5       27     7  11    5.3673   573.1    4.567      59.695
2015    5       27     7  17    5.3667   573.3    4.564      59.740
2015    5       27     7  23    5.3661   573.6    4.560      59.785
2015    5       27     7  28    5.3654   573.8    4.557      59.829
2015    5       27     7  34    5.3648   574.1    4.553      59.874
2015    5       27     7  40    5.3641   574.4    4.550      59.919
2015    5       27     7  46    5.3634   574.7    4.546      59.965
2015    5       27     7  52    5.3627   574.9    4.542      60.011
2015    5       27     7  58    5.3620   575.2    4.538      60.057
2015    5       27     8   4    5.3613   575.5    4.534      60.103
2015    5       27     8  10    5.3606   575.8    4.530      60.148
2015    5       27     8  16    5.3598   576.0    4.526      60.192
2015    5       27     8  22    5.3590   576.3    4.521      60.235
2015    5       27     8  27    5.3582   576.6    4.517      60.278
2015    5       27     8  33    5.3574   576.9    4.512      60.320
2015    5       27     8  39    5.3565   577.2    4.507      60.361
2015    5       27     8  45    5.3557   577.4    4.503      60.401
2015    5       27     8  51    5.3548   577.7    4.498      60.441
2015    5       27     8  57    5.3539   578.0    4.493      60.480
2015    5       27     9   3    5.3530   578.3    4.488      60.518
2015    5       27     9   9    5.3521   578.6    4.483      60.556
2015    5       27     9  15    5.3512   578.9    4.478      60.593
2015    5       27     9  20    5.3502   579.1    4.473      60.629
2015    5       27     9  26    5.3493   579.4    4.468      60.665
2015    5       27     9  32    5.3483   579.7    4.463      60.701
2015    5       27     9  38    5.3474   580.0    4.458      60.736
2015    5       27     9  44    5.3464   580.3    4.452      60.770
2015    5       27     9  50    5.3455   580.6    4.447      60.805
2015    5       27     9  56    5.3445   580.8    4.442      60.839
2015    5       27    10   2    5.3435   581.1    4.437      60.872
2015    5       27    10   8    5.3425   581.4    4.431      60.906
2015    5       27    10  14    5.3415   581.7    4.426      60.939
2015    5       27    10  19    5.3406   582.0    4.421      60.972
2015    5       27    10  25    5.3396   582.3    4.416      61.005
2015    5       27    10  31    5.3386   582.6    4.410      61.038
2015    5       27    10  37    5.3376   582.8    4.405      61.072
2015    5       27    10  43    5.3366   583.1    4.400      61.105
2015    5       27    10  49    5.3357   583.4    4.395      61.139
2015    5       27    10  55    5.3347   583.7    4.390      61.172
2015    5       27    11   1    5.3337   584.0    4.384      61.207
2015    5       27    11   7    5.3327   584.3    4.379      61.241
2015    5       27    11  12    5.3317   584.6    4.374      61.277
2015    5       27    11  18    5.3307   584.9    4.369      61.312
2015    5       27    11  24    5.3297   585.2    4.364      61.348
2015    5       27    11  30    5.3286   585.4    4.360      61.385
2015    5       27    11  36    5.3276   585.7    4.355      61.422
2015    5       27    11  42    5.3265   586.0    4.350      61.460
2015    5       27    11  48    5.3254   586.3    4.345      61.498
2015    5       27    11  54    5.3243   586.6    4.341      61.537
2015    5       27    12   0    5.3232   586.9    4.336      61.577
2015    5       27    12   5    5.3221   587.2    4.331      61.617
2015    5       27    12  11    5.3209   587.5    4.327      61.657
2015    5       27    12  17    5.3197   587.8    4.323      61.699
2015    5       27    12  23    5.3185   588.1    4.318      61.740
2015    5       27    12  29    5.3173   588.4    4.314      61.783
2015    5       27    12  35    5.3160   588.7    4.310      61.826
2015    5       27    12  41    5.3147   589.0    4.306      61.870
2015    5       27    12  47    5.3133   589.3    4.301      61.914
2015    5       27    12  53    5.3119   589.5    4.298      61.959
2015    5       27    12  59    5.3105   589.8    4.294      62.005
2015    5       27    13   4    5.3090   590.1    4.290      62.052
2015    5       27    13  10    5.3075   590.4    4.286      62.101
2015    5       27    13  16    5.3059   590.7    4.282      62.152
2015    5       27    13  22    5.3043   591.0    4.278      62.204
2015    5       27    13  28    5.3027   591.3    4.275      62.257
2015    5       27    13  34    5.3010   591.6    4.271      62.311
2015    5       27    13  40    5.2993   591.9    4.267      62.364
2015    5       27    13  46    5.2976   592.2    4.263      62.417
2015    5       27    13  52    5.2958   592.5    4.259      62.470
2015    5       27    13  57    5.2940   592.8    4.255      62.521
2015    5       27    14   3    5.2922   593.1    4.250      62.572
2015    5       27    14   9    5.2904   593.4    4.246      62.622
2015    5       27    14  15    5.2886   593.7    4.241      62.670
2015    5       27    14  21    5.2867   594.0    4.237      62.717
2015    5       27    14  27    5.2849   594.3    4.232      62.762
2015    5       27    14  33    5.2830   594.6    4.227      62.807
2015    5       27    14  39    5.2811   595.0    4.222      62.850
2015    5       27    14  45    5.2791   595.3    4.218      62.892
2015    5       27    14  51    5.2772   595.6    4.212      62.933
2015    5       27    14  56    5.2752   595.9    4.207      62.973
2015    5       27    15   2    5.2732   596.2    4.202      63.012
2015    5       27    15   8    5.2712   596.5    4.197      63.050
2015    5       27    15  14    5.2692   596.8    4.191      63.087
2015    5       27    15  20    5.2672   597.1    4.186      63.123
2015    5       27    15  26    5.2651   597.4    4.180      63.158
2015    5       27    15  32    5.2630   597.7    4.175      63.192
2015    5       27    15  38    5.2609   598.0    4.169      63.226
2015    5       27    15  44    5.2588   598.3    4.163      63.259
2015    5       27    15  49    5.2566   598.6    4.157      63.291
2015    5       27    15  55    5.2544   598.9    4.152      63.322
2015    5       27    16   1    5.2522   599.2    4.146      63.353
2015    5       27    16   7    5.2500   599.6    4.140      63.383
2015    5       27    16  13    5.2478   599.9    4.134      63.413
2015    5       27    16  19    5.2455   600.2    4.128      63.442
2015    5       27    16  25    5.2432   600.5    4.122      63.470
2015    5       27    16  31    5.2409   600.8    4.116      63.498
2015    5       27    16  37    5.2386   601.1    4.110      63.525
2015    5       27    16  43    5.2363   601.4    4.104      63.552
2015    5       27    16  48    5.2339   601.7    4.097      63.578
2015    5       27    16  54    5.2315   602.0    4.091      63.604
2015    5       27    17   0    5.2291   602.3    4.085      63.629
2015    5       27    17   6    5.2267   602.6    4.079      63.654
2015    5       27    17  12    5.2243   602.9    4.073      63.679
2015    5       27    17  18    5.2218   603.2    4.067      63.703
2015    5       27    17  24    5.2194   603.6    4.060      63.727
2015    5       27    17  30    5.2168   603.9    4.054      63.750
2015    5       27    17  36    5.2143   604.2    4.048      63.773
2015    5       27    17  41    5.2118   604.5    4.042      63.797
2015    5       27    17  47    5.2093   604.8    4.035      63.819
2015    5       27    17  53    5.2067   605.1    4.029      63.842
2015    5       27    17  59    5.2042   605.4    4.023      63.864
2015    5       27    18   5    5.2016   605.7    4.017      63.887
2015    5       27    18  11    5.1990   606.0    4.011      63.909
2015    5       27    18  17    5.1964   606.3    4.005      63.931
2015    5       27    18  23    5.1937   606.6    3.999      63.954
2015    5       27    18  29    5.1911   606.9    3.992      63.976
2015    5       27    18  34    5.1884   607.2    3.986      63.999
2015    5       27    18  40    5.1856   607.5    3.980      64.022
2015    5       27    18  46    5.1829   607.8    3.974      64.044
2015    5       27    18  52    5.1801   608.1    3.968      64.067
2015    5       27    18  58    5.1773   608.4    3.962      64.090
2015    5       27    19   4    5.1744   608.6    3.956      64.113
2015    5       27    19  10    5.1715   608.9    3.950      64.136
2015    5       27    19  16    5.1686   609.2    3.945      64.159
2015    5       27    19  22    5.1656   609.5    3.939      64.182
2015    5       27    19  28    5.1626   609.8    3.933      64.205
2015    5       27    19  33    5.1596   610.1    3.927      64.228
2015    5       27    19  39    5.1565   610.4    3.921      64.251
2015    5       27    19  45    5.1534   610.7    3.915      64.275
2015    5       27    19  51    5.1502   611.0    3.910      64.297
2015    5       27    19  57    5.1471   611.2    3.904      64.320
2015    5       27    20   3    5.1439   611.5    3.898      64.343
2015    5       27    20   9    5.1407   611.8    3.893      64.365
2015    5       27    20  15    5.1374   612.1    3.887      64.387
2015    5       27    20  21    5.1342   612.3    3.881      64.409
2015    5       27    20  26    5.1309   612.6    3.876      64.431
2015    5       27    20  32    5.1276   612.9    3.870      64.452
2015    5       27    20  38    5.1243   613.2    3.865      64.474
2015    5       27    20  44    5.1209   613.4    3.859      64.496
2015    5       27    20  50    5.1176   613.7    3.854      64.517
2015    5       27    20  56    5.1143   614.0    3.849      64.538
2015    5       27    21   2    5.1109   614.2    3.843      64.560
2015    5       27    21   8    5.1075   614.5    3.838      64.581
2015    5       27    21  14    5.1041   614.8    3.833      64.601
2015    5       27    21  20    5.1008   615.0    3.827      64.621
2015    5       27    21  25    5.0974   615.3    3.822      64.640
2015    5       27    21  31    5.0940   615.5    3.817      64.658
2015    5       27    21  37    5.0906   615.8    3.812      64.676
2015    5       27    21  43    5.0872   616.0    3.806      64.692
2015    5       27    21  49    5.0838   616.3    3.801      64.707
2015    5       27    21  55    5.0803   616.6    3.795      64.721
2015    5       27    22   1    5.0769   616.8    3.790      64.734
2015    5       27    22   7    5.0735   617.1    3.785      64.747
2015    5       27    22  13    5.0700   617.3    3.779      64.758
2015    5       27    22  18    5.0665   617.6    3.774      64.769
2015    5       27    22  24    5.0630   617.8    3.768      64.779
2015    5       27    22  30    5.0596   618.1    3.763      64.788
2015    5       27    22  36    5.0560   618.3    3.757      64.796
2015    5       27    22  42    5.0525   618.5    3.752      64.804
2015    5       27    22  48    5.0490   618.8    3.746      64.812
2015    5       27    22  54    5.0455   619.0    3.741      64.819
2015    5       27    23   0    5.0419   619.3    3.735      64.825
2015    5       27    23   6    5.0384   619.5    3.730      64.831
2015    5       27    23  12    5.0348   619.7    3.724      64.837
2015    5       27    23  17    5.0313   620.0    3.719      64.842
2015    5       27    23  23    5.0277   620.2    3.713      64.847
2015    5       27    23  29    5.0241   620.5    3.708      64.853
2015    5       27    23  35    5.0206   620.7    3.702      64.857
2015    5       27    23  41    5.0170   620.9    3.697      64.862
2015    5       27    23  47    5.0134   621.1    3.692      64.867
2015    5       27    23  53    5.0098   621.4    3.686      64.871
2015    5       27    23  59    5.0063   621.6    3.681      64.876
2015    5       28     0   5    5.0027   621.8    3.676      64.880
2015    5       28     0  10    4.9991   622.0    3.670      64.885
2015    5       28     0  16    4.9955   622.3    3.665      64.889
2015    5       28     0  22    4.9920   622.5    3.660      64.894
2015    5       28     0  28    4.9884   622.7    3.655      64.898
2015    5       28     0  34    4.9849   622.9    3.650      64.903
2015    5       28     0  40    4.9813   623.1    3.645      64.908
2015    5       28     0  46    4.9778   623.4    3.640      64.913
2015    5       28     0  52    4.9743   623.6    3.635      64.918
2015    5       28     0  58    4.9708   623.8    3.630      64.924
2015    5       28     1   3    4.9673   624.0    3.625      64.929
2015    5       28     1   9    4.9638   624.2    3.620      64.935
2015    5       28     1  15    4.9603   624.4    3.615      64.941
2015    5       28     1  21    4.9568   624.6    3.611      64.948
2015    5       28     1  27    4.9534   624.8    3.606      64.954
2015    5       28     1  33    4.9499   625.0    3.601      64.961
2015    5       28     1  39    4.9464   625.2    3.597      64.968
2015    5       28     1  45    4.9429   625.4    3.592      64.975
2015    5       28     1  51    4.9395   625.6    3.588      64.982
2015    5       28     1  57    4.9360   625.8    3.584      64.990
2015    5       28     2   2    4.9324   626.0    3.579      64.998
2015    5       28     2   8    4.9289   626.2    3.575      65.006
2015    5       28     2  14    4.9253   626.4    3.571      65.013
2015    5       28     2  20    4.9218   626.6    3.566      65.020
2015    5       28     2  26    4.9182   626.8    3.562      65.025
2015    5       28     2  32    4.9146   627.0    3.558      65.030
2015    5       28     2  38    4.9109   627.2    3.554      65.034
2015    5       28     2  44    4.9073   627.4    3.549      65.038
2015    5       28     2  50    4.9036   627.6    3.545      65.040
2015    5       28     2  55    4.8999   627.7    3.541      65.042
2015    5       28     3   1    4.8962   627.9    3.537      65.042
2015    5       28     3   7    4.8925   628.1    3.532      65.042
2015    5       28     3  13    4.8888   628.3    3.528      65.041
2015    5       28     3  19    4.8851   628.5    3.524      65.038
2015    5       28     3  25    4.8813   628.7    3.519      65.035
2015    5       28     3  31    4.8776   628.8    3.515      65.031
2015    5       28     3  37    4.8738   629.0    3.511      65.026
2015    5       28     3  43    4.8701   629.2    3.506      65.020
2015    5       28     3  49    4.8663   629.4    3.502      65.013
2015    5       28     3  54    4.8626   629.5    3.497      65.006
2015    5       28     4   0    4.8588   629.7    3.493      64.998
2015    5       28     4   6    4.8551   629.9    3.489      64.989
2015    5       28     4  12    4.8513   630.0    3.484      64.979
2015    5       28     4  18    4.8476   630.2    3.480      64.969
2015    5       28     4  24    4.8438   630.3    3.475      64.958
2015    5       28     4  30    4.8401   630.5    3.471      64.947
2015    5       28     4  36    4.8364   630.7    3.466      64.934
2015    5       28     4  42    4.8326   630.8    3.462      64.922
2015    5       28     4  47    4.8289   631.0    3.457      64.908
2015    5       28     4  53    4.8252   631.1    3.453      64.894
2015    5       28     4  59    4.8214   631.3    3.448      64.880
2015    5       28     5   5    4.8177   631.4    3.444      64.865
2015    5       28     5  11    4.8140   631.6    3.439      64.850
2015    5       28     5  17    4.8103   631.7    3.435      64.834
2015    5       28     5  23    4.8067   631.8    3.430      64.817
2015    5       28     5  29    4.8030   632.0    3.426      64.800
2015    5       28     5  35    4.7993   632.1    3.421      64.783
2015    5       28     5  41    4.7956   632.3    3.417      64.765
2015    5       28     5  46    4.7920   632.4    3.413      64.748
2015    5       28     5  52    4.7883   632.5    3.408      64.729
2015    5       28     5  58    4.7847   632.7    3.404      64.711
2015    5       28     6   4    4.7811   632.8    3.399      64.693
2015    5       28     6  10    4.7775   632.9    3.395      64.675
2015    5       28     6  16    4.7739   633.0    3.391      64.656
2015    5       28     6  22    4.7703   633.2    3.386      64.638
2015    5       28     6  28    4.7667   633.3    3.382      64.620
2015    5       28     6  34    4.7632   633.4    3.378      64.602
2015    5       28     6  39    4.7596   633.5    3.374      64.585
2015    5       28     6  45    4.7561   633.6    3.370      64.567
2015    5       28     6  51    4.7527   633.8    3.366      64.550
2015    5       28     6  57    4.7492   633.9    3.362      64.534
2015    5       28     7   3    4.7458   634.0    3.358      64.518
2015    5       28     7   9    4.7424   634.1    3.354      64.502
2015    5       28     7  15    4.7390   634.2    3.350      64.487
2015    5       28     7  21    4.7356   634.3    3.346      64.473
2015    5       28     7  27    4.7323   634.4    3.343      64.460
2015    5       28     7  32    4.7290   634.5    3.339      64.447
2015    5       28     7  38    4.7258   634.6    3.336      64.435
2015    5       28     7  44    4.7225   634.7    3.332      64.423
2015    5       28     7  50    4.7193   634.8    3.329      64.413
2015    5       28     7  56    4.7162   634.9    3.326      64.403
2015    5       28     8   2    4.7130   635.0    3.323      64.395
2015    5       28     8   8    4.7099   635.1    3.320      64.387
2015    5       28     8  14    4.7068   635.2    3.317      64.379
2015    5       28     8  20    4.7037   635.3    3.314      64.373
2015    5       28     8  26    4.7007   635.4    3.311      64.368
2015    5       28     8  31    4.6977   635.5    3.308      64.363
2015    5       28     8  37    4.6947   635.6    3.306      64.359
2015    5       28     8  43    4.6917   635.7    3.303      64.355
2015    5       28     8  49    4.6887   635.8    3.301      64.352
2015    5       28     8  55    4.6857   635.9    3.299      64.350
2015    5       28     9   1    4.6827   635.9    3.296      64.348
2015    5       28     9   7    4.6797   636.0    3.294      64.347
2015    5       28     9  13    4.6767   636.1    3.292      64.346
2015    5       28     9  19    4.6737   636.2    3.290      64.346
2015    5       28     9  24    4.6707   636.3    3.288      64.346
2015    5       28     9  30    4.6677   636.4    3.286      64.346
2015    5       28     9  36    4.6647   636.5    3.284      64.345
2015    5       28     9  42    4.6616   636.6    3.282      64.344
2015    5       28     9  48    4.6586   636.6    3.280      64.342
2015    5       28     9  54    4.6555   636.7    3.278      64.340
2015    5       28    10   0    4.6525   636.8    3.276      64.336
2015    5       28    10   6    4.6494   636.9    3.274      64.332
2015    5       28    10  12    4.6463   637.0    3.272      64.326
2015    5       28    10  18    4.6432   637.1    3.270      64.320
2015    5       28    10  23    4.6401   637.2    3.268      64.313
2015    5       28    10  29    4.6370   637.2    3.266      64.305
2015    5       28    10  35    4.6339   637.3    3.264      64.296
2015    5       28    10  41    4.6308   637.4    3.262      64.287
2015    5       28    10  47    4.6277   637.5    3.260      64.276
2015    5       28    10  53    4.6246   637.6    3.258      64.265
2015    5       28    10  59    4.6215   637.6    3.256      64.253
2015    5       28    11   5    4.6184   637.7    3.254      64.241
2015    5       28    11  11    4.6153   637.8    3.252      64.227
2015    5       28    11  16    4.6123   637.9    3.249      64.213
2015    5       28    11  22    4.6092   637.9    3.247      64.198
2015    5       28    11  28    4.6061   638.0    3.245      64.183
2015    5       28    11  34    4.6030   638.1    3.242      64.167
2015    5       28    11  40    4.6000   638.1    3.240      64.150
2015    5       28    11  46    4.5970   638.2    3.237      64.133
2015    5       28    11  52    4.5939   638.3    3.235      64.115
2015    5       28    11  58    4.5909   638.3    3.232      64.097
2015    5       28    12   4    4.5879   638.4    3.230      64.078
2015    5       28    12  10    4.5849   638.4    3.227      64.059
2015    5       28    12  15    4.5819   638.5    3.225      64.039
2015    5       28    12  21    4.5790   638.5    3.222      64.019
2015    5       28    12  27    4.5760   638.6    3.219      63.998
2015    5       28    12  33    4.5731   638.7    3.217      63.977
2015    5       28    12  39    4.5701   638.7    3.214      63.956
2015    5       28    12  45    4.5672   638.8    3.211      63.934
2015    5       28    12  51    4.5643   638.8    3.209      63.911
2015    5       28    12  57    4.5614   638.9    3.206      63.889
2015    5       28    13   3    4.5585   638.9    3.203      63.866
2015    5       28    13   8    4.5557   639.0    3.200      63.842
2015    5       28    13  14    4.5528   639.0    3.197      63.819
2015    5       28    13  20    4.5500   639.1    3.195      63.795
2015    5       28    13  26    4.5471   639.1    3.192      63.772
2015    5       28    13  32    4.5443   639.1    3.189      63.748
2015    5       28    13  38    4.5415   639.2    3.186      63.724
2015    5       28    13  44    4.5388   639.2    3.183      63.700
2015    5       28    13  50    4.5360   639.3    3.180      63.677
2015    5       28    13  56    4.5333   639.3    3.178      63.654
2015    5       28    14   1    4.5305   639.3    3.175      63.630
2015    5       28    14   7    4.5279   639.4    3.172      63.608
2015    5       28    14  13    4.5252   639.4    3.170      63.585
2015    5       28    14  19    4.5225   639.4    3.167      63.563
2015    5       28    14  25    4.5199   639.5    3.164      63.542
2015    5       28    14  31    4.5173   639.5    3.162      63.521
2015    5       28    14  37    4.5147   639.5    3.159      63.501
2015    5       28    14  43    4.5122   639.6    3.157      63.481
2015    5       28    14  49    4.5096   639.6    3.154      63.463
2015    5       28    14  55    4.5071   639.6    3.152      63.444
2015    5       28    15   0    4.5046   639.6    3.150      63.427
2015    5       28    15   6    4.5022   639.7    3.148      63.410
2015    5       28    15  12    4.4997   639.7    3.146      63.394
2015    5       28    15  18    4.4973   639.7    3.144      63.379
2015    5       28    15  24    4.4949   639.8    3.142      63.364
2015    5       28    15  30    4.4925   639.8    3.140      63.350
2015    5       28    15  36    4.4901   639.8    3.138      63.337
2015    5       28    15  42    4.4878   639.8    3.136      63.325
2015    5       28    15  48    4.4854   639.9    3.135      63.313
2015    5       28    15  53    4.4831   639.9    3.133      63.302
2015    5       28    15  59    4.4807   639.9    3.132      63.292
2015    5       28    16   5    4.4784   639.9    3.130      63.282
2015    5       28    16  11    4.4760   640.0    3.129      63.273
2015    5       28    16  17    4.4737   640.0    3.128      63.264
2015    5       28    16  23    4.4714   640.0    3.127      63.256
2015    5       28    16  29    4.4691   640.0    3.126      63.248
2015    5       28    16  35    4.4667   640.1    3.124      63.241
2015    5       28    16  41    4.4644   640.1    3.123      63.234
2015    5       28    16  47    4.4621   640.1    3.123      63.227
2015    5       28    16  52    4.4597   640.1    3.122      63.221
2015    5       28    16  58    4.4574   640.2    3.121      63.215
2015    5       28    17   4    4.4551   640.2    3.120      63.209
2015    5       28    17  10    4.4528   640.2    3.119      63.203
2015    5       28    17  16    4.4504   640.2    3.118      63.197
2015    5       28    17  22    4.4481   640.2    3.118      63.191
2015    5       28    17  28    4.4458   640.3    3.117      63.185
2015    5       28    17  34    4.4435   640.3    3.116      63.179
2015    5       28    17  40    4.4412   640.3    3.116      63.172
2015    5       28    17  45    4.4388   640.3    3.115      63.166
2015    5       28    17  51    4.4365   640.3    3.114      63.159
2015    5       28    17  57    4.4342   640.3    3.114      63.152
2015    5       28    18   3    4.4319   640.4    3.113      63.145
2015    5       28    18   9    4.4296   640.4    3.112      63.137
2015    5       28    18  15    4.4273   640.4    3.112      63.128
2015    5       28    18  21    4.4251   640.4    3.111      63.120
2015    5       28    18  27    4.4228   640.4    3.110      63.110
2015    5       28    18  33    4.4205   640.4    3.109      63.100
2015    5       28    18  39    4.4182   640.4    3.108      63.089
2015    5       28    18  44    4.4160   640.4    3.108      63.078
2015    5       28    18  50    4.4137   640.5    3.107      63.067
2015    5       28    18  56    4.4115   640.5    3.106      63.054
2015    5       28    19   2    4.4093   640.5    3.105      63.042
2015    5       28    19   8    4.4070   640.5    3.104      63.028
2015    5       28    19  14    4.4048   640.5    3.103      63.014
2015    5       28    19  20    4.4026   640.5    3.102      63.000
2015    5       28    19  26    4.4005   640.5    3.101      62.985
2015    5       28    19  32    4.3983   640.5    3.100      62.969
2015    5       28    19  37    4.3961   640.5    3.099      62.953
2015    5       28    19  43    4.3939   640.5    3.098      62.937
2015    5       28    19  49    4.3918   640.5    3.097      62.920
2015    5       28    19  55    4.3896   640.5    3.095      62.902
2015    5       28    20   1    4.3875   640.5    3.094      62.884
2015    5       28    20   7    4.3853   640.5    3.093      62.866
2015    5       28    20  13    4.3832   640.5    3.092      62.847
2015    5       28    20  19    4.3811   640.5    3.090      62.827
2015    5       28    20  25    4.3790   640.5    3.089      62.807
2015    5       28    20  30    4.3769   640.5    3.088      62.787
2015    5       28    20  36    4.3748   640.5    3.086      62.767
2015    5       28    20  42    4.3728   640.5    3.085      62.746
2015    5       28    20  48    4.3707   640.5    3.083      62.724
2015    5       28    20  54    4.3686   640.5    3.082      62.703
2015    5       28    21   0    4.3666   640.4    3.081      62.681
2015    5       28    21   6    4.3646   640.4    3.079      62.660
2015    5       28    21  12    4.3626   640.4    3.078      62.638
2015    5       28    21  18    4.3606   640.4    3.076      62.616
2015    5       28    21  24    4.3586   640.4    3.075      62.594
2015    5       28    21  29    4.3567   640.4    3.073      62.572
2015    5       28    21  35    4.3547   640.4    3.072      62.551
2015    5       28    21  41    4.3528   640.4    3.071      62.529
2015    5       28    21  47    4.3509   640.3    3.069      62.508
2015    5       28    21  53    4.3490   640.3    3.068      62.487
2015    5       28    21  59    4.3471   640.3    3.066      62.466
2015    5       28    22   5    4.3452   640.3    3.065      62.445
2015    5       28    22  11    4.3434   640.3    3.064      62.425
2015    5       28    22  17    4.3415   640.3    3.062      62.405
2015    5       28    22  22    4.3397   640.2    3.061      62.385
2015    5       28    22  28    4.3379   640.2    3.060      62.366
2015    5       28    22  34    4.3360   640.2    3.059      62.347
2015    5       28    22  40    4.3342   640.2    3.057      62.329
2015    5       28    22  46    4.3324   640.1    3.056      62.311
2015    5       28    22  52    4.3307   640.1    3.055      62.293
2015    5       28    22  58    4.3289   640.1    3.054      62.276
2015    5       28    23   4    4.3271   640.1    3.053      62.260
2015    5       28    23  10    4.3254   640.0    3.052      62.244
2015    5       28    23  16    4.3236   640.0    3.051      62.228
2015    5       28    23  21    4.3219   640.0    3.050      62.214
2015    5       28    23  27    4.3201   640.0    3.049      62.199
2015    5       28    23  33    4.3184   640.0    3.048      62.185
2015    5       28    23  39    4.3167   639.9    3.048      62.172
2015    5       28    23  45    4.3150   639.9    3.047      62.159
2015    5       28    23  51    4.3133   639.9    3.046      62.146
2015    5       28    23  57    4.3116   639.9    3.045      62.134
2015    5       29     0   3    4.3099   639.8    3.045      62.122
2015    5       29     0   9    4.3082   639.8    3.044      62.111
2015    5       29     0  14    4.3066   639.8    3.044      62.100
2015    5       29     0  20    4.3049   639.8    3.043      62.089
2015    5       29     0  26    4.3032   639.7    3.042      62.078
2015    5       29     0  32    4.3016   639.7    3.042      62.067
2015    5       29     0  38    4.2999   639.7    3.041      62.057
2015    5       29     0  44    4.2983   639.7    3.041      62.046
2015    5       29     0  50    4.2966   639.6    3.041      62.035
2015    5       29     0  56    4.2949   639.6    3.040      62.025
2015    5       29     1   2    4.2933   639.6    3.040      62.014
2015    5       29     1   8    4.2916   639.6    3.039      62.003
2015    5       29     1  13    4.2900   639.5    3.039      61.992
2015    5       29     1  19    4.2883   639.5    3.038      61.981
2015    5       29     1  25    4.2867   639.5    3.038      61.969
2015    5       29     1  31    4.2850   639.5    3.037      61.957
2015    5       29     1  37    4.2834   639.4    3.037      61.944
2015    5       29     1  43    4.2817   639.4    3.036      61.931
2015    5       29     1  49    4.2801   639.4    3.036      61.918
2015    5       29     1  55    4.2784   639.4    3.035      61.904
2015    5       29     2   1    4.2767   639.3    3.035      61.889
2015    5       29     2   6    4.2751   639.3    3.034      61.874
2015    5       29     2  12    4.2734   639.3    3.034      61.858
2015    5       29     2  18    4.2718   639.2    3.033      61.842
2015    5       29     2  24    4.2701   639.2    3.032      61.825
2015    5       29     2  30    4.2685   639.2    3.032      61.808
2015    5       29     2  36    4.2668   639.1    3.031      61.789
2015    5       29     2  42    4.2652   639.1    3.030      61.771
2015    5       29     2  48    4.2636   639.1    3.030      61.751
2015    5       29     2  54    4.2619   639.0    3.029      61.731
2015    5       29     3   0    4.2603   639.0    3.028      61.711
2015    5       29     3   5    4.2586   639.0    3.028      61.690
2015    5       29     3  11    4.2570   638.9    3.027      61.669
2015    5       29     3  17    4.2554   638.9    3.026      61.647
2015    5       29     3  23    4.2538   638.9    3.025      61.626
2015    5       29     3  29    4.2522   638.8    3.025      61.604
2015    5       29     3  35    4.2505   638.8    3.024      61.582
2015    5       29     3  41    4.2490   638.8    3.023      61.560
2015    5       29     3  47    4.2474   638.7    3.023      61.539
2015    5       29     3  53    4.2458   638.7    3.022      61.518
2015    5       29     3  58    4.2443   638.6    3.022      61.497
2015    5       29     4   4    4.2427   638.6    3.021      61.477
2015    5       29     4  10    4.2412   638.6    3.021      61.457
2015    5       29     4  16    4.2397   638.5    3.020      61.438
2015    5       29     4  22    4.2383   638.5    3.020      61.419
2015    5       29     4  28    4.2368   638.4    3.020      61.401
2015    5       29     4  34    4.2354   638.4    3.019      61.384
2015    5       29     4  40    4.2340   638.4    3.019      61.368
2015    5       29     4  46    4.2326   638.3    3.019      61.352
2015    5       29     4  51    4.2312   638.3    3.019      61.338
2015    5       29     4  57    4.2298   638.2    3.019      61.324
2015    5       29     5   3    4.2285   638.2    3.019      61.310
2015    5       29     5   9    4.2271   638.2    3.019      61.297
2015    5       29     5  15    4.2258   638.1    3.020      61.285
2015    5       29     5  21    4.2244   638.1    3.020      61.273
2015    5       29     5  27    4.2230   638.1    3.020      61.261
2015    5       29     5  33    4.2216   638.0    3.020      61.250
2015    5       29     5  39    4.2202   638.0    3.021      61.240
2015    5       29     5  45    4.2188   638.0    3.021      61.231
2015    5       29     5  50    4.2174   637.9    3.021      61.222
2015    5       29     5  56    4.2160   637.9    3.021      61.215
2015    5       29     6   2    4.2145   637.8    3.021      61.208
2015    5       29     6   8    4.2131   637.8    3.021      61.202
2015    5       29     6  14    4.2116   637.7    3.021      61.196
2015    5       29     6  20    4.2102   637.7    3.021      61.190
2015    5       29     6  26    4.2087   637.7    3.021      61.183
2015    5       29     6  32    4.2073   637.6    3.021      61.176
2015    5       29     6  38    4.2058   637.6    3.021      61.169
2015    5       29     6  43    4.2044   637.5    3.020      61.162
2015    5       29     6  49    4.2029   637.5    3.020      61.154
2015    5       29     6  55    4.2015   637.4    3.020      61.145
2015    5       29     7   1    4.2001   637.4    3.019      61.136
2015    5       29     7   7    4.1986   637.3    3.019      61.127
2015    5       29     7  13    4.1972   637.3    3.019      61.117
2015    5       29     7  19    4.1958   637.2    3.018      61.107
2015    5       29     7  25    4.1944   637.2    3.018      61.096
2015    5       29     7  31    4.1929   637.1    3.017      61.085
2015    5       29     7  37    4.1916   637.1    3.017      61.074
2015    5       29     7  42    4.1902   637.0    3.016      61.062
2015    5       29     7  48    4.1888   637.0    3.016      61.050
2015    5       29     7  54    4.1874   636.9    3.015      61.037
2015    5       29     8   0    4.1860   636.9    3.015      61.024
2015    5       29     8   6    4.1847   636.8    3.014      61.010
2015    5       29     8  12    4.1833   636.8    3.014      60.996
2015    5       29     8  18    4.1820   636.7    3.013      60.981
2015    5       29     8  24    4.1806   636.6    3.012      60.965
2015    5       29     8  30    4.1793   636.6    3.012      60.949
2015    5       29     8  35    4.1780   636.5    3.011      60.933
2015    5       29     8  41    4.1766   636.5    3.011      60.916
2015    5       29     8  47    4.1753   636.4    3.010      60.898
2015    5       29     8  53    4.1740   636.4    3.009      60.879
2015    5       29     8  59    4.1727   636.3    3.008      60.860
2015    5       29     9   5    4.1713   636.3    3.008      60.840
2015    5       29     9  11    4.1700   636.2    3.007      60.819
2015    5       29     9  17    4.1687   636.1    3.006      60.798
2015    5       29     9  23    4.1673   636.1    3.005      60.776
2015    5       29     9  29    4.1660   636.0    3.004      60.753
2015    5       29     9  34    4.1647   636.0    3.003      60.729
2015    5       29     9  40    4.1633   635.9    3.003      60.705
2015    5       29     9  46    4.1620   635.9    3.002      60.680
2015    5       29     9  52    4.1606   635.8    3.001      60.654
2015    5       29     9  58    4.1593   635.7    3.000      60.628
2015    5       29    10   4    4.1579   635.7    2.999      60.601
2015    5       29    10  10    4.1566   635.6    2.998      60.574
2015    5       29    10  16    4.1553   635.5    2.997      60.546
2015    5       29    10  22    4.1539   635.5    2.996      60.517
2015    5       29    10  27    4.1526   635.4    2.995      60.489
2015    5       29    10  33    4.1513   635.3    2.994      60.459
2015    5       29    10  39    4.1499   635.3    2.993      60.431
2015    5       29    10  45    4.1486   635.2    2.992      60.401
2015    5       29    10  51    4.1473   635.1    2.991      60.373
2015    5       29    10  57    4.1460   635.1    2.990      60.344
2015    5       29    11   3    4.1447   635.0    2.990      60.316
2015    5       29    11   9    4.1434   634.9    2.989      60.288
2015    5       29    11  15    4.1421   634.9    2.988      60.260
2015    5       29    11  20    4.1408   634.8    2.988      60.234
2015    5       29    11  26    4.1396   634.7    2.987      60.208
2015    5       29    11  32    4.1383   634.6    2.987      60.183
2015    5       29    11  38    4.1371   634.6    2.986      60.159
2015    5       29    11  44    4.1358   634.5    2.986      60.136
2015    5       29    11  50    4.1346   634.4    2.986      60.113
2015    5       29    11  56    4.1334   634.4    2.986      60.092
2015    5       29    12   2    4.1322   634.3    2.986      60.071
2015    5       29    12   8    4.1310   634.3    2.986      60.051
2015    5       29    12  14    4.1298   634.2    2.986      60.033
2015    5       29    12  19    4.1286   634.1    2.986      60.014
2015    5       29    12  25    4.1274   634.1    2.986      59.997
2015    5       29    12  31    4.1261   634.0    2.986      59.980
2015    5       29    12  37    4.1249   633.9    2.987      59.964
2015    5       29    12  43    4.1235   633.9    2.987      59.948
2015    5       29    12  49    4.1222   633.8    2.988      59.932
2015    5       29    12  55    4.1209   633.7    2.988      59.917
2015    5       29    13   1    4.1196   633.7    2.988      59.904
2015    5       29    13   7    4.1182   633.6    2.989      59.891
2015    5       29    13  12    4.1168   633.5    2.989      59.879
2015    5       29    13  18    4.1154   633.5    2.989      59.868
2015    5       29    13  24    4.1140   633.4    2.990      59.857
2015    5       29    13  30    4.1126   633.3    2.990      59.847
2015    5       29    13  36    4.1112   633.3    2.990      59.838
2015    5       29    13  42    4.1098   633.2    2.991      59.828
2015    5       29    13  48    4.1083   633.1    2.991      59.818
2015    5       29    13  54    4.1069   633.0    2.991      59.809
2015    5       29    14   0    4.1056   632.9    2.991      59.799
2015    5       29    14   6    4.1042   632.9    2.991      59.789
2015    5       29    14  11    4.1028   632.8    2.992      59.779
2015    5       29    14  17    4.1014   632.7    2.992      59.769
2015    5       29    14  23    4.1001   632.6    2.992      59.759
2015    5       29    14  29    4.0988   632.5    2.992      59.750
2015    5       29    14  35    4.0975   632.4    2.993      59.740
2015    5       29    14  41    4.0962   632.4    2.993      59.730
2015    5       29    14  47    4.0950   632.3    2.993      59.721
2015    5       29    14  53    4.0938   632.2    2.993      59.711
2015    5       29    14  59    4.0926   632.1    2.994      59.702
2015    5       29    15   4    4.0914   632.0    2.994      59.692
2015    5       29    15  10    4.0902   631.9    2.994      59.683
2015    5       29    15  16    4.0892   631.9    2.995      59.673
2015    5       29    15  22    4.0881   631.8    2.995      59.664
2015    5       29    15  28    4.0870   631.7    2.996      59.655
2015    5       29    15  34    4.0860   631.6    2.996      59.646
2015    5       29    15  40    4.0850   631.5    2.997      59.637
2015    5       29    15  46    4.0839   631.5    2.997      59.629
2015    5       29    15  52    4.0829   631.4    2.997      59.621
2015    5       29    15  58    4.0819   631.3    2.998      59.613
2015    5       29    16   3    4.0808   631.2    2.998      59.605
2015    5       29    16   9    4.0797   631.2    2.998      59.596
2015    5       29    16  15    4.0787   631.1    2.998      59.586
2015    5       29    16  21    4.0776   631.0    2.998      59.575
2015    5       29    16  27    4.0765   630.9    2.998      59.563
2015    5       29    16  33    4.0754   630.9    2.998      59.550
2015    5       29    16  39    4.0742   630.8    2.998      59.536
2015    5       29    16  45    4.0731   630.7    2.998      59.522
2015    5       29    16  51    4.0720   630.6    2.998      59.506
2015    5       29    16  56    4.0708   630.6    2.998      59.490
2015    5       29    17   2    4.0697   630.5    2.997      59.472
2015    5       29    17   8    4.0685   630.4    2.997      59.454
2015    5       29    17  14    4.0673   630.3    2.997      59.435
2015    5       29    17  20    4.0661   630.2    2.996      59.415
2015    5       29    17  26    4.0649   630.2    2.996      59.394
2015    5       29    17  32    4.0637   630.1    2.995      59.372
2015    5       29    17  38    4.0625   630.0    2.994      59.350
2015    5       29    17  44    4.0612   629.9    2.994      59.326
2015    5       29    17  49    4.0600   629.9    2.993      59.302
2015    5       29    17  55    4.0587   629.8    2.993      59.277
2015    5       29    18   1    4.0575   629.7    2.992      59.252
2015    5       29    18   7    4.0562   629.6    2.991      59.226
2015    5       29    18  13    4.0549   629.5    2.990      59.199
2015    5       29    18  19    4.0536   629.4    2.990      59.172
2015    5       29    18  25    4.0523   629.4    2.989      59.144
2015    5       29    18  31    4.0510   629.3    2.988      59.115
2015    5       29    18  37    4.0497   629.2    2.987      59.087
2015    5       29    18  43    4.0484   629.1    2.987      59.057
2015    5       29    18  48    4.0471   629.0    2.986      59.028
2015    5       29    18  54    4.0457   628.9    2.985      58.998
2015    5       29    19   0    4.0444   628.8    2.984      58.967
2015    5       29    19   6    4.0430   628.7    2.983      58.937
2015    5       29    19  12    4.0417   628.7    2.982      58.906
2015    5       29    19  18    4.0403   628.6    2.982      58.874
2015    5       29    19  24    4.0389   628.5    2.981      58.843
2015    5       29    19  30    4.0376   628.4    2.980      58.811
2015    5       29    19  36    4.0362   628.3    2.979      58.779
2015    5       29    19  41    4.0348   628.2    2.978      58.746
2015    5       29    19  47    4.0334   628.1    2.977      58.714
2015    5       29    19  53    4.0320   628.0    2.977      58.681
2015    5       29    19  59    4.0305   627.9    2.976      58.648
2015    5       29    20   5    4.0291   627.8    2.975      58.615
2015    5       29    20  11    4.0277   627.7    2.974      58.582
2015    5       29    20  17    4.0263   627.6    2.974      58.549
2015    5       29    20  23    4.0248   627.5    2.973      58.516
2015    5       29    20  29    4.0234   627.4    2.972      58.483
2015    5       29    20  35    4.0220   627.2    2.971      58.450
2015    5       29    20  40    4.0206   627.1    2.971      58.417
2015    5       29    20  46    4.0192   627.0    2.970      58.385
2015    5       29    20  52    4.0178   626.9    2.970      58.353
2015    5       29    20  58    4.0164   626.8    2.969      58.322
2015    5       29    21   4    4.0151   626.7    2.969      58.291
2015    5       29    21  10    4.0138   626.6    2.968      58.261
2015    5       29    21  16    4.0125   626.4    2.968      58.232
2015    5       29    21  22    4.0112   626.3    2.968      58.204
2015    5       29    21  28    4.0099   626.2    2.967      58.176
2015    5       29    21  33    4.0087   626.1    2.967      58.150
2015    5       29    21  39    4.0075   626.0    2.967      58.125
2015    5       29    21  45    4.0063   625.8    2.967      58.102
2015    5       29    21  51    4.0052   625.7    2.967      58.079
2015    5       29    21  57    4.0041   625.6    2.968      58.058
2015    5       29    22   3    4.0030   625.5    2.968      58.038
2015    5       29    22   9    4.0019   625.4    2.968      58.019
2015    5       29    22  15    4.0009   625.2    2.969      58.001
2015    5       29    22  21    3.9999   625.1    2.970      57.985
2015    5       29    22  27    3.9989   625.0    2.970      57.970
2015    5       29    22  32    3.9980   624.9    2.971      57.956
2015    5       29    22  38    3.9971   624.8    2.972      57.944
2015    5       29    22  44    3.9962   624.7    2.973      57.932
2015    5       29    22  50    3.9954   624.6    2.974      57.922
2015    5       29    22  56    3.9945   624.4    2.975      57.913
2015    5       29    23   2    3.9936   624.3    2.976      57.906
2015    5       29    23   8    3.9928   624.2    2.978      57.900
2015    5       29    23  14    3.9919   624.1    2.979      57.895
2015    5       29    23  20    3.9910   624.0    2.980      57.890
2015    5       29    23  25    3.9900   623.9    2.981      57.885
2015    5       29    23  31    3.9891   623.8    2.982      57.880
2015    5       29    23  37    3.9881   623.7    2.984      57.874
2015    5       29    23  43    3.9871   623.6    2.985      57.869
2015    5       29    23  49    3.9861   623.5    2.986      57.863
2015    5       29    23  55    3.9851   623.4    2.987      57.856
2015    5       30     0   1    3.9840   623.3    2.988      57.850
2015    5       30     0   7    3.9829   623.2    2.989      57.842
2015    5       30     0  13    3.9817   623.1    2.990      57.834
2015    5       30     0  18    3.9806   623.0    2.991      57.826
2015    5       30     0  24    3.9794   622.9    2.992      57.817
2015    5       30     0  30    3.9782   622.8    2.993      57.808
2015    5       30     0  36    3.9770   622.7    2.994      57.798
2015    5       30     0  42    3.9758   622.6    2.994      57.787
2015    5       30     0  48    3.9746   622.5    2.995      57.776
2015    5       30     0  54    3.9733   622.4    2.996      57.764
2015    5       30     1   0    3.9720   622.3    2.996      57.752
2015    5       30     1   6    3.9707   622.2    2.997      57.738
2015    5       30     1  12    3.9695   622.1    2.997      57.724
2015    5       30     1  17    3.9682   622.0    2.998      57.709
2015    5       30     1  23    3.9669   621.9    2.998      57.693
2015    5       30     1  29    3.9655   621.8    2.998      57.676
2015    5       30     1  35    3.9642   621.7    2.998      57.658
2015    5       30     1  41    3.9629   621.6    2.999      57.640
2015    5       30     1  47    3.9616   621.4    2.999      57.621
2015    5       30     1  53    3.9603   621.3    2.999      57.602
2015    5       30     1  59    3.9590   621.2    2.999      57.582
2015    5       30     2   5    3.9577   621.1    2.999      57.561
2015    5       30     2  10    3.9564   621.0    2.999      57.540
2015    5       30     2  16    3.9550   620.9    2.999      57.517
2015    5       30     2  22    3.9537   620.8    2.999      57.495
2015    5       30     2  28    3.9524   620.7    2.999      57.471
2015    5       30     2  34    3.9511   620.6    2.999      57.447
2015    5       30     2  40    3.9498   620.5    2.998      57.422
2015    5       30     2  46    3.9485   620.4    2.998      57.397
2015    5       30     2  52    3.9473   620.2    2.998      57.371
2015    5       30     2  58    3.9460   620.1    2.997      57.344
2015    5       30     3   4    3.9447   620.0    2.997      57.317
2015    5       30     3   9    3.9434   619.9    2.997      57.290
2015    5       30     3  15    3.9421   619.8    2.996      57.262
2015    5       30     3  21    3.9409   619.7    2.996      57.233
2015    5       30     3  27    3.9396   619.6    2.995      57.204
2015    5       30     3  33    3.9383   619.5    2.995      57.175
2015    5       30     3  39    3.9371   619.4    2.994      57.144
2015    5       30     3  45    3.9358   619.2    2.994      57.114
2015    5       30     3  51    3.9345   619.1    2.993      57.083
2015    5       30     3  57    3.9332   619.0    2.993      57.051
2015    5       30     4   2    3.9320   618.9    2.992      57.019
2015    5       30     4   8    3.9307   618.8    2.991      56.987
2015    5       30     4  14    3.9295   618.7    2.991      56.954
2015    5       30     4  20    3.9282   618.5    2.990      56.921
2015    5       30     4  26    3.9270   618.4    2.989      56.888
2015    5       30     4  32    3.9258   618.3    2.989      56.855
2015    5       30     4  38    3.9246   618.2    2.988      56.822
2015    5       30     4  44    3.9234   618.0    2.988      56.789
2015    5       30     4  50    3.9222   617.9    2.987      56.756
2015    5       30     4  55    3.9211   617.8    2.987      56.723
2015    5       30     5   1    3.9199   617.7    2.986      56.690
2015    5       30     5   7    3.9187   617.5    2.986      56.658
2015    5       30     5  13    3.9176   617.4    2.985      56.626
2015    5       30     5  19    3.9165   617.3    2.985      56.594
2015    5       30     5  25    3.9153   617.2    2.985      56.563
2015    5       30     5  31    3.9142   617.0    2.984      56.533
2015    5       30     5  37    3.9131   616.9    2.984      56.502
2015    5       30     5  43    3.9120   616.8    2.984      56.473
2015    5       30     5  49    3.9109   616.6    2.984      56.444
2015    5       30     5  54    3.9099   616.5    2.984      56.415
2015    5       30     6   0    3.9088   616.4    2.984      56.388
2015    5       30     6   6    3.9078   616.2    2.984      56.361
2015    5       30     6  12    3.9068   616.1    2.984      56.334
2015    5       30     6  18    3.9057   616.0    2.985      56.308
2015    5       30     6  24    3.9047   615.8    2.985      56.283
2015    5       30     6  30    3.9037   615.7    2.985      56.259
2015    5       30     6  36    3.9027   615.6    2.986      56.235
2015    5       30     6  42    3.9017   615.4    2.986      56.212
2015    5       30     6  47    3.9007   615.3    2.987      56.190
2015    5       30     6  53    3.8998   615.2    2.988      56.168
2015    5       30     6  59    3.8988   615.0    2.988      56.147
2015    5       30     7   5    3.8977   614.9    2.989      56.126
2015    5       30     7  11    3.8967   614.7    2.990      56.105
2015    5       30     7  17    3.8956   614.6    2.991      56.085
2015    5       30     7  23    3.8946   614.5    2.992      56.066
2015    5       30     7  29    3.8935   614.3    2.992      56.046
2015    5       30     7  35    3.8923   614.2    2.993      56.027
2015    5       30     7  41    3.8912   614.1    2.994      56.007
2015    5       30     7  46    3.8901   613.9    2.995      55.988
2015    5       30     7  52    3.8889   613.8    2.996      55.969
2015    5       30     7  58    3.8878   613.7    2.997      55.950
2015    5       30     8   4    3.8866   613.5    2.998      55.932
2015    5       30     8  10    3.8854   613.4    2.998      55.913
2015    5       30     8  16    3.8842   613.3    2.999      55.894
2015    5       30     8  22    3.8830   613.1    3.000      55.875
2015    5       30     8  28    3.8818   613.0    3.001      55.856
2015    5       30     8  34    3.8806   612.9    3.002      55.837
2015    5       30     8  39    3.8794   612.7    3.002      55.817
2015    5       30     8  45    3.8782   612.6    3.003      55.798
2015    5       30     8  51    3.8770   612.4    3.004      55.779
2015    5       30     8  57    3.8758   612.3    3.005      55.760
2015    5       30     9   3    3.8747   612.2    3.006      55.741
2015    5       30     9   9    3.8735   612.0    3.007      55.723
2015    5       30     9  15    3.8723   611.9    3.008      55.705
2015    5       30     9  21    3.8712   611.8    3.009      55.687
2015    5       30     9  27    3.8700   611.6    3.009      55.669
2015    5       30     9  33    3.8689   611.5    3.010      55.652
2015    5       30     9  38    3.8678   611.4    3.011      55.635
2015    5       30     9  44    3.8666   611.2    3.012      55.618
2015    5       30     9  50    3.8655   611.1    3.013      55.602
2015    5       30     9  56    3.8644   611.0    3.014      55.585
2015    5       30    10   2    3.8633   610.8    3.015      55.569
2015    5       30    10   8    3.8622   610.7    3.016      55.553
2015    5       30    10  14    3.8611   610.6    3.017      55.538
2015    5       30    10  20    3.8601   610.4    3.018      55.522
2015    5       30    10  26    3.8590   610.3    3.019      55.507
2015    5       30    10  31    3.8579   610.2    3.020      55.492
2015    5       30    10  37    3.8567   610.0    3.021      55.477
2015    5       30    10  43    3.8556   609.9    3.022      55.462
2015    5       30    10  49    3.8545   609.8    3.023      55.447
2015    5       30    10  55    3.8534   609.7    3.024      55.431
2015    5       30    11   1    3.8523   609.5    3.025      55.416
2015    5       30    11   7    3.8512   609.4    3.026      55.400
2015    5       30    11  13    3.8501   609.3    3.027      55.384
2015    5       30    11  19    3.8489   609.1    3.028      55.367
2015    5       30    11  24    3.8478   609.0    3.028      55.350
2015    5       30    11  30    3.8467   608.9    3.029      55.332
2015    5       30    11  36    3.8455   608.7    3.030      55.313
2015    5       30    11  42    3.8444   608.6    3.030      55.294
2015    5       30    11  48    3.8433   608.5    3.031      55.273
2015    5       30    11  54    3.8422   608.3    3.031      55.252
2015    5       30    12   0    3.8410   608.2    3.032      55.231
2015    5       30    12   6    3.8399   608.1    3.032      55.209
2015    5       30    12  12    3.8388   607.9    3.032      55.186
2015    5       30    12  18    3.8377   607.8    3.033      55.163
2015    5       30    12  23    3.8366   607.7    3.033      55.139
2015    5       30    12  29    3.8355   607.5    3.034      55.114
2015    5       30    12  35    3.8344   607.4    3.034      55.090
2015    5       30    12  41    3.8333   607.2    3.034      55.065
2015    5       30    12  47    3.8323   607.1    3.035      55.040
2015    5       30    12  53    3.8313   606.9    3.035      55.015
2015    5       30    12  59    3.8303   606.8    3.035      54.990
2015    5       30    13   5    3.8293   606.6    3.036      54.966
2015    5       30    13  11    3.8284   606.5    3.036      54.942
2015    5       30    13  16    3.8274   606.4    3.037      54.919
2015    5       30    13  22    3.8266   606.2    3.037      54.898
2015    5       30    13  28    3.8257   606.1    3.038      54.877
2015    5       30    13  34    3.8248   605.9    3.039      54.857
2015    5       30    13  40    3.8239   605.8    3.039      54.838
2015    5       30    13  46    3.8230   605.7    3.040      54.818
2015    5       30    13  52    3.8221   605.5    3.040      54.797
2015    5       30    13  58    3.8211   605.4    3.041      54.776
2015    5       30    14   4    3.8202   605.3    3.041      54.754
2015    5       30    14  10    3.8192   605.1    3.041      54.732
2015    5       30    14  15    3.8183   605.0    3.042      54.709
2015    5       30    14  21    3.8173   604.9    3.042      54.685
2015    5       30    14  27    3.8163   604.7    3.042      54.661
2015    5       30    14  33    3.8153   604.6    3.042      54.637
2015    5       30    14  39    3.8143   604.5    3.042      54.611
2015    5       30    14  45    3.8132   604.3    3.043      54.586
2015    5       30    14  51    3.8122   604.2    3.043      54.559
2015    5       30    14  57    3.8111   604.1    3.043      54.532
2015    5       30    15   3    3.8101   603.9    3.043      54.505
2015    5       30    15   8    3.8090   603.8    3.043      54.478
2015    5       30    15  14    3.8079   603.7    3.043      54.450
2015    5       30    15  20    3.8068   603.5    3.043      54.421
2015    5       30    15  26    3.8056   603.4    3.043      54.393
2015    5       30    15  32    3.8045   603.2    3.043      54.364
2015    5       30    15  38    3.8034   603.1    3.043      54.334
2015    5       30    15  44    3.8022   603.0    3.043      54.305
2015    5       30    15  50    3.8011   602.8    3.044      54.275
2015    5       30    15  56    3.7999   602.7    3.044      54.245
2015    5       30    16   2    3.7987   602.5    3.044      54.215
2015    5       30    16   7    3.7975   602.4    3.044      54.185
2015    5       30    16  13    3.7963   602.3    3.044      54.155
2015    5       30    16  19    3.7952   602.1    3.044      54.125
2015    5       30    16  25    3.7940   602.0    3.044      54.095
2015    5       30    16  31    3.7928   601.8    3.044      54.066
2015    5       30    16  37    3.7916   601.7    3.045      54.036
2015    5       30    16  43    3.7904   601.6    3.045      54.007
2015    5       30    16  49    3.7892   601.4    3.045      53.978
2015    5       30    16  55    3.7880   601.3    3.046      53.950
2015    5       30    17   0    3.7868   601.1    3.046      53.922
2015    5       30    17   6    3.7856   601.0    3.046      53.895
2015    5       30    17  12    3.7845   600.8    3.047      53.867
2015    5       30    17  18    3.7833   600.7    3.047      53.840
2015    5       30    17  24    3.7821   600.5    3.048      53.813
2015    5       30    17  30    3.7809   600.4    3.049      53.787
2015    5       30    17  36    3.7797   600.2    3.049      53.761
2015    5       30    17  42    3.7786   600.1    3.050      53.736
2015    5       30    17  48    3.7774   599.9    3.051      53.710
2015    5       30    17  53    3.7762   599.8    3.052      53.685
2015    5       30    17  59    3.7751   599.6    3.052      53.661
2015    5       30    18   5    3.7739   599.5    3.053      53.638
2015    5       30    18  11    3.7728   599.3    3.054      53.614
2015    5       30    18  17    3.7716   599.2    3.055      53.592
2015    5       30    18  23    3.7705   599.0    3.056      53.570
2015    5       30    18  29    3.7694   598.9    3.057      53.549
2015    5       30    18  35    3.7683   598.7    3.058      53.528
2015    5       30    18  41    3.7672   598.5    3.059      53.508
2015    5       30    18  47    3.7662   598.4    3.061      53.489
2015    5       30    18  52    3.7651   598.2    3.062      53.470
2015    5       30    18  58    3.7641   598.1    3.063      53.452
2015    5       30    19   4    3.7631   597.9    3.065      53.434
2015    5       30    19  10    3.7622   597.7    3.066      53.417
2015    5       30    19  16    3.7612   597.6    3.068      53.401
2015    5       30    19  22    3.7603   597.4    3.069      53.386
2015    5       30    19  28    3.7595   597.2    3.071      53.371
2015    5       30    19  34    3.7586   597.1    3.073      53.358
2015    5       30    19  40    3.7578   596.9    3.075      53.346
2015    5       30    19  45    3.7570   596.8    3.076      53.336
2015    5       30    19  51    3.7563   596.6    3.078      53.327
2015    5       30    19  57    3.7555   596.4    3.080      53.319
2015    5       30    20   3    3.7547   596.3    3.082      53.311
2015    5       30    20   9    3.7539   596.1    3.083      53.303
2015    5       30    20  15    3.7532   596.0    3.085      53.294
2015    5       30    20  21    3.7524   595.8    3.086      53.285
2015    5       30    20  27    3.7517   595.7    3.088      53.276
2015    5       30    20  33    3.7509   595.5    3.090      53.266
2015    5       30    20  39    3.7502   595.4    3.091      53.258
2015    5       30    20  44    3.7494   595.3    3.092      53.249
2015    5       30    20  50    3.7487   595.1    3.094      53.241
2015    5       30    20  56    3.7479   595.0    3.095      53.233
2015    5       30    21   2    3.7471   594.8    3.096      53.224
2015    5       30    21   8    3.7463   594.7    3.097      53.214
2015    5       30    21  14    3.7454   594.6    3.098      53.203
2015    5       30    21  20    3.7445   594.4    3.099      53.191
2015    5       30    21  26    3.7436   594.3    3.100      53.177
2015    5       30    21  32    3.7427   594.2    3.101      53.162
2015    5       30    21  37    3.7417   594.1    3.101      53.146
2015    5       30    21  43    3.7407   593.9    3.102      53.129
2015    5       30    21  49    3.7397   593.8    3.102      53.111
2015    5       30    21  55    3.7387   593.7    3.103      53.092
2015    5       30    22   1    3.7377   593.5    3.103      53.071
2015    5       30    22   7    3.7367   593.4    3.104      53.050
2015    5       30    22  13    3.7356   593.3    3.104      53.027
2015    5       30    22  19    3.7345   593.1    3.104      53.004
2015    5       30    22  25    3.7334   593.0    3.104      52.980
2015    5       30    22  31    3.7323   592.9    3.104      52.955
2015    5       30    22  36    3.7312   592.7    3.104      52.929
2015    5       30    22  42    3.7301   592.6    3.104      52.903
2015    5       30    22  48    3.7289   592.5    3.104      52.876
2015    5       30    22  54    3.7278   592.3    3.104      52.847
2015    5       30    23   0    3.7266   592.2    3.104      52.819
2015    5       30    23   6    3.7254   592.1    3.104      52.789
2015    5       30    23  12    3.7243   591.9    3.104      52.759
2015    5       30    23  18    3.7231   591.8    3.104      52.728
2015    5       30    23  24    3.7218   591.6    3.103      52.696
2015    5       30    23  29    3.7206   591.5    3.103      52.664
2015    5       30    23  35    3.7194   591.4    3.103      52.631
2015    5       30    23  41    3.7182   591.2    3.102      52.598
2015    5       30    23  47    3.7169   591.1    3.102      52.564
2015    5       30    23  53    3.7157   591.0    3.102      52.529
2015    5       30    23  59    3.7144   590.8    3.101      52.495
2015    5       31     0   5    3.7131   590.7    3.101      52.459
