year    month   day   hour  minute  B_enl V_enl   n_enl       T_enl
[year] [month] [day] [hour][minute] [nT]  [km/s]  [cm-3]      [kK]
2015    5       12     0   2    5.2929   594.0    4.299      65.122
2015    5       12     0   7    5.2939   594.3    4.299      65.191
2015    5       12     0  13    5.2949   594.5    4.299      65.258
2015    5       12     0  19    5.2958   594.7    4.299      65.325
2015    5       12     0  25    5.2968   594.9    4.298      65.392
2015    5       12     0  31    5.2977   595.2    4.298      65.458
2015    5       12     0  36    5.2986   595.4    4.297      65.523
2015    5       12     0  42    5.2994   595.6    4.296      65.588
2015    5       12     0  48    5.3003   595.9    4.295      65.651
2015    5       12     0  54    5.3011   596.1    4.293      65.712
2015    5       12     0  59    5.3019   596.3    4.292      65.771
2015    5       12     1   5    5.3027   596.6    4.290      65.829
2015    5       12     1  11    5.3035   596.8    4.288      65.884
2015    5       12     1  17    5.3042   597.1    4.286      65.939
2015    5       12     1  23    5.3050   597.3    4.284      65.991
2015    5       12     1  28    5.3057   597.5    4.282      66.042
2015    5       12     1  34    5.3064   597.8    4.280      66.092
2015    5       12     1  40    5.3072   598.0    4.278      66.140
2015    5       12     1  46    5.3079   598.3    4.275      66.187
2015    5       12     1  52    5.3086   598.5    4.273      66.233
2015    5       12     1  57    5.3093   598.8    4.270      66.278
2015    5       12     2   3    5.3100   599.0    4.267      66.322
2015    5       12     2   9    5.3107   599.2    4.265      66.366
2015    5       12     2  15    5.3114   599.5    4.262      66.409
2015    5       12     2  20    5.3121   599.7    4.259      66.451
2015    5       12     2  26    5.3128   600.0    4.256      66.492
2015    5       12     2  32    5.3135   600.2    4.254      66.533
2015    5       12     2  38    5.3142   600.5    4.251      66.574
2015    5       12     2  44    5.3150   600.7    4.248      66.614
2015    5       12     2  49    5.3157   601.0    4.245      66.655
2015    5       12     2  55    5.3164   601.2    4.242      66.695
2015    5       12     3   1    5.3172   601.5    4.239      66.735
2015    5       12     3   7    5.3180   601.7    4.237      66.775
2015    5       12     3  13    5.3188   602.0    4.234      66.816
2015    5       12     3  18    5.3196   602.2    4.231      66.858
2015    5       12     3  24    5.3204   602.5    4.229      66.899
2015    5       12     3  30    5.3212   602.8    4.226      66.942
2015    5       12     3  36    5.3220   603.0    4.224      66.987
2015    5       12     3  41    5.3228   603.3    4.221      67.032
2015    5       12     3  47    5.3236   603.5    4.219      67.078
2015    5       12     3  53    5.3244   603.8    4.217      67.125
2015    5       12     3  59    5.3252   604.0    4.215      67.173
2015    5       12     4   5    5.3260   604.3    4.213      67.221
2015    5       12     4  10    5.3268   604.5    4.211      67.270
2015    5       12     4  16    5.3277   604.8    4.209      67.320
2015    5       12     4  22    5.3285   605.0    4.207      67.371
2015    5       12     4  28    5.3293   605.2    4.205      67.423
2015    5       12     4  34    5.3301   605.5    4.204      67.476
2015    5       12     4  39    5.3310   605.7    4.203      67.532
2015    5       12     4  45    5.3319   605.9    4.201      67.588
2015    5       12     4  51    5.3327   606.1    4.201      67.646
2015    5       12     4  57    5.3337   606.4    4.200      67.707
2015    5       12     5   2    5.3346   606.6    4.199      67.771
2015    5       12     5   8    5.3355   606.8    4.199      67.838
2015    5       12     5  14    5.3364   607.1    4.199      67.906
2015    5       12     5  20    5.3374   607.4    4.198      67.976
2015    5       12     5  26    5.3383   607.6    4.198      68.047
2015    5       12     5  31    5.3392   607.9    4.197      68.119
2015    5       12     5  37    5.3400   608.2    4.196      68.189
2015    5       12     5  43    5.3409   608.5    4.196      68.260
2015    5       12     5  49    5.3417   608.8    4.195      68.329
2015    5       12     5  55    5.3424   609.0    4.194      68.399
2015    5       12     6   0    5.3431   609.3    4.193      68.468
2015    5       12     6   6    5.3438   609.6    4.192      68.537
2015    5       12     6  12    5.3445   609.9    4.191      68.605
2015    5       12     6  18    5.3451   610.2    4.189      68.671
2015    5       12     6  23    5.3457   610.5    4.188      68.737
2015    5       12     6  29    5.3463   610.8    4.187      68.803
2015    5       12     6  35    5.3469   611.1    4.186      68.871
2015    5       12     6  41    5.3476   611.5    4.185      68.943
2015    5       12     6  47    5.3481   611.8    4.183      69.019
2015    5       12     6  52    5.3487   612.2    4.182      69.099
2015    5       12     6  58    5.3492   612.5    4.180      69.181
2015    5       12     7   4    5.3497   612.9    4.179      69.266
2015    5       12     7  10    5.3500   613.2    4.177      69.352
2015    5       12     7  16    5.3503   613.6    4.175      69.439
2015    5       12     7  21    5.3505   613.9    4.172      69.526
2015    5       12     7  27    5.3506   614.3    4.170      69.612
2015    5       12     7  33    5.3507   614.7    4.167      69.697
2015    5       12     7  39    5.3506   615.0    4.164      69.781
2015    5       12     7  44    5.3506   615.4    4.160      69.862
2015    5       12     7  50    5.3504   615.8    4.157      69.940
2015    5       12     7  56    5.3502   616.1    4.153      70.016
2015    5       12     8   2    5.3500   616.5    4.149      70.089
2015    5       12     8   8    5.3497   616.9    4.145      70.159
2015    5       12     8  13    5.3493   617.2    4.140      70.227
2015    5       12     8  19    5.3489   617.6    4.136      70.291
2015    5       12     8  25    5.3484   618.0    4.131      70.353
2015    5       12     8  31    5.3478   618.3    4.126      70.412
2015    5       12     8  37    5.3472   618.7    4.121      70.469
2015    5       12     8  42    5.3464   619.1    4.116      70.523
2015    5       12     8  48    5.3456   619.4    4.111      70.575
2015    5       12     8  54    5.3447   619.8    4.105      70.625
2015    5       12     9   0    5.3438   620.1    4.100      70.673
2015    5       12     9   5    5.3428   620.5    4.094      70.720
2015    5       12     9  11    5.3418   620.9    4.089      70.766
2015    5       12     9  17    5.3408   621.2    4.083      70.811
2015    5       12     9  23    5.3398   621.6    4.078      70.854
2015    5       12     9  29    5.3388   621.9    4.072      70.896
2015    5       12     9  34    5.3378   622.3    4.066      70.937
2015    5       12     9  40    5.3367   622.6    4.061      70.977
2015    5       12     9  46    5.3357   623.0    4.055      71.015
2015    5       12     9  52    5.3346   623.4    4.049      71.053
2015    5       12     9  58    5.3335   623.7    4.044      71.090
2015    5       12    10   3    5.3324   624.1    4.038      71.126
2015    5       12    10   9    5.3312   624.4    4.032      71.162
2015    5       12    10  15    5.3301   624.8    4.026      71.196
2015    5       12    10  21    5.3289   625.2    4.020      71.229
2015    5       12    10  27    5.3276   625.5    4.014      71.262
2015    5       12    10  32    5.3263   625.9    4.008      71.294
2015    5       12    10  38    5.3250   626.3    4.002      71.327
2015    5       12    10  44    5.3237   626.7    3.996      71.359
2015    5       12    10  50    5.3223   627.0    3.989      71.391
2015    5       12    10  55    5.3209   627.4    3.983      71.423
2015    5       12    11   1    5.3194   627.7    3.977      71.454
2015    5       12    11   7    5.3179   628.1    3.971      71.485
2015    5       12    11  13    5.3163   628.5    3.964      71.516
2015    5       12    11  19    5.3148   628.8    3.958      71.546
2015    5       12    11  24    5.3132   629.2    3.952      71.576
2015    5       12    11  30    5.3116   629.5    3.945      71.606
2015    5       12    11  36    5.3099   629.9    3.939      71.635
2015    5       12    11  42    5.3082   630.2    3.932      71.663
2015    5       12    11  48    5.3065   630.6    3.926      71.692
2015    5       12    11  53    5.3047   630.9    3.920      71.720
2015    5       12    11  59    5.3030   631.3    3.914      71.747
2015    5       12    12   5    5.3012   631.6    3.907      71.773
2015    5       12    12  11    5.2994   631.9    3.901      71.800
2015    5       12    12  16    5.2976   632.2    3.895      71.828
2015    5       12    12  22    5.2958   632.6    3.889      71.856
2015    5       12    12  28    5.2940   632.9    3.883      71.884
2015    5       12    12  34    5.2920   633.2    3.877      71.912
2015    5       12    12  40    5.2901   633.6    3.871      71.940
2015    5       12    12  45    5.2881   633.9    3.864      71.966
2015    5       12    12  51    5.2860   634.3    3.858      71.990
2015    5       12    12  57    5.2838   634.6    3.851      72.011
2015    5       12    13   3    5.2815   635.0    3.844      72.032
2015    5       12    13   9    5.2791   635.4    3.837      72.054
2015    5       12    13  14    5.2765   635.8    3.830      72.074
2015    5       12    13  20    5.2738   636.2    3.822      72.092
2015    5       12    13  26    5.2709   636.6    3.815      72.107
2015    5       12    13  32    5.2679   636.9    3.807      72.117
2015    5       12    13  37    5.2650   637.3    3.800      72.124
2015    5       12    13  43    5.2620   637.6    3.792      72.129
2015    5       12    13  49    5.2591   637.9    3.785      72.133
2015    5       12    13  55    5.2561   638.2    3.778      72.138
2015    5       12    14   1    5.2532   638.5    3.772      72.144
2015    5       12    14   6    5.2503   638.8    3.766      72.155
2015    5       12    14  12    5.2474   639.1    3.760      72.173
2015    5       12    14  18    5.2444   639.5    3.754      72.201
2015    5       12    14  24    5.2415   639.9    3.748      72.236
2015    5       12    14  30    5.2385   640.3    3.742      72.279
2015    5       12    14  35    5.2355   640.7    3.736      72.326
2015    5       12    14  41    5.2324   641.1    3.730      72.375
2015    5       12    14  47    5.2293   641.5    3.724      72.419
2015    5       12    14  53    5.2260   641.9    3.718      72.459
2015    5       12    14  58    5.2227   642.3    3.712      72.495
2015    5       12    15   4    5.2193   642.6    3.706      72.527
2015    5       12    15  10    5.2158   643.0    3.699      72.555
2015    5       12    15  16    5.2122   643.4    3.692      72.579
2015    5       12    15  22    5.2085   643.7    3.685      72.601
2015    5       12    15  27    5.2047   644.1    3.678      72.620
2015    5       12    15  33    5.2008   644.5    3.671      72.636
2015    5       12    15  39    5.1968   644.9    3.663      72.652
2015    5       12    15  45    5.1927   645.3    3.655      72.663
2015    5       12    15  51    5.1883   645.6    3.648      72.672
2015    5       12    15  56    5.1839   646.0    3.640      72.677
2015    5       12    16   2    5.1794   646.4    3.632      72.678
2015    5       12    16   8    5.1748   646.7    3.624      72.674
2015    5       12    16  14    5.1702   647.0    3.616      72.667
2015    5       12    16  19    5.1657   647.3    3.609      72.660
2015    5       12    16  25    5.1611   647.6    3.601      72.650
2015    5       12    16  31    5.1566   647.9    3.594      72.639
2015    5       12    16  37    5.1521   648.2    3.586      72.628
2015    5       12    16  43    5.1476   648.5    3.579      72.616
2015    5       12    16  48    5.1431   648.8    3.572      72.606
2015    5       12    16  54    5.1387   649.1    3.565      72.597
2015    5       12    17   0    5.1342   649.4    3.558      72.588
2015    5       12    17   6    5.1298   649.7    3.550      72.578
2015    5       12    17  12    5.1253   650.0    3.543      72.569
2015    5       12    17  17    5.1208   650.3    3.536      72.556
2015    5       12    17  23    5.1163   650.7    3.528      72.541
2015    5       12    17  29    5.1118   651.0    3.521      72.523
2015    5       12    17  35    5.1072   651.3    3.513      72.504
2015    5       12    17  40    5.1026   651.6    3.506      72.482
2015    5       12    17  46    5.0979   651.9    3.498      72.459
2015    5       12    17  52    5.0931   652.2    3.490      72.434
2015    5       12    17  58    5.0884   652.5    3.482      72.407
2015    5       12    18   4    5.0836   652.8    3.475      72.378
2015    5       12    18   9    5.0789   653.1    3.467      72.348
2015    5       12    18  15    5.0742   653.3    3.459      72.318
2015    5       12    18  21    5.0694   653.6    3.452      72.289
2015    5       12    18  27    5.0647   653.9    3.444      72.259
2015    5       12    18  33    5.0599   654.1    3.437      72.231
2015    5       12    18  38    5.0552   654.4    3.429      72.203
2015    5       12    18  44    5.0504   654.7    3.422      72.177
2015    5       12    18  50    5.0457   655.0    3.414      72.152
2015    5       12    18  56    5.0409   655.3    3.407      72.128
2015    5       12    19   1    5.0362   655.6    3.400      72.104
2015    5       12    19   7    5.0313   655.9    3.393      72.080
2015    5       12    19  13    5.0265   656.2    3.386      72.055
2015    5       12    19  19    5.0216   656.5    3.378      72.028
2015    5       12    19  25    5.0167   656.7    3.371      71.999
2015    5       12    19  30    5.0117   657.0    3.364      71.969
2015    5       12    19  36    5.0067   657.3    3.357      71.938
2015    5       12    19  42    5.0017   657.5    3.349      71.905
2015    5       12    19  48    4.9966   657.8    3.342      71.869
2015    5       12    19  54    4.9915   658.0    3.335      71.830
2015    5       12    19  59    4.9864   658.3    3.327      71.789
2015    5       12    20   5    4.9812   658.5    3.320      71.744
2015    5       12    20  11    4.9761   658.7    3.313      71.698
2015    5       12    20  17    4.9708   659.0    3.305      71.650
2015    5       12    20  22    4.9655   659.3    3.298      71.604
2015    5       12    20  28    4.9601   659.5    3.290      71.556
2015    5       12    20  34    4.9546   659.8    3.283      71.506
2015    5       12    20  40    4.9491   660.0    3.276      71.453
2015    5       12    20  46    4.9435   660.2    3.269      71.396
2015    5       12    20  51    4.9380   660.3    3.262      71.336
2015    5       12    20  57    4.9326   660.5    3.255      71.275
2015    5       12    21   3    4.9272   660.6    3.249      71.215
2015    5       12    21   9    4.9219   660.7    3.244      71.156
2015    5       12    21  15    4.9167   660.8    3.239      71.102
2015    5       12    21  20    4.9115   660.9    3.234      71.054
2015    5       12    21  26    4.9064   661.0    3.229      71.013
2015    5       12    21  32    4.9014   661.1    3.224      70.984
2015    5       12    21  38    4.8964   661.3    3.220      70.963
2015    5       12    21  44    4.8914   661.6    3.215      70.947
2015    5       12    21  49    4.8864   661.8    3.211      70.932
2015    5       12    21  55    4.8814   662.0    3.206      70.916
2015    5       12    22   1    4.8763   662.2    3.201      70.895
2015    5       12    22   7    4.8712   662.5    3.197      70.868
2015    5       12    22  12    4.8659   662.6    3.192      70.835
2015    5       12    22  18    4.8606   662.8    3.187      70.799
2015    5       12    22  24    4.8553   663.0    3.182      70.759
2015    5       12    22  30    4.8499   663.2    3.176      70.716
2015    5       12    22  36    4.8444   663.4    3.171      70.671
2015    5       12    22  41    4.8389   663.6    3.165      70.625
2015    5       12    22  47    4.8333   663.8    3.160      70.578
2015    5       12    22  53    4.8276   664.0    3.154      70.532
2015    5       12    22  59    4.8219   664.2    3.148      70.484
2015    5       12    23   5    4.8161   664.4    3.142      70.435
2015    5       12    23  10    4.8102   664.6    3.136      70.384
2015    5       12    23  16    4.8044   664.8    3.130      70.330
2015    5       12    23  22    4.7985   665.0    3.124      70.272
2015    5       12    23  28    4.7926   665.1    3.118      70.213
2015    5       12    23  33    4.7868   665.2    3.113      70.154
2015    5       12    23  39    4.7811   665.4    3.107      70.094
2015    5       12    23  45    4.7754   665.5    3.102      70.034
2015    5       12    23  51    4.7697   665.6    3.096      69.974
2015    5       12    23  57    4.7641   665.7    3.091      69.916
2015    5       13     0   2    4.7586   665.8    3.086      69.861
2015    5       13     0   8    4.7530   665.9    3.081      69.809
2015    5       13     0  14    4.7475   666.1    3.075      69.758
2015    5       13     0  20    4.7420   666.2    3.070      69.709
2015    5       13     0  26    4.7366   666.4    3.065      69.660
2015    5       13     0  31    4.7312   666.5    3.060      69.610
2015    5       13     0  37    4.7257   666.6    3.055      69.557
2015    5       13     0  43    4.7204   666.8    3.050      69.503
2015    5       13     0  49    4.7149   666.9    3.045      69.448
2015    5       13     0  54    4.7096   667.0    3.040      69.392
2015    5       13     1   0    4.7041   667.2    3.035      69.335
2015    5       13     1   6    4.6987   667.3    3.030      69.277
2015    5       13     1  12    4.6934   667.4    3.025      69.219
2015    5       13     1  18    4.6880   667.5    3.020      69.159
2015    5       13     1  23    4.6828   667.6    3.015      69.097
2015    5       13     1  29    4.6776   667.6    3.010      69.037
2015    5       13     1  35    4.6724   667.7    3.005      68.976
2015    5       13     1  41    4.6672   667.8    3.000      68.916
2015    5       13     1  47    4.6621   667.9    2.996      68.857
2015    5       13     1  52    4.6571   668.0    2.991      68.800
2015    5       13     1  58    4.6521   668.0    2.987      68.744
2015    5       13     2   4    4.6471   668.1    2.982      68.689
2015    5       13     2  10    4.6421   668.2    2.978      68.636
2015    5       13     2  15    4.6372   668.3    2.974      68.584
2015    5       13     2  21    4.6323   668.4    2.970      68.533
2015    5       13     2  27    4.6274   668.5    2.966      68.482
2015    5       13     2  33    4.6224   668.6    2.962      68.430
2015    5       13     2  39    4.6175   668.6    2.958      68.378
2015    5       13     2  44    4.6126   668.7    2.954      68.325
2015    5       13     2  50    4.6077   668.8    2.950      68.271
2015    5       13     2  56    4.6028   668.8    2.946      68.217
2015    5       13     3   2    4.5979   668.9    2.943      68.161
2015    5       13     3   8    4.5930   668.9    2.939      68.105
2015    5       13     3  13    4.5882   669.0    2.935      68.048
2015    5       13     3  19    4.5834   669.0    2.932      67.991
2015    5       13     3  25    4.5786   669.1    2.928      67.933
2015    5       13     3  31    4.5738   669.1    2.925      67.875
2015    5       13     3  36    4.5690   669.1    2.921      67.817
2015    5       13     3  42    4.5643   669.1    2.918      67.758
2015    5       13     3  48    4.5596   669.1    2.915      67.700
2015    5       13     3  54    4.5549   669.1    2.912      67.642
2015    5       13     4   0    4.5503   669.1    2.909      67.585
2015    5       13     4   5    4.5457   669.1    2.906      67.530
2015    5       13     4  11    4.5412   669.1    2.903      67.474
2015    5       13     4  17    4.5366   669.1    2.901      67.421
2015    5       13     4  23    4.5321   669.1    2.899      67.371
2015    5       13     4  29    4.5276   669.1    2.897      67.322
2015    5       13     4  34    4.5232   669.0    2.894      67.275
2015    5       13     4  40    4.5187   669.0    2.892      67.228
2015    5       13     4  46    4.5143   669.1    2.890      67.183
2015    5       13     4  52    4.5099   669.1    2.888      67.137
2015    5       13     4  57    4.5055   669.1    2.886      67.091
2015    5       13     5   3    4.5011   669.1    2.883      67.043
2015    5       13     5   9    4.4966   669.1    2.881      66.994
2015    5       13     5  15    4.4922   669.1    2.878      66.944
2015    5       13     5  21    4.4878   669.1    2.876      66.893
2015    5       13     5  26    4.4833   669.2    2.873      66.841
2015    5       13     5  32    4.4788   669.2    2.870      66.787
2015    5       13     5  38    4.4743   669.2    2.867      66.733
2015    5       13     5  44    4.4698   669.2    2.865      66.678
2015    5       13     5  50    4.4653   669.2    2.862      66.622
2015    5       13     5  55    4.4608   669.2    2.859      66.566
2015    5       13     6   1    4.4563   669.2    2.856      66.510
2015    5       13     6   7    4.4519   669.3    2.853      66.454
2015    5       13     6  13    4.4474   669.3    2.850      66.397
2015    5       13     6  18    4.4429   669.3    2.847      66.341
2015    5       13     6  24    4.4385   669.3    2.844      66.284
2015    5       13     6  30    4.4340   669.3    2.841      66.227
2015    5       13     6  36    4.4296   669.3    2.838      66.171
2015    5       13     6  42    4.4252   669.3    2.835      66.114
2015    5       13     6  47    4.4209   669.3    2.832      66.058
2015    5       13     6  53    4.4165   669.3    2.829      66.002
2015    5       13     6  59    4.4122   669.3    2.827      65.947
2015    5       13     7   5    4.4079   669.3    2.824      65.892
2015    5       13     7  11    4.4036   669.3    2.821      65.838
2015    5       13     7  16    4.3994   669.3    2.818      65.784
2015    5       13     7  22    4.3951   669.3    2.815      65.731
2015    5       13     7  28    4.3909   669.3    2.813      65.679
2015    5       13     7  34    4.3868   669.3    2.810      65.628
2015    5       13     7  39    4.3826   669.3    2.808      65.577
2015    5       13     7  45    4.3785   669.3    2.805      65.527
2015    5       13     7  51    4.3744   669.3    2.803      65.478
2015    5       13     7  57    4.3703   669.2    2.800      65.430
2015    5       13     8   3    4.3663   669.2    2.798      65.383
2015    5       13     8   8    4.3623   669.2    2.796      65.337
2015    5       13     8  14    4.3584   669.2    2.794      65.292
2015    5       13     8  20    4.3545   669.2    2.791      65.248
2015    5       13     8  26    4.3506   669.1    2.789      65.204
2015    5       13     8  32    4.3468   669.1    2.787      65.161
2015    5       13     8  37    4.3430   669.1    2.786      65.119
2015    5       13     8  43    4.3392   669.1    2.784      65.078
2015    5       13     8  49    4.3355   669.0    2.782      65.038
2015    5       13     8  55    4.3318   669.0    2.780      64.999
2015    5       13     9   0    4.3281   669.0    2.779      64.960
2015    5       13     9   6    4.3245   669.0    2.777      64.922
2015    5       13     9  12    4.3209   668.9    2.776      64.884
2015    5       13     9  18    4.3174   668.9    2.774      64.847
2015    5       13     9  24    4.3138   668.9    2.773      64.811
2015    5       13     9  29    4.3103   668.8    2.772      64.776
2015    5       13     9  35    4.3068   668.8    2.771      64.742
2015    5       13     9  41    4.3034   668.8    2.770      64.707
2015    5       13     9  47    4.2999   668.7    2.769      64.674
2015    5       13     9  53    4.2964   668.7    2.768      64.641
2015    5       13     9  58    4.2930   668.7    2.767      64.608
2015    5       13    10   4    4.2895   668.6    2.766      64.576
2015    5       13    10  10    4.2860   668.6    2.765      64.544
2015    5       13    10  16    4.2825   668.6    2.764      64.512
2015    5       13    10  21    4.2789   668.5    2.763      64.480
2015    5       13    10  27    4.2754   668.5    2.762      64.448
2015    5       13    10  33    4.2718   668.5    2.762      64.416
2015    5       13    10  39    4.2682   668.4    2.761      64.383
2015    5       13    10  45    4.2646   668.4    2.760      64.350
2015    5       13    10  50    4.2610   668.4    2.759      64.315
2015    5       13    10  56    4.2574   668.3    2.758      64.279
2015    5       13    11   2    4.2537   668.3    2.757      64.242
2015    5       13    11   8    4.2501   668.3    2.756      64.204
2015    5       13    11  14    4.2464   668.2    2.755      64.165
2015    5       13    11  19    4.2428   668.2    2.754      64.125
2015    5       13    11  25    4.2391   668.1    2.753      64.084
2015    5       13    11  31    4.2355   668.1    2.752      64.042
2015    5       13    11  37    4.2318   668.0    2.750      63.999
2015    5       13    11  42    4.2282   668.0    2.749      63.956
2015    5       13    11  48    4.2246   667.9    2.748      63.911
2015    5       13    11  54    4.2210   667.8    2.746      63.866
2015    5       13    12   0    4.2174   667.8    2.745      63.821
2015    5       13    12   6    4.2138   667.7    2.743      63.775
2015    5       13    12  11    4.2102   667.7    2.742      63.728
2015    5       13    12  17    4.2066   667.6    2.740      63.681
2015    5       13    12  23    4.2030   667.5    2.739      63.634
2015    5       13    12  29    4.1995   667.5    2.737      63.586
2015    5       13    12  35    4.1960   667.4    2.736      63.538
2015    5       13    12  40    4.1925   667.3    2.734      63.489
2015    5       13    12  46    4.1889   667.3    2.733      63.440
2015    5       13    12  52    4.1855   667.2    2.731      63.391
2015    5       13    12  58    4.1820   667.1    2.729      63.341
2015    5       13    13   3    4.1785   667.0    2.727      63.291
2015    5       13    13   9    4.1751   667.0    2.726      63.240
2015    5       13    13  15    4.1717   666.9    2.724      63.189
2015    5       13    13  21    4.1683   666.8    2.722      63.137
2015    5       13    13  27    4.1649   666.7    2.720      63.086
2015    5       13    13  32    4.1616   666.7    2.718      63.033
2015    5       13    13  38    4.1583   666.6    2.717      62.981
2015    5       13    13  44    4.1550   666.5    2.715      62.928
2015    5       13    13  50    4.1517   666.4    2.713      62.875
2015    5       13    13  56    4.1485   666.3    2.711      62.821
2015    5       13    14   1    4.1453   666.2    2.709      62.768
2015    5       13    14   7    4.1421   666.2    2.707      62.714
2015    5       13    14  13    4.1389   666.1    2.705      62.659
2015    5       13    14  19    4.1358   666.0    2.703      62.605
2015    5       13    14  24    4.1327   665.9    2.701      62.551
2015    5       13    14  30    4.1296   665.8    2.699      62.496
2015    5       13    14  36    4.1266   665.7    2.697      62.442
2015    5       13    14  42    4.1236   665.6    2.696      62.387
2015    5       13    14  48    4.1206   665.5    2.694      62.333
2015    5       13    14  53    4.1177   665.5    2.692      62.279
2015    5       13    14  59    4.1147   665.4    2.690      62.225
2015    5       13    15   5    4.1118   665.3    2.688      62.171
2015    5       13    15  11    4.1090   665.2    2.686      62.117
2015    5       13    15  17    4.1061   665.1    2.685      62.064
2015    5       13    15  22    4.1033   665.0    2.683      62.011
2015    5       13    15  28    4.1005   664.9    2.681      61.959
2015    5       13    15  34    4.0977   664.8    2.679      61.907
2015    5       13    15  40    4.0949   664.7    2.678      61.856
2015    5       13    15  46    4.0922   664.6    2.676      61.805
2015    5       13    15  51    4.0895   664.5    2.675      61.754
2015    5       13    15  57    4.0868   664.4    2.673      61.705
2015    5       13    16   3    4.0841   664.3    2.672      61.655
2015    5       13    16   9    4.0815   664.1    2.671      61.607
2015    5       13    16  14    4.0789   664.0    2.669      61.560
2015    5       13    16  20    4.0762   663.9    2.668      61.513
2015    5       13    16  26    4.0737   663.8    2.667      61.467
2015    5       13    16  32    4.0711   663.7    2.666      61.422
2015    5       13    16  38    4.0686   663.6    2.665      61.378
2015    5       13    16  43    4.0660   663.5    2.664      61.336
2015    5       13    16  49    4.0635   663.4    2.663      61.294
2015    5       13    16  55    4.0610   663.3    2.662      61.253
2015    5       13    17   1    4.0585   663.2    2.662      61.214
2015    5       13    17   7    4.0560   663.1    2.661      61.175
2015    5       13    17  12    4.0536   663.0    2.660      61.138
2015    5       13    17  18    4.0511   662.9    2.660      61.102
2015    5       13    17  24    4.0485   662.8    2.660      61.067
2015    5       13    17  30    4.0460   662.7    2.659      61.033
2015    5       13    17  35    4.0434   662.6    2.659      60.999
2015    5       13    17  41    4.0407   662.5    2.659      60.967
2015    5       13    17  47    4.0381   662.4    2.659      60.934
2015    5       13    17  53    4.0354   662.3    2.659      60.902
2015    5       13    17  59    4.0326   662.2    2.659      60.870
2015    5       13    18   4    4.0299   662.1    2.659      60.837
2015    5       13    18  10    4.0271   662.0    2.659      60.803
2015    5       13    18  16    4.0243   661.9    2.658      60.770
2015    5       13    18  22    4.0215   661.8    2.658      60.735
2015    5       13    18  28    4.0187   661.7    2.658      60.700
2015    5       13    18  33    4.0158   661.6    2.658      60.666
2015    5       13    18  39    4.0129   661.5    2.658      60.630
2015    5       13    18  45    4.0101   661.4    2.658      60.595
2015    5       13    18  51    4.0072   661.3    2.658      60.559
2015    5       13    18  56    4.0043   661.1    2.657      60.523
2015    5       13    19   2    4.0015   661.0    2.657      60.487
2015    5       13    19   8    3.9986   660.9    2.657      60.452
2015    5       13    19  14    3.9957   660.8    2.657      60.416
2015    5       13    19  20    3.9928   660.7    2.657      60.380
2015    5       13    19  25    3.9900   660.5    2.657      60.345
2015    5       13    19  31    3.9871   660.4    2.657      60.310
2015    5       13    19  37    3.9843   660.3    2.657      60.275
2015    5       13    19  43    3.9815   660.2    2.657      60.240
2015    5       13    19  49    3.9787   660.0    2.657      60.206
2015    5       13    19  54    3.9759   659.9    2.657      60.172
2015    5       13    20   0    3.9731   659.8    2.657      60.138
2015    5       13    20   6    3.9704   659.6    2.657      60.104
2015    5       13    20  12    3.9676   659.5    2.657      60.071
2015    5       13    20  17    3.9649   659.4    2.657      60.037
2015    5       13    20  23    3.9623   659.2    2.657      60.004
2015    5       13    20  29    3.9596   659.1    2.657      59.970
2015    5       13    20  35    3.9570   659.0    2.657      59.936
2015    5       13    20  41    3.9544   658.8    2.657      59.903
2015    5       13    20  46    3.9518   658.7    2.657      59.869
2015    5       13    20  52    3.9492   658.6    2.657      59.835
2015    5       13    20  58    3.9467   658.4    2.657      59.801
2015    5       13    21   4    3.9442   658.3    2.657      59.766
2015    5       13    21  10    3.9418   658.1    2.657      59.731
2015    5       13    21  15    3.9394   658.0    2.657      59.695
2015    5       13    21  21    3.9370   657.9    2.656      59.658
2015    5       13    21  27    3.9346   657.7    2.656      59.620
2015    5       13    21  33    3.9323   657.6    2.656      59.582
2015    5       13    21  38    3.9300   657.5    2.655      59.543
2015    5       13    21  44    3.9277   657.3    2.655      59.503
2015    5       13    21  50    3.9255   657.2    2.654      59.463
2015    5       13    21  56    3.9233   657.0    2.654      59.423
2015    5       13    22   2    3.9211   656.9    2.653      59.382
2015    5       13    22   7    3.9189   656.8    2.653      59.340
2015    5       13    22  13    3.9167   656.6    2.652      59.298
2015    5       13    22  19    3.9146   656.5    2.651      59.255
2015    5       13    22  25    3.9124   656.3    2.651      59.212
2015    5       13    22  31    3.9103   656.2    2.650      59.169
2015    5       13    22  36    3.9081   656.1    2.649      59.125
2015    5       13    22  42    3.9060   655.9    2.648      59.081
2015    5       13    22  48    3.9039   655.8    2.647      59.036
2015    5       13    22  54    3.9018   655.6    2.646      58.991
2015    5       13    22  59    3.8997   655.5    2.645      58.945
2015    5       13    23   5    3.8976   655.3    2.644      58.899
2015    5       13    23  11    3.8955   655.2    2.643      58.853
2015    5       13    23  17    3.8934   655.1    2.642      58.806
2015    5       13    23  23    3.8913   654.9    2.641      58.759
2015    5       13    23  28    3.8892   654.8    2.640      58.711
2015    5       13    23  34    3.8871   654.6    2.639      58.663
2015    5       13    23  40    3.8851   654.5    2.638      58.615
2015    5       13    23  46    3.8830   654.3    2.637      58.566
2015    5       13    23  52    3.8809   654.2    2.635      58.518
2015    5       13    23  57    3.8788   654.0    2.634      58.469
2015    5       14     0   3    3.8767   653.9    2.633      58.420
2015    5       14     0   9    3.8745   653.7    2.632      58.370
2015    5       14     0  15    3.8724   653.5    2.631      58.321
2015    5       14     0  20    3.8703   653.4    2.630      58.272
2015    5       14     0  26    3.8682   653.2    2.629      58.222
2015    5       14     0  32    3.8660   653.1    2.627      58.173
2015    5       14     0  38    3.8639   652.9    2.626      58.123
2015    5       14     0  44    3.8617   652.8    2.625      58.074
2015    5       14     0  49    3.8595   652.6    2.624      58.024
2015    5       14     0  55    3.8573   652.5    2.623      57.974
2015    5       14     1   1    3.8551   652.3    2.622      57.925
2015    5       14     1   7    3.8528   652.1    2.621      57.875
2015    5       14     1  13    3.8506   652.0    2.620      57.825
2015    5       14     1  18    3.8483   651.8    2.619      57.775
2015    5       14     1  24    3.8461   651.7    2.618      57.725
2015    5       14     1  30    3.8438   651.5    2.617      57.675
2015    5       14     1  36    3.8415   651.4    2.616      57.625
2015    5       14     1  41    3.8392   651.2    2.615      57.574
2015    5       14     1  47    3.8369   651.0    2.614      57.524
2015    5       14     1  53    3.8346   650.9    2.613      57.474
2015    5       14     1  59    3.8323   650.7    2.612      57.423
2015    5       14     2   5    3.8300   650.5    2.612      57.373
2015    5       14     2  10    3.8277   650.4    2.611      57.322
2015    5       14     2  16    3.8254   650.2    2.610      57.272
2015    5       14     2  22    3.8231   650.0    2.609      57.222
2015    5       14     2  28    3.8208   649.9    2.609      57.172
2015    5       14     2  34    3.8185   649.7    2.608      57.122
2015    5       14     2  39    3.8162   649.5    2.607      57.073
2015    5       14     2  45    3.8139   649.3    2.607      57.025
2015    5       14     2  51    3.8116   649.2    2.607      56.977
2015    5       14     2  57    3.8094   649.0    2.606      56.930
2015    5       14     3   2    3.8071   648.8    2.606      56.884
2015    5       14     3   8    3.8049   648.6    2.606      56.839
2015    5       14     3  14    3.8027   648.4    2.606      56.795
2015    5       14     3  20    3.8005   648.3    2.606      56.752
2015    5       14     3  26    3.7983   648.1    2.606      56.710
2015    5       14     3  31    3.7961   647.9    2.606      56.669
2015    5       14     3  37    3.7940   647.7    2.606      56.629
2015    5       14     3  43    3.7919   647.5    2.607      56.591
2015    5       14     3  49    3.7898   647.3    2.607      56.553
2015    5       14     3  55    3.7878   647.2    2.608      56.517
2015    5       14     4   0    3.7857   647.0    2.609      56.481
2015    5       14     4   6    3.7837   646.8    2.609      56.447
2015    5       14     4  12    3.7818   646.6    2.610      56.413
2015    5       14     4  18    3.7798   646.4    2.611      56.381
2015    5       14     4  23    3.7779   646.2    2.612      56.349
2015    5       14     4  29    3.7759   646.0    2.613      56.318
2015    5       14     4  35    3.7741   645.8    2.614      56.287
2015    5       14     4  41    3.7722   645.7    2.615      56.256
2015    5       14     4  47    3.7704   645.5    2.616      56.225
2015    5       14     4  52    3.7685   645.3    2.617      56.194
2015    5       14     4  58    3.7667   645.1    2.618      56.163
2015    5       14     5   4    3.7649   644.9    2.619      56.131
2015    5       14     5  10    3.7631   644.7    2.620      56.100
2015    5       14     5  16    3.7613   644.5    2.621      56.068
2015    5       14     5  21    3.7595   644.3    2.622      56.036
2015    5       14     5  27    3.7578   644.1    2.622      56.005
2015    5       14     5  33    3.7560   643.9    2.623      55.972
2015    5       14     5  39    3.7542   643.8    2.624      55.940
2015    5       14     5  44    3.7524   643.6    2.625      55.907
2015    5       14     5  50    3.7506   643.4    2.626      55.875
2015    5       14     5  56    3.7488   643.2    2.626      55.841
2015    5       14     6   2    3.7470   643.0    2.627      55.808
2015    5       14     6   8    3.7451   642.8    2.627      55.774
2015    5       14     6  13    3.7433   642.6    2.628      55.740
2015    5       14     6  19    3.7414   642.4    2.628      55.706
2015    5       14     6  25    3.7396   642.2    2.629      55.672
2015    5       14     6  31    3.7377   642.0    2.629      55.637
2015    5       14     6  37    3.7358   641.8    2.629      55.602
2015    5       14     6  42    3.7339   641.6    2.630      55.566
2015    5       14     6  48    3.7320   641.4    2.630      55.530
2015    5       14     6  54    3.7300   641.2    2.630      55.494
2015    5       14     7   0    3.7281   641.0    2.630      55.457
2015    5       14     7   5    3.7262   640.8    2.630      55.420
2015    5       14     7  11    3.7242   640.6    2.630      55.382
2015    5       14     7  17    3.7222   640.4    2.630      55.343
2015    5       14     7  23    3.7202   640.2    2.630      55.304
2015    5       14     7  29    3.7182   640.0    2.630      55.264
2015    5       14     7  34    3.7163   639.8    2.629      55.223
2015    5       14     7  40    3.7142   639.6    2.629      55.182
2015    5       14     7  46    3.7123   639.4    2.629      55.140
2015    5       14     7  52    3.7102   639.2    2.629      55.097
2015    5       14     7  58    3.7082   639.0    2.628      55.054
2015    5       14     8   3    3.7062   638.8    2.628      55.010
2015    5       14     8   9    3.7042   638.6    2.628      54.965
2015    5       14     8  15    3.7022   638.4    2.627      54.920
2015    5       14     8  21    3.7002   638.2    2.627      54.875
2015    5       14     8  26    3.6982   638.0    2.627      54.829
2015    5       14     8  32    3.6962   637.8    2.626      54.782
2015    5       14     8  38    3.6942   637.6    2.626      54.736
2015    5       14     8  44    3.6922   637.4    2.625      54.689
2015    5       14     8  50    3.6902   637.2    2.625      54.642
2015    5       14     8  55    3.6882   637.0    2.625      54.594
2015    5       14     9   1    3.6862   636.8    2.624      54.547
2015    5       14     9   7    3.6842   636.6    2.624      54.499
2015    5       14     9  13    3.6822   636.4    2.623      54.451
2015    5       14     9  19    3.6802   636.2    2.623      54.402
2015    5       14     9  24    3.6782   636.0    2.622      54.353
2015    5       14     9  30    3.6762   635.8    2.622      54.304
2015    5       14     9  36    3.6742   635.6    2.621      54.255
2015    5       14     9  42    3.6722   635.4    2.621      54.205
2015    5       14     9  47    3.6702   635.2    2.620      54.156
2015    5       14     9  53    3.6682   635.0    2.620      54.105
2015    5       14     9  59    3.6662   634.8    2.619      54.055
2015    5       14    10   5    3.6642   634.5    2.618      54.005
2015    5       14    10  11    3.6622   634.3    2.618      53.954
2015    5       14    10  16    3.6603   634.1    2.617      53.903
2015    5       14    10  22    3.6583   633.9    2.617      53.852
2015    5       14    10  28    3.6564   633.7    2.616      53.801
2015    5       14    10  34    3.6545   633.4    2.616      53.750
2015    5       14    10  40    3.6526   633.2    2.615      53.699
2015    5       14    10  45    3.6507   633.0    2.615      53.648
2015    5       14    10  51    3.6489   632.8    2.614      53.596
2015    5       14    10  57    3.6470   632.5    2.614      53.545
2015    5       14    11   3    3.6452   632.3    2.614      53.494
2015    5       14    11   8    3.6434   632.1    2.613      53.444
2015    5       14    11  14    3.6416   631.8    2.613      53.393
2015    5       14    11  20    3.6399   631.6    2.613      53.343
2015    5       14    11  26    3.6381   631.4    2.613      53.294
2015    5       14    11  32    3.6364   631.1    2.613      53.244
2015    5       14    11  37    3.6346   630.9    2.613      53.195
2015    5       14    11  43    3.6329   630.7    2.613      53.146
2015    5       14    11  49    3.6312   630.4    2.613      53.098
2015    5       14    11  55    3.6295   630.2    2.613      53.050
2015    5       14    12   1    3.6278   629.9    2.614      53.002
2015    5       14    12   6    3.6262   629.7    2.614      52.954
2015    5       14    12  12    3.6245   629.5    2.614      52.907
2015    5       14    12  18    3.6229   629.2    2.615      52.859
2015    5       14    12  24    3.6212   629.0    2.615      52.812
2015    5       14    12  29    3.6195   628.7    2.616      52.765
2015    5       14    12  35    3.6179   628.4    2.616      52.718
2015    5       14    12  41    3.6163   628.2    2.617      52.671
2015    5       14    12  47    3.6146   627.9    2.617      52.624
2015    5       14    12  53    3.6130   627.7    2.618      52.578
2015    5       14    12  58    3.6114   627.4    2.618      52.531
2015    5       14    13   4    3.6098   627.1    2.619      52.486
2015    5       14    13  10    3.6082   626.9    2.620      52.440
2015    5       14    13  16    3.6066   626.6    2.620      52.395
2015    5       14    13  22    3.6050   626.3    2.621      52.350
2015    5       14    13  27    3.6035   626.1    2.622      52.306
2015    5       14    13  33    3.6019   625.8    2.623      52.262
2015    5       14    13  39    3.6003   625.5    2.624      52.219
2015    5       14    13  45    3.5988   625.3    2.625      52.176
2015    5       14    13  50    3.5972   625.0    2.626      52.135
2015    5       14    13  56    3.5957   624.7    2.627      52.093
2015    5       14    14   2    3.5942   624.4    2.628      52.053
2015    5       14    14   8    3.5927   624.2    2.629      52.012
2015    5       14    14  14    3.5911   623.9    2.630      51.973
2015    5       14    14  19    3.5896   623.6    2.631      51.933
2015    5       14    14  25    3.5881   623.4    2.632      51.894
2015    5       14    14  31    3.5866   623.1    2.633      51.854
2015    5       14    14  37    3.5850   622.8    2.634      51.814
2015    5       14    14  43    3.5835   622.6    2.636      51.774
2015    5       14    14  48    3.5820   622.3    2.637      51.734
2015    5       14    14  54    3.5804   622.0    2.638      51.694
2015    5       14    15   0    3.5789   621.8    2.639      51.653
2015    5       14    15   6    3.5773   621.5    2.640      51.611
2015    5       14    15  11    3.5758   621.2    2.641      51.570
2015    5       14    15  17    3.5742   621.0    2.642      51.528
2015    5       14    15  23    3.5726   620.7    2.643      51.485
2015    5       14    15  29    3.5711   620.4    2.644      51.442
2015    5       14    15  35    3.5695   620.1    2.645      51.399
2015    5       14    15  40    3.5680   619.9    2.645      51.356
2015    5       14    15  46    3.5664   619.6    2.646      51.313
2015    5       14    15  52    3.5649   619.3    2.647      51.270
2015    5       14    15  58    3.5634   619.1    2.648      51.228
2015    5       14    16   4    3.5619   618.8    2.649      51.185
2015    5       14    16   9    3.5603   618.5    2.650      51.144
2015    5       14    16  15    3.5588   618.3    2.651      51.102
2015    5       14    16  21    3.5573   618.0    2.652      51.061
2015    5       14    16  27    3.5558   617.7    2.653      51.020
2015    5       14    16  32    3.5543   617.5    2.654      50.980
2015    5       14    16  38    3.5528   617.2    2.656      50.941
2015    5       14    16  44    3.5513   616.9    2.657      50.902
2015    5       14    16  50    3.5499   616.7    2.658      50.864
2015    5       14    16  56    3.5484   616.4    2.659      50.827
2015    5       14    17   1    3.5469   616.1    2.661      50.790
2015    5       14    17   7    3.5455   615.9    2.662      50.753
2015    5       14    17  13    3.5441   615.6    2.663      50.718
2015    5       14    17  19    3.5427   615.3    2.665      50.682
2015    5       14    17  25    3.5413   615.1    2.666      50.648
2015    5       14    17  30    3.5399   614.8    2.667      50.614
2015    5       14    17  36    3.5386   614.5    2.669      50.580
2015    5       14    17  42    3.5372   614.3    2.670      50.546
2015    5       14    17  48    3.5359   614.0    2.672      50.513
2015    5       14    17  53    3.5346   613.7    2.673      50.480
2015    5       14    17  59    3.5332   613.5    2.675      50.447
2015    5       14    18   5    3.5319   613.2    2.677      50.413
2015    5       14    18  11    3.5306   612.9    2.678      50.380
2015    5       14    18  17    3.5293   612.6    2.680      50.346
2015    5       14    18  22    3.5280   612.4    2.681      50.312
2015    5       14    18  28    3.5267   612.1    2.683      50.278
2015    5       14    18  34    3.5254   611.8    2.684      50.243
2015    5       14    18  40    3.5241   611.6    2.685      50.208
2015    5       14    18  46    3.5227   611.3    2.687      50.173
2015    5       14    18  51    3.5214   611.0    2.688      50.138
2015    5       14    18  57    3.5202   610.7    2.690      50.102
2015    5       14    19   3    3.5188   610.4    2.691      50.065
2015    5       14    19   9    3.5176   610.2    2.692      50.028
2015    5       14    19  14    3.5163   609.9    2.693      49.991
2015    5       14    19  20    3.5150   609.6    2.694      49.954
2015    5       14    19  26    3.5137   609.3    2.695      49.916
2015    5       14    19  32    3.5125   609.0    2.696      49.878
2015    5       14    19  38    3.5112   608.7    2.697      49.839
2015    5       14    19  43    3.5100   608.4    2.698      49.800
2015    5       14    19  49    3.5088   608.2    2.699      49.761
2015    5       14    19  55    3.5076   607.9    2.700      49.720
2015    5       14    20   1    3.5063   607.6    2.701      49.679
2015    5       14    20   7    3.5052   607.3    2.702      49.637
2015    5       14    20  12    3.5040   607.0    2.703      49.595
2015    5       14    20  18    3.5029   606.7    2.704      49.552
2015    5       14    20  24    3.5017   606.4    2.705      49.509
2015    5       14    20  30    3.5006   606.1    2.706      49.466
2015    5       14    20  36    3.4995   605.8    2.708      49.422
2015    5       14    20  41    3.4984   605.5    2.709      49.379
2015    5       14    20  47    3.4973   605.2    2.710      49.335
2015    5       14    20  53    3.4963   604.9    2.711      49.291
2015    5       14    20  59    3.4952   604.6    2.712      49.247
2015    5       14    21   4    3.4942   604.3    2.713      49.203
2015    5       14    21  10    3.4932   604.0    2.715      49.159
2015    5       14    21  16    3.4922   603.7    2.716      49.115
2015    5       14    21  22    3.4913   603.5    2.717      49.072
2015    5       14    21  28    3.4903   603.2    2.719      49.028
2015    5       14    21  33    3.4893   602.9    2.720      48.984
2015    5       14    21  39    3.4884   602.6    2.722      48.940
2015    5       14    21  45    3.4874   602.3    2.723      48.896
2015    5       14    21  51    3.4864   602.0    2.724      48.851
2015    5       14    21  57    3.4855   601.7    2.726      48.806
2015    5       14    22   2    3.4845   601.4    2.727      48.761
2015    5       14    22   8    3.4835   601.2    2.729      48.716
2015    5       14    22  14    3.4825   600.9    2.730      48.670
2015    5       14    22  20    3.4815   600.6    2.731      48.624
2015    5       14    22  25    3.4805   600.3    2.733      48.577
2015    5       14    22  31    3.4795   600.0    2.734      48.530
2015    5       14    22  37    3.4785   599.7    2.735      48.483
2015    5       14    22  43    3.4774   599.4    2.736      48.434
2015    5       14    22  49    3.4764   599.1    2.738      48.386
2015    5       14    22  54    3.4754   598.8    2.739      48.338
2015    5       14    23   0    3.4744   598.5    2.740      48.289
2015    5       14    23   6    3.4734   598.2    2.741      48.241
2015    5       14    23  12    3.4724   597.9    2.743      48.193
2015    5       14    23  18    3.4714   597.6    2.744      48.145
2015    5       14    23  23    3.4705   597.3    2.745      48.098
2015    5       14    23  29    3.4695   597.0    2.747      48.051
2015    5       14    23  35    3.4686   596.7    2.748      48.004
2015    5       14    23  41    3.4676   596.4    2.750      47.959
2015    5       14    23  46    3.4667   596.1    2.751      47.914
2015    5       14    23  52    3.4659   595.7    2.753      47.870
2015    5       14    23  58    3.4650   595.4    2.755      47.827
2015    5       15     0   4    3.4641   595.1    2.757      47.785
2015    5       15     0  10    3.4633   594.8    2.759      47.744
2015    5       15     0  15    3.4625   594.5    2.761      47.704
2015    5       15     0  21    3.4617   594.2    2.763      47.666
2015    5       15     0  27    3.4610   593.9    2.765      47.628
2015    5       15     0  33    3.4602   593.6    2.768      47.592
2015    5       15     0  39    3.4595   593.3    2.770      47.557
2015    5       15     0  44    3.4589   593.0    2.773      47.523
2015    5       15     0  50    3.4582   592.7    2.775      47.490
2015    5       15     0  56    3.4576   592.4    2.778      47.458
2015    5       15     1   2    3.4569   592.1    2.781      47.428
2015    5       15     1   7    3.4563   591.8    2.784      47.398
2015    5       15     1  13    3.4558   591.5    2.787      47.369
2015    5       15     1  19    3.4552   591.2    2.790      47.340
2015    5       15     1  25    3.4546   591.0    2.793      47.313
2015    5       15     1  31    3.4540   590.7    2.796      47.286
2015    5       15     1  36    3.4535   590.4    2.799      47.260
2015    5       15     1  42    3.4529   590.1    2.802      47.234
2015    5       15     1  48    3.4524   589.8    2.805      47.209
2015    5       15     1  54    3.4518   589.5    2.809      47.184
2015    5       15     2   0    3.4513   589.2    2.812      47.159
2015    5       15     2   5    3.4508   588.9    2.815      47.135
2015    5       15     2  11    3.4503   588.6    2.818      47.111
2015    5       15     2  17    3.4498   588.4    2.821      47.087
2015    5       15     2  23    3.4493   588.1    2.824      47.063
2015    5       15     2  28    3.4489   587.8    2.827      47.040
2015    5       15     2  34    3.4484   587.5    2.830      47.017
2015    5       15     2  40    3.4480   587.2    2.833      46.995
2015    5       15     2  46    3.4476   586.9    2.836      46.972
2015    5       15     2  52    3.4472   586.7    2.839      46.949
2015    5       15     2  57    3.4468   586.4    2.842      46.926
2015    5       15     3   3    3.4465   586.1    2.845      46.903
2015    5       15     3   9    3.4461   585.8    2.848      46.880
2015    5       15     3  15    3.4458   585.5    2.851      46.855
2015    5       15     3  21    3.4454   585.3    2.854      46.831
2015    5       15     3  26    3.4450   585.0    2.856      46.806
2015    5       15     3  32    3.4447   584.7    2.859      46.780
2015    5       15     3  38    3.4443   584.5    2.862      46.754
2015    5       15     3  44    3.4439   584.2    2.864      46.727
2015    5       15     3  49    3.4436   583.9    2.867      46.700
2015    5       15     3  55    3.4432   583.6    2.870      46.673
2015    5       15     4   1    3.4428   583.4    2.872      46.645
2015    5       15     4   7    3.4424   583.1    2.875      46.616
2015    5       15     4  13    3.4420   582.8    2.877      46.587
2015    5       15     4  18    3.4416   582.6    2.879      46.557
2015    5       15     4  24    3.4412   582.3    2.882      46.527
2015    5       15     4  30    3.4408   582.0    2.884      46.496
2015    5       15     4  36    3.4404   581.8    2.886      46.465
2015    5       15     4  42    3.4400   581.5    2.889      46.434
2015    5       15     4  47    3.4396   581.2    2.891      46.402
2015    5       15     4  53    3.4391   581.0    2.893      46.370
2015    5       15     4  59    3.4387   580.7    2.895      46.337
2015    5       15     5   5    3.4383   580.4    2.897      46.304
2015    5       15     5  10    3.4379   580.2    2.899      46.271
2015    5       15     5  16    3.4374   579.9    2.901      46.237
2015    5       15     5  22    3.4370   579.7    2.903      46.203
2015    5       15     5  28    3.4365   579.4    2.905      46.169
2015    5       15     5  34    3.4361   579.1    2.907      46.134
2015    5       15     5  39    3.4357   578.9    2.909      46.099
2015    5       15     5  45    3.4352   578.6    2.911      46.064
2015    5       15     5  51    3.4348   578.3    2.913      46.028
2015    5       15     5  57    3.4344   578.0    2.915      45.992
2015    5       15     6   3    3.4339   577.8    2.917      45.956
2015    5       15     6   8    3.4335   577.5    2.918      45.920
2015    5       15     6  14    3.4331   577.2    2.920      45.883
2015    5       15     6  20    3.4327   577.0    2.922      45.846
2015    5       15     6  26    3.4322   576.7    2.924      45.809
2015    5       15     6  31    3.4318   576.4    2.926      45.772
2015    5       15     6  37    3.4314   576.1    2.927      45.735
2015    5       15     6  43    3.4310   575.9    2.929      45.697
2015    5       15     6  49    3.4306   575.6    2.931      45.660
2015    5       15     6  55    3.4302   575.3    2.933      45.622
2015    5       15     7   0    3.4298   575.0    2.935      45.585
2015    5       15     7   6    3.4294   574.7    2.937      45.547
2015    5       15     7  12    3.4290   574.4    2.939      45.510
2015    5       15     7  18    3.4287   574.2    2.941      45.473
2015    5       15     7  24    3.4283   573.9    2.943      45.436
2015    5       15     7  29    3.4280   573.6    2.945      45.400
2015    5       15     7  35    3.4277   573.3    2.947      45.364
2015    5       15     7  41    3.4274   573.0    2.949      45.328
2015    5       15     7  47    3.4271   572.7    2.951      45.292
2015    5       15     7  52    3.4268   572.5    2.954      45.257
2015    5       15     7  58    3.4265   572.2    2.956      45.222
2015    5       15     8   4    3.4263   571.9    2.958      45.188
2015    5       15     8  10    3.4261   571.6    2.961      45.154
2015    5       15     8  16    3.4259   571.3    2.963      45.121
2015    5       15     8  21    3.4257   571.0    2.966      45.088
2015    5       15     8  27    3.4255   570.7    2.968      45.055
2015    5       15     8  33    3.4254   570.4    2.971      45.023
2015    5       15     8  39    3.4253   570.2    2.974      44.991
2015    5       15     8  44    3.4251   569.9    2.976      44.959
2015    5       15     8  50    3.4251   569.6    2.979      44.928
2015    5       15     8  56    3.4250   569.3    2.982      44.897
2015    5       15     9   2    3.4249   569.0    2.985      44.867
2015    5       15     9   8    3.4249   568.7    2.987      44.837
2015    5       15     9  13    3.4249   568.4    2.990      44.807
2015    5       15     9  19    3.4249   568.2    2.993      44.778
2015    5       15     9  25    3.4249   567.9    2.996      44.749
2015    5       15     9  31    3.4250   567.6    2.999      44.720
2015    5       15     9  37    3.4250   567.3    3.002      44.691
2015    5       15     9  42    3.4251   567.0    3.005      44.663
2015    5       15     9  48    3.4252   566.8    3.008      44.635
2015    5       15     9  54    3.4253   566.5    3.011      44.607
2015    5       15    10   0    3.4254   566.2    3.014      44.580
2015    5       15    10   5    3.4255   565.9    3.017      44.553
2015    5       15    10  11    3.4256   565.7    3.020      44.526
2015    5       15    10  17    3.4258   565.4    3.023      44.499
2015    5       15    10  23    3.4259   565.1    3.026      44.473
2015    5       15    10  29    3.4261   564.8    3.029      44.447
2015    5       15    10  34    3.4263   564.6    3.032      44.421
2015    5       15    10  40    3.4265   564.3    3.035      44.396
2015    5       15    10  46    3.4267   564.0    3.038      44.370
2015    5       15    10  52    3.4269   563.8    3.041      44.345
2015    5       15    10  58    3.4271   563.5    3.044      44.320
2015    5       15    11   3    3.4273   563.2    3.048      44.296
2015    5       15    11   9    3.4275   563.0    3.051      44.271
2015    5       15    11  15    3.4277   562.7    3.054      44.247
2015    5       15    11  21    3.4279   562.5    3.057      44.223
2015    5       15    11  26    3.4282   562.2    3.060      44.199
2015    5       15    11  32    3.4284   561.9    3.063      44.175
2015    5       15    11  38    3.4286   561.7    3.066      44.152
2015    5       15    11  44    3.4288   561.4    3.070      44.128
2015    5       15    11  50    3.4290   561.2    3.073      44.105
2015    5       15    11  55    3.4292   560.9    3.076      44.081
2015    5       15    12   1    3.4294   560.7    3.079      44.058
2015    5       15    12   7    3.4295   560.4    3.082      44.035
2015    5       15    12  13    3.4297   560.2    3.085      44.011
2015    5       15    12  19    3.4299   559.9    3.088      43.988
2015    5       15    12  24    3.4301   559.6    3.091      43.965
2015    5       15    12  30    3.4302   559.4    3.094      43.941
2015    5       15    12  36    3.4304   559.1    3.097      43.918
2015    5       15    12  42    3.4305   558.9    3.100      43.895
2015    5       15    12  47    3.4307   558.6    3.103      43.871
2015    5       15    12  53    3.4308   558.4    3.105      43.848
2015    5       15    12  59    3.4310   558.1    3.108      43.825
2015    5       15    13   5    3.4312   557.9    3.111      43.801
2015    5       15    13  11    3.4313   557.6    3.114      43.778
2015    5       15    13  16    3.4315   557.4    3.116      43.754
2015    5       15    13  22    3.4316   557.1    3.119      43.730
2015    5       15    13  28    3.4318   556.8    3.122      43.707
2015    5       15    13  34    3.4320   556.6    3.124      43.683
2015    5       15    13  40    3.4322   556.3    3.127      43.660
2015    5       15    13  45    3.4323   556.1    3.130      43.636
2015    5       15    13  51    3.4325   555.8    3.132      43.612
2015    5       15    13  57    3.4327   555.6    3.135      43.588
2015    5       15    14   3    3.4329   555.3    3.138      43.565
2015    5       15    14   8    3.4331   555.1    3.140      43.541
2015    5       15    14  14    3.4333   554.8    3.143      43.517
2015    5       15    14  20    3.4335   554.6    3.145      43.493
2015    5       15    14  26    3.4337   554.4    3.148      43.469
2015    5       15    14  32    3.4339   554.1    3.151      43.444
2015    5       15    14  37    3.4341   553.9    3.153      43.420
2015    5       15    14  43    3.4343   553.6    3.156      43.396
2015    5       15    14  49    3.4345   553.4    3.158      43.371
2015    5       15    14  55    3.4347   553.1    3.161      43.346
2015    5       15    15   1    3.4349   552.9    3.164      43.321
2015    5       15    15   6    3.4351   552.6    3.166      43.296
2015    5       15    15  12    3.4353   552.4    3.169      43.271
2015    5       15    15  18    3.4355   552.2    3.171      43.245
2015    5       15    15  24    3.4357   551.9    3.174      43.219
2015    5       15    15  29    3.4359   551.7    3.176      43.194
2015    5       15    15  35    3.4361   551.4    3.179      43.168
2015    5       15    15  41    3.4363   551.2    3.181      43.142
2015    5       15    15  47    3.4364   550.9    3.184      43.115
2015    5       15    15  53    3.4366   550.7    3.187      43.089
2015    5       15    15  58    3.4368   550.5    3.189      43.062
2015    5       15    16   4    3.4370   550.2    3.192      43.036
2015    5       15    16  10    3.4371   550.0    3.194      43.009
2015    5       15    16  16    3.4373   549.7    3.197      42.982
2015    5       15    16  22    3.4375   549.5    3.199      42.956
2015    5       15    16  27    3.4377   549.2    3.202      42.929
2015    5       15    16  33    3.4378   549.0    3.205      42.902
2015    5       15    16  39    3.4380   548.8    3.207      42.876
2015    5       15    16  45    3.4381   548.5    3.210      42.849
2015    5       15    16  50    3.4383   548.3    3.212      42.822
2015    5       15    16  56    3.4385   548.0    3.215      42.796
2015    5       15    17   2    3.4386   547.8    3.218      42.770
2015    5       15    17   8    3.4388   547.5    3.221      42.744
2015    5       15    17  14    3.4389   547.3    3.223      42.718
2015    5       15    17  19    3.4391   547.1    3.226      42.692
2015    5       15    17  25    3.4393   546.8    3.229      42.666
2015    5       15    17  31    3.4394   546.6    3.232      42.641
2015    5       15    17  37    3.4396   546.3    3.234      42.616
2015    5       15    17  43    3.4398   546.1    3.237      42.591
2015    5       15    17  48    3.4400   545.8    3.240      42.567
2015    5       15    17  54    3.4402   545.6    3.243      42.543
2015    5       15    18   0    3.4404   545.4    3.246      42.519
2015    5       15    18   6    3.4406   545.1    3.249      42.496
2015    5       15    18  11    3.4408   544.9    3.252      42.473
2015    5       15    18  17    3.4410   544.6    3.256      42.450
2015    5       15    18  23    3.4412   544.4    3.259      42.428
2015    5       15    18  29    3.4414   544.1    3.262      42.406
2015    5       15    18  35    3.4417   543.9    3.265      42.384
2015    5       15    18  40    3.4419   543.7    3.268      42.363
2015    5       15    18  46    3.4421   543.4    3.272      42.342
2015    5       15    18  52    3.4424   543.2    3.275      42.322
2015    5       15    18  58    3.4426   542.9    3.278      42.301
2015    5       15    19   4    3.4429   542.7    3.282      42.281
2015    5       15    19   9    3.4432   542.4    3.285      42.261
2015    5       15    19  15    3.4434   542.2    3.289      42.241
2015    5       15    19  21    3.4437   542.0    3.292      42.222
2015    5       15    19  27    3.4439   541.7    3.295      42.202
2015    5       15    19  32    3.4442   541.5    3.299      42.182
2015    5       15    19  38    3.4444   541.3    3.302      42.163
2015    5       15    19  44    3.4447   541.0    3.305      42.144
2015    5       15    19  50    3.4449   540.8    3.309      42.124
2015    5       15    19  56    3.4452   540.5    3.312      42.105
2015    5       15    20   1    3.4454   540.3    3.315      42.086
2015    5       15    20   7    3.4457   540.1    3.318      42.066
2015    5       15    20  13    3.4459   539.8    3.322      42.047
2015    5       15    20  19    3.4461   539.6    3.325      42.027
2015    5       15    20  25    3.4464   539.4    3.328      42.008
2015    5       15    20  30    3.4466   539.1    3.331      41.989
2015    5       15    20  36    3.4469   538.9    3.334      41.969
2015    5       15    20  42    3.4471   538.6    3.337      41.950
2015    5       15    20  48    3.4474   538.4    3.340      41.931
2015    5       15    20  53    3.4477   538.2    3.344      41.911
2015    5       15    20  59    3.4479   537.9    3.347      41.892
2015    5       15    21   5    3.4482   537.7    3.350      41.873
2015    5       15    21  11    3.4485   537.5    3.353      41.853
2015    5       15    21  17    3.4487   537.3    3.355      41.834
2015    5       15    21  22    3.4490   537.0    3.358      41.814
2015    5       15    21  28    3.4493   536.8    3.361      41.794
2015    5       15    21  34    3.4496   536.6    3.364      41.775
2015    5       15    21  40    3.4499   536.3    3.367      41.755
2015    5       15    21  45    3.4502   536.1    3.370      41.736
2015    5       15    21  51    3.4505   535.9    3.373      41.716
2015    5       15    21  57    3.4508   535.7    3.376      41.696
2015    5       15    22   3    3.4510   535.4    3.378      41.676
2015    5       15    22   9    3.4513   535.2    3.381      41.656
2015    5       15    22  14    3.4516   535.0    3.384      41.636
2015    5       15    22  20    3.4519   534.8    3.387      41.616
2015    5       15    22  26    3.4522   534.5    3.389      41.596
2015    5       15    22  32    3.4524   534.3    3.392      41.575
2015    5       15    22  38    3.4527   534.1    3.395      41.555
2015    5       15    22  43    3.4530   533.9    3.397      41.535
2015    5       15    22  49    3.4533   533.6    3.400      41.514
2015    5       15    22  55    3.4536   533.4    3.403      41.493
2015    5       15    23   1    3.4538   533.2    3.405      41.473
2015    5       15    23   6    3.4541   533.0    3.408      41.452
2015    5       15    23  12    3.4544   532.8    3.411      41.431
2015    5       15    23  18    3.4546   532.5    3.413      41.410
2015    5       15    23  24    3.4549   532.3    3.416      41.390
2015    5       15    23  30    3.4552   532.1    3.419      41.369
2015    5       15    23  35    3.4554   531.9    3.421      41.348
2015    5       15    23  41    3.4557   531.7    3.424      41.327
2015    5       15    23  47    3.4559   531.4    3.426      41.306
2015    5       15    23  53    3.4562   531.2    3.429      41.285
2015    5       15    23  59    3.4564   531.0    3.432      41.264
2015    5       16     0   4    3.4567   530.8    3.434      41.243
2015    5       16     0  10    3.4569   530.5    3.437      41.222
2015    5       16     0  16    3.4572   530.3    3.440      41.201
2015    5       16     0  22    3.4574   530.1    3.442      41.180
2015    5       16     0  27    3.4577   529.9    3.445      41.159
2015    5       16     0  33    3.4579   529.7    3.448      41.138
2015    5       16     0  39    3.4581   529.4    3.450      41.117
2015    5       16     0  45    3.4584   529.2    3.453      41.096
2015    5       16     0  51    3.4586   529.0    3.456      41.075
2015    5       16     0  56    3.4589   528.8    3.459      41.054
2015    5       16     1   2    3.4591   528.6    3.461      41.033
2015    5       16     1   8    3.4593   528.3    3.464      41.012
2015    5       16     1  14    3.4596   528.1    3.467      40.991
2015    5       16     1  20    3.4598   527.9    3.469      40.970
2015    5       16     1  25    3.4601   527.7    3.472      40.949
2015    5       16     1  31    3.4603   527.4    3.475      40.928
2015    5       16     1  37    3.4605   527.2    3.478      40.907
2015    5       16     1  43    3.4608   527.0    3.480      40.886
2015    5       16     1  48    3.4610   526.8    3.483      40.864
2015    5       16     1  54    3.4612   526.6    3.486      40.843
2015    5       16     2   0    3.4614   526.3    3.488      40.821
2015    5       16     2   6    3.4617   526.1    3.491      40.800
2015    5       16     2  12    3.4619   525.9    3.494      40.778
2015    5       16     2  17    3.4621   525.7    3.496      40.756
2015    5       16     2  23    3.4623   525.5    3.499      40.734
2015    5       16     2  29    3.4625   525.2    3.502      40.712
2015    5       16     2  35    3.4627   525.0    3.504      40.690
2015    5       16     2  40    3.4629   524.8    3.507      40.668
2015    5       16     2  46    3.4631   524.6    3.509      40.645
2015    5       16     2  52    3.4633   524.3    3.512      40.622
2015    5       16     2  58    3.4635   524.1    3.514      40.600
2015    5       16     3   4    3.4637   523.9    3.517      40.577
2015    5       16     3   9    3.4639   523.7    3.519      40.553
2015    5       16     3  15    3.4641   523.4    3.522      40.530
2015    5       16     3  21    3.4643   523.2    3.524      40.507
2015    5       16     3  27    3.4645   523.0    3.527      40.483
2015    5       16     3  33    3.4647   522.8    3.529      40.459
2015    5       16     3  38    3.4649   522.6    3.532      40.436
2015    5       16     3  44    3.4651   522.3    3.534      40.412
2015    5       16     3  50    3.4653   522.1    3.536      40.388
2015    5       16     3  56    3.4655   521.9    3.539      40.364
2015    5       16     4   1    3.4657   521.7    3.541      40.340
2015    5       16     4   7    3.4659   521.4    3.544      40.315
2015    5       16     4  13    3.4661   521.2    3.546      40.291
2015    5       16     4  19    3.4663   521.0    3.549      40.267
2015    5       16     4  25    3.4665   520.8    3.551      40.243
2015    5       16     4  30    3.4667   520.5    3.554      40.219
2015    5       16     4  36    3.4669   520.3    3.556      40.194
2015    5       16     4  42    3.4671   520.1    3.558      40.170
2015    5       16     4  48    3.4673   519.9    3.561      40.146
2015    5       16     4  54    3.4675   519.6    3.564      40.122
2015    5       16     4  59    3.4677   519.4    3.566      40.098
2015    5       16     5   5    3.4678   519.2    3.569      40.074
2015    5       16     5  11    3.4681   519.0    3.571      40.050
2015    5       16     5  17    3.4683   518.7    3.574      40.027
2015    5       16     5  22    3.4685   518.5    3.576      40.003
2015    5       16     5  28    3.4687   518.3    3.579      39.979
2015    5       16     5  34    3.4689   518.1    3.582      39.956
2015    5       16     5  40    3.4691   517.8    3.584      39.932
2015    5       16     5  46    3.4693   517.6    3.587      39.909
2015    5       16     5  51    3.4695   517.4    3.590      39.885
2015    5       16     5  57    3.4696   517.2    3.593      39.862
2015    5       16     6   3    3.4698   516.9    3.595      39.838
2015    5       16     6   9    3.4700   516.7    3.598      39.815
2015    5       16     6  15    3.4702   516.5    3.601      39.791
2015    5       16     6  20    3.4704   516.3    3.603      39.768
2015    5       16     6  26    3.4706   516.0    3.606      39.745
2015    5       16     6  32    3.4707   515.8    3.609      39.721
2015    5       16     6  38    3.4709   515.6    3.611      39.697
2015    5       16     6  43    3.4711   515.4    3.614      39.674
2015    5       16     6  49    3.4713   515.1    3.617      39.650
2015    5       16     6  55    3.4714   514.9    3.619      39.627
2015    5       16     7   1    3.4716   514.7    3.622      39.603
2015    5       16     7   7    3.4718   514.5    3.625      39.579
2015    5       16     7  12    3.4719   514.2    3.627      39.555
2015    5       16     7  18    3.4721   514.0    3.630      39.531
2015    5       16     7  24    3.4722   513.8    3.632      39.507
2015    5       16     7  30    3.4724   513.6    3.635      39.482
2015    5       16     7  35    3.4725   513.3    3.637      39.458
2015    5       16     7  41    3.4727   513.1    3.640      39.434
2015    5       16     7  47    3.4728   512.9    3.642      39.409
2015    5       16     7  53    3.4730   512.6    3.645      39.385
2015    5       16     7  59    3.4731   512.4    3.647      39.361
2015    5       16     8   4    3.4733   512.2    3.650      39.336
2015    5       16     8  10    3.4734   512.0    3.652      39.312
2015    5       16     8  16    3.4736   511.7    3.655      39.288
2015    5       16     8  22    3.4737   511.5    3.657      39.263
2015    5       16     8  28    3.4739   511.3    3.660      39.239
2015    5       16     8  33    3.4740   511.1    3.662      39.215
2015    5       16     8  39    3.4742   510.8    3.665      39.191
2015    5       16     8  45    3.4743   510.6    3.667      39.167
2015    5       16     8  51    3.4745   510.4    3.670      39.143
2015    5       16     8  56    3.4746   510.2    3.672      39.120
2015    5       16     9   2    3.4748   509.9    3.675      39.096
2015    5       16     9   8    3.4750   509.7    3.677      39.073
2015    5       16     9  14    3.4751   509.5    3.680      39.050
2015    5       16     9  20    3.4753   509.3    3.683      39.027
2015    5       16     9  25    3.4754   509.1    3.686      39.004
2015    5       16     9  31    3.4756   508.8    3.688      38.982
2015    5       16     9  37    3.4758   508.6    3.691      38.959
2015    5       16     9  43    3.4760   508.4    3.694      38.937
2015    5       16     9  49    3.4761   508.2    3.697      38.915
2015    5       16     9  54    3.4763   507.9    3.700      38.894
2015    5       16    10   0    3.4765   507.7    3.703      38.872
2015    5       16    10   6    3.4766   507.5    3.706      38.851
2015    5       16    10  12    3.4768   507.3    3.709      38.830
2015    5       16    10  17    3.4770   507.0    3.712      38.809
2015    5       16    10  23    3.4772   506.8    3.715      38.788
2015    5       16    10  29    3.4773   506.6    3.718      38.768
2015    5       16    10  35    3.4775   506.4    3.721      38.748
2015    5       16    10  41    3.4777   506.2    3.724      38.728
2015    5       16    10  46    3.4779   505.9    3.728      38.708
2015    5       16    10  52    3.4781   505.7    3.731      38.688
2015    5       16    10  58    3.4783   505.5    3.734      38.669
2015    5       16    11   4    3.4785   505.3    3.737      38.649
2015    5       16    11  10    3.4786   505.1    3.741      38.630
2015    5       16    11  15    3.4788   504.8    3.744      38.611
2015    5       16    11  21    3.4790   504.6    3.748      38.592
2015    5       16    11  27    3.4792   504.4    3.751      38.573
2015    5       16    11  33    3.4794   504.2    3.754      38.554
2015    5       16    11  38    3.4796   504.0    3.758      38.535
2015    5       16    11  44    3.4798   503.8    3.761      38.516
2015    5       16    11  50    3.4799   503.5    3.765      38.497
2015    5       16    11  56    3.4801   503.3    3.768      38.478
2015    5       16    12   2    3.4803   503.1    3.771      38.459
2015    5       16    12   7    3.4805   502.9    3.775      38.440
2015    5       16    12  13    3.4806   502.7    3.778      38.420
2015    5       16    12  19    3.4808   502.4    3.781      38.401
2015    5       16    12  25    3.4810   502.2    3.785      38.382
2015    5       16    12  31    3.4811   502.0    3.788      38.362
2015    5       16    12  36    3.4813   501.8    3.791      38.342
2015    5       16    12  42    3.4814   501.6    3.794      38.322
2015    5       16    12  48    3.4816   501.4    3.798      38.302
2015    5       16    12  54    3.4817   501.1    3.801      38.282
2015    5       16    12  59    3.4819   500.9    3.804      38.261
2015    5       16    13   5    3.4820   500.7    3.807      38.241
2015    5       16    13  11    3.4822   500.5    3.810      38.220
2015    5       16    13  17    3.4823   500.3    3.813      38.199
2015    5       16    13  23    3.4825   500.1    3.816      38.178
2015    5       16    13  28    3.4826   499.8    3.819      38.157
2015    5       16    13  34    3.4827   499.6    3.822      38.136
2015    5       16    13  40    3.4829   499.4    3.825      38.115
2015    5       16    13  46    3.4830   499.2    3.828      38.093
2015    5       16    13  51    3.4832   499.0    3.831      38.072
2015    5       16    13  57    3.4833   498.8    3.835      38.050
2015    5       16    14   3    3.4835   498.6    3.838      38.029
2015    5       16    14   9    3.4836   498.3    3.841      38.008
2015    5       16    14  15    3.4838   498.1    3.844      37.986
2015    5       16    14  20    3.4839   497.9    3.847      37.965
2015    5       16    14  26    3.4840   497.7    3.850      37.943
2015    5       16    14  32    3.4842   497.5    3.853      37.922
2015    5       16    14  38    3.4844   497.3    3.856      37.901
2015    5       16    14  44    3.4845   497.1    3.859      37.879
2015    5       16    14  49    3.4847   496.8    3.862      37.858
2015    5       16    14  55    3.4849   496.6    3.865      37.837
2015    5       16    15   1    3.4850   496.4    3.868      37.816
2015    5       16    15   7    3.4852   496.2    3.871      37.795
2015    5       16    15  12    3.4854   496.0    3.874      37.773
2015    5       16    15  18    3.4856   495.8    3.877      37.752
2015    5       16    15  24    3.4858   495.6    3.881      37.731
2015    5       16    15  30    3.4860   495.4    3.884      37.710
2015    5       16    15  36    3.4862   495.1    3.887      37.689
2015    5       16    15  41    3.4864   494.9    3.890      37.668
2015    5       16    15  47    3.4866   494.7    3.893      37.647
2015    5       16    15  53    3.4868   494.5    3.896      37.625
2015    5       16    15  59    3.4870   494.3    3.899      37.604
2015    5       16    16   5    3.4872   494.1    3.902      37.582
2015    5       16    16  10    3.4874   493.9    3.905      37.560
2015    5       16    16  16    3.4876   493.7    3.908      37.539
2015    5       16    16  22    3.4877   493.5    3.911      37.517
2015    5       16    16  28    3.4879   493.3    3.914      37.495
2015    5       16    16  33    3.4881   493.0    3.917      37.473
2015    5       16    16  39    3.4883   492.8    3.920      37.451
2015    5       16    16  45    3.4884   492.6    3.923      37.428
2015    5       16    16  51    3.4886   492.4    3.926      37.406
2015    5       16    16  57    3.4888   492.2    3.929      37.383
2015    5       16    17   2    3.4889   492.0    3.932      37.361
2015    5       16    17   8    3.4891   491.8    3.935      37.338
2015    5       16    17  14    3.4893   491.6    3.937      37.315
2015    5       16    17  20    3.4894   491.4    3.940      37.292
2015    5       16    17  26    3.4896   491.1    3.943      37.269
2015    5       16    17  31    3.4897   490.9    3.946      37.246
2015    5       16    17  37    3.4899   490.7    3.948      37.223
2015    5       16    17  43    3.4900   490.5    3.951      37.199
2015    5       16    17  49    3.4902   490.3    3.954      37.176
2015    5       16    17  54    3.4903   490.1    3.957      37.153
2015    5       16    18   0    3.4905   489.9    3.959      37.129
2015    5       16    18   6    3.4906   489.7    3.962      37.106
2015    5       16    18  12    3.4908   489.5    3.965      37.082
2015    5       16    18  18    3.4909   489.2    3.967      37.058
2015    5       16    18  23    3.4910   489.0    3.970      37.035
2015    5       16    18  29    3.4912   488.8    3.972      37.011
2015    5       16    18  35    3.4913   488.6    3.975      36.987
2015    5       16    18  41    3.4914   488.4    3.978      36.964
2015    5       16    18  47    3.4916   488.2    3.980      36.940
2015    5       16    18  52    3.4917   488.0    3.983      36.916
2015    5       16    18  58    3.4918   487.8    3.986      36.892
2015    5       16    19   4    3.4920   487.5    3.988      36.868
2015    5       16    19  10    3.4921   487.3    3.991      36.845
2015    5       16    19  15    3.4922   487.1    3.993      36.821
2015    5       16    19  21    3.4923   486.9    3.996      36.797
2015    5       16    19  27    3.4924   486.7    3.999      36.772
2015    5       16    19  33    3.4925   486.5    4.001      36.748
2015    5       16    19  39    3.4926   486.3    4.004      36.724
2015    5       16    19  44    3.4926   486.1    4.007      36.699
2015    5       16    19  50    3.4927   485.8    4.009      36.675
2015    5       16    19  56    3.4928   485.6    4.012      36.650
2015    5       16    20   2    3.4929   485.4    4.014      36.625
2015    5       16    20   8    3.4930   485.2    4.017      36.600
2015    5       16    20  13    3.4931   485.0    4.020      36.575
2015    5       16    20  19    3.4931   484.8    4.022      36.550
2015    5       16    20  25    3.4932   484.5    4.025      36.524
2015    5       16    20  31    3.4933   484.3    4.027      36.499
2015    5       16    20  36    3.4934   484.1    4.030      36.473
2015    5       16    20  42    3.4935   483.9    4.033      36.447
2015    5       16    20  48    3.4936   483.7    4.035      36.422
2015    5       16    20  54    3.4937   483.5    4.038      36.396
2015    5       16    21   0    3.4938   483.2    4.040      36.370
2015    5       16    21   5    3.4939   483.0    4.043      36.344
2015    5       16    21  11    3.4940   482.8    4.046      36.318
2015    5       16    21  17    3.4942   482.6    4.049      36.291
2015    5       16    21  23    3.4943   482.3    4.051      36.265
2015    5       16    21  29    3.4945   482.1    4.054      36.239
2015    5       16    21  34    3.4947   481.9    4.057      36.213
2015    5       16    21  40    3.4949   481.7    4.060      36.187
2015    5       16    21  46    3.4951   481.5    4.062      36.162
2015    5       16    21  52    3.4953   481.2    4.065      36.136
2015    5       16    21  57    3.4956   481.0    4.068      36.110
2015    5       16    22   3    3.4958   480.8    4.071      36.085
2015    5       16    22   9    3.4961   480.6    4.074      36.060
2015    5       16    22  15    3.4964   480.4    4.077      36.035
2015    5       16    22  21    3.4968   480.1    4.081      36.010
2015    5       16    22  26    3.4971   479.9    4.084      35.986
2015    5       16    22  32    3.4975   479.7    4.087      35.962
2015    5       16    22  38    3.4978   479.5    4.091      35.938
2015    5       16    22  44    3.4982   479.3    4.094      35.914
2015    5       16    22  50    3.4986   479.0    4.097      35.891
2015    5       16    22  55    3.4991   478.8    4.101      35.868
2015    5       16    23   1    3.4995   478.6    4.105      35.845
2015    5       16    23   7    3.5000   478.4    4.108      35.823
2015    5       16    23  13    3.5004   478.2    4.112      35.801
2015    5       16    23  18    3.5008   478.0    4.116      35.779
2015    5       16    23  24    3.5013   477.8    4.120      35.757
2015    5       16    23  30    3.5017   477.5    4.123      35.735
2015    5       16    23  36    3.5021   477.3    4.127      35.714
2015    5       16    23  42    3.5025   477.1    4.131      35.692
2015    5       16    23  47    3.5029   476.9    4.135      35.671
2015    5       16    23  53    3.5032   476.7    4.139      35.650
2015    5       16    23  59    3.5036   476.5    4.143      35.628
2015    5       17     0   5    3.5039   476.3    4.147      35.607
2015    5       17     0  11    3.5042   476.1    4.151      35.586
2015    5       17     0  16    3.5046   475.8    4.155      35.564
2015    5       17     0  22    3.5049   475.6    4.159      35.543
2015    5       17     0  28    3.5052   475.4    4.162      35.521
2015    5       17     0  34    3.5055   475.2    4.166      35.500
2015    5       17     0  39    3.5058   475.0    4.170      35.478
2015    5       17     0  45    3.5061   474.8    4.174      35.457
2015    5       17     0  51    3.5064   474.6    4.178      35.435
2015    5       17     0  57    3.5067   474.3    4.182      35.414
2015    5       17     1   3    3.5070   474.1    4.186      35.393
2015    5       17     1   8    3.5072   473.9    4.189      35.371
2015    5       17     1  14    3.5075   473.7    4.193      35.350
2015    5       17     1  20    3.5078   473.5    4.197      35.329
2015    5       17     1  26    3.5081   473.3    4.201      35.308
2015    5       17     1  31    3.5084   473.0    4.205      35.287
2015    5       17     1  37    3.5087   472.8    4.209      35.266
2015    5       17     1  43    3.5090   472.6    4.212      35.245
2015    5       17     1  49    3.5093   472.4    4.216      35.224
2015    5       17     1  55    3.5096   472.2    4.220      35.204
2015    5       17     2   0    3.5100   472.0    4.224      35.184
2015    5       17     2   6    3.5103   471.8    4.228      35.163
2015    5       17     2  12    3.5106   471.5    4.231      35.143
2015    5       17     2  18    3.5110   471.3    4.235      35.123
2015    5       17     2  24    3.5113   471.1    4.239      35.103
2015    5       17     2  29    3.5117   470.9    4.243      35.084
2015    5       17     2  35    3.5121   470.7    4.247      35.064
2015    5       17     2  41    3.5124   470.5    4.251      35.044
2015    5       17     2  47    3.5128   470.3    4.255      35.024
2015    5       17     2  52    3.5132   470.0    4.259      35.004
2015    5       17     2  58    3.5136   469.8    4.262      34.984
2015    5       17     3   4    3.5141   469.6    4.266      34.964
2015    5       17     3  10    3.5145   469.4    4.270      34.943
2015    5       17     3  16    3.5149   469.2    4.274      34.923
2015    5       17     3  21    3.5153   469.0    4.278      34.903
2015    5       17     3  27    3.5158   468.8    4.282      34.883
2015    5       17     3  33    3.5162   468.6    4.286      34.862
2015    5       17     3  39    3.5166   468.3    4.290      34.842
2015    5       17     3  45    3.5171   468.1    4.294      34.821
2015    5       17     3  50    3.5175   467.9    4.297      34.800
2015    5       17     3  56    3.5179   467.7    4.301      34.779
2015    5       17     4   2    3.5184   467.5    4.305      34.758
2015    5       17     4   8    3.5188   467.3    4.309      34.737
2015    5       17     4  13    3.5192   467.1    4.313      34.715
2015    5       17     4  19    3.5196   466.9    4.316      34.694
2015    5       17     4  25    3.5200   466.7    4.320      34.672
2015    5       17     4  31    3.5204   466.5    4.324      34.650
2015    5       17     4  37    3.5207   466.2    4.327      34.628
2015    5       17     4  42    3.5211   466.0    4.331      34.606
2015    5       17     4  48    3.5215   465.8    4.334      34.583
2015    5       17     4  54    3.5219   465.6    4.338      34.560
2015    5       17     5   0    3.5222   465.4    4.341      34.538
2015    5       17     5   6    3.5226   465.2    4.345      34.514
2015    5       17     5  11    3.5229   465.0    4.348      34.491
2015    5       17     5  17    3.5233   464.7    4.352      34.468
2015    5       17     5  23    3.5236   464.5    4.355      34.444
2015    5       17     5  29    3.5240   464.3    4.358      34.420
2015    5       17     5  34    3.5243   464.1    4.361      34.397
2015    5       17     5  40    3.5247   463.9    4.365      34.372
2015    5       17     5  46    3.5250   463.7    4.368      34.348
2015    5       17     5  52    3.5253   463.5    4.371      34.323
2015    5       17     5  58    3.5257   463.2    4.374      34.299
2015    5       17     6   3    3.5260   463.0    4.377      34.273
2015    5       17     6   9    3.5263   462.8    4.380      34.248
2015    5       17     6  15    3.5267   462.6    4.384      34.223
2015    5       17     6  21    3.5270   462.4    4.387      34.197
2015    5       17     6  27    3.5273   462.2    4.390      34.172
2015    5       17     6  32    3.5276   461.9    4.393      34.146
2015    5       17     6  38    3.5280   461.7    4.396      34.120
2015    5       17     6  44    3.5283   461.5    4.399      34.094
2015    5       17     6  50    3.5286   461.3    4.402      34.068
2015    5       17     6  55    3.5290   461.1    4.405      34.041
2015    5       17     7   1    3.5293   460.9    4.408      34.015
2015    5       17     7   7    3.5296   460.7    4.412      33.989
2015    5       17     7  13    3.5300   460.4    4.415      33.963
2015    5       17     7  19    3.5303   460.2    4.418      33.937
2015    5       17     7  24    3.5307   460.0    4.421      33.911
2015    5       17     7  30    3.5310   459.8    4.424      33.885
2015    5       17     7  36    3.5314   459.6    4.428      33.859
2015    5       17     7  42    3.5318   459.4    4.431      33.833
2015    5       17     7  48    3.5322   459.1    4.434      33.807
2015    5       17     7  53    3.5326   458.9    4.438      33.782
2015    5       17     7  59    3.5330   458.7    4.441      33.756
2015    5       17     8   5    3.5334   458.5    4.445      33.731
2015    5       17     8  11    3.5338   458.3    4.448      33.706
2015    5       17     8  16    3.5343   458.1    4.452      33.681
2015    5       17     8  22    3.5347   457.9    4.455      33.657
2015    5       17     8  28    3.5352   457.6    4.459      33.632
2015    5       17     8  34    3.5357   457.4    4.463      33.608
2015    5       17     8  40    3.5362   457.2    4.467      33.584
2015    5       17     8  45    3.5367   457.0    4.470      33.560
2015    5       17     8  51    3.5372   456.8    4.474      33.537
2015    5       17     8  57    3.5377   456.6    4.478      33.514
2015    5       17     9   3    3.5382   456.4    4.482      33.491
2015    5       17     9   8    3.5388   456.1    4.486      33.468
2015    5       17     9  14    3.5393   455.9    4.490      33.446
2015    5       17     9  20    3.5399   455.7    4.495      33.423
2015    5       17     9  26    3.5405   455.5    4.499      33.401
2015    5       17     9  32    3.5411   455.3    4.503      33.379
2015    5       17     9  37    3.5416   455.1    4.507      33.358
2015    5       17     9  43    3.5422   454.9    4.511      33.336
2015    5       17     9  49    3.5428   454.7    4.516      33.315
2015    5       17     9  55    3.5434   454.4    4.520      33.293
2015    5       17    10   1    3.5440   454.2    4.525      33.272
2015    5       17    10   6    3.5446   454.0    4.529      33.251
2015    5       17    10  12    3.5452   453.8    4.534      33.230
2015    5       17    10  18    3.5458   453.6    4.538      33.210
2015    5       17    10  24    3.5464   453.4    4.542      33.189
2015    5       17    10  29    3.5470   453.2    4.547      33.169
2015    5       17    10  35    3.5477   452.9    4.552      33.148
2015    5       17    10  41    3.5483   452.7    4.556      33.128
2015    5       17    10  47    3.5490   452.5    4.561      33.108
2015    5       17    10  53    3.5496   452.3    4.565      33.088
2015    5       17    10  58    3.5503   452.1    4.570      33.068
2015    5       17    11   4    3.5509   451.9    4.574      33.048
2015    5       17    11  10    3.5516   451.6    4.579      33.028
2015    5       17    11  16    3.5523   451.4    4.584      33.009
2015    5       17    11  22    3.5530   451.2    4.588      32.989
2015    5       17    11  27    3.5537   451.0    4.593      32.969
2015    5       17    11  33    3.5545   450.8    4.598      32.950
2015    5       17    11  39    3.5552   450.6    4.602      32.930
2015    5       17    11  45    3.5559   450.4    4.607      32.910
2015    5       17    11  50    3.5566   450.1    4.612      32.890
2015    5       17    11  56    3.5574   449.9    4.616      32.870
2015    5       17    12   2    3.5581   449.7    4.621      32.850
2015    5       17    12   8    3.5588   449.5    4.626      32.830
2015    5       17    12  14    3.5595   449.3    4.630      32.810
2015    5       17    12  19    3.5603   449.1    4.635      32.790
2015    5       17    12  25    3.5610   448.9    4.639      32.769
2015    5       17    12  31    3.5617   448.6    4.644      32.749
2015    5       17    12  37    3.5624   448.4    4.648      32.728
2015    5       17    12  42    3.5631   448.2    4.653      32.707
2015    5       17    12  48    3.5638   448.0    4.657      32.686
2015    5       17    12  54    3.5645   447.8    4.662      32.665
2015    5       17    13   0    3.5652   447.6    4.666      32.643
2015    5       17    13   6    3.5659   447.4    4.670      32.622
2015    5       17    13  11    3.5665   447.2    4.674      32.600
2015    5       17    13  17    3.5672   447.0    4.679      32.578
2015    5       17    13  23    3.5679   446.8    4.683      32.556
2015    5       17    13  29    3.5686   446.5    4.687      32.533
2015    5       17    13  35    3.5693   446.3    4.691      32.511
2015    5       17    13  40    3.5700   446.1    4.695      32.488
2015    5       17    13  46    3.5707   445.9    4.699      32.466
2015    5       17    13  52    3.5714   445.7    4.703      32.443
2015    5       17    13  58    3.5720   445.5    4.707      32.420
2015    5       17    14   3    3.5727   445.3    4.711      32.396
2015    5       17    14   9    3.5734   445.1    4.715      32.373
2015    5       17    14  15    3.5741   444.9    4.719      32.350
2015    5       17    14  21    3.5748   444.7    4.723      32.326
2015    5       17    14  27    3.5755   444.4    4.727      32.302
2015    5       17    14  32    3.5762   444.2    4.731      32.279
2015    5       17    14  38    3.5769   444.0    4.735      32.255
2015    5       17    14  44    3.5776   443.8    4.739      32.231
2015    5       17    14  50    3.5783   443.6    4.743      32.207
2015    5       17    14  56    3.5791   443.4    4.747      32.183
2015    5       17    15   1    3.5798   443.2    4.751      32.158
2015    5       17    15   7    3.5805   443.0    4.755      32.134
2015    5       17    15  13    3.5812   442.8    4.759      32.110
2015    5       17    15  19    3.5819   442.5    4.763      32.086
2015    5       17    15  24    3.5827   442.3    4.767      32.062
2015    5       17    15  30    3.5834   442.1    4.771      32.039
2015    5       17    15  36    3.5842   441.9    4.775      32.015
2015    5       17    15  42    3.5850   441.7    4.779      31.991
2015    5       17    15  48    3.5857   441.5    4.783      31.968
2015    5       17    15  53    3.5865   441.3    4.788      31.945
2015    5       17    15  59    3.5873   441.1    4.792      31.922
2015    5       17    16   5    3.5881   440.8    4.796      31.899
2015    5       17    16  11    3.5890   440.6    4.801      31.876
2015    5       17    16  17    3.5898   440.4    4.805      31.854
2015    5       17    16  22    3.5907   440.2    4.810      31.831
2015    5       17    16  28    3.5915   440.0    4.815      31.810
2015    5       17    16  34    3.5924   439.8    4.819      31.788
2015    5       17    16  40    3.5933   439.6    4.824      31.767
2015    5       17    16  45    3.5942   439.4    4.829      31.746
2015    5       17    16  51    3.5951   439.1    4.834      31.725
2015    5       17    16  57    3.5961   438.9    4.839      31.705
2015    5       17    17   3    3.5971   438.7    4.844      31.685
2015    5       17    17   9    3.5980   438.5    4.849      31.665
2015    5       17    17  14    3.5990   438.3    4.855      31.645
2015    5       17    17  20    3.6000   438.1    4.860      31.626
2015    5       17    17  26    3.6011   437.9    4.865      31.607
2015    5       17    17  32    3.6021   437.7    4.871      31.588
2015    5       17    17  37    3.6032   437.5    4.876      31.570
2015    5       17    17  43    3.6042   437.2    4.882      31.552
2015    5       17    17  49    3.6053   437.0    4.887      31.534
2015    5       17    17  55    3.6064   436.8    4.893      31.516
2015    5       17    18   1    3.6075   436.6    4.898      31.498
2015    5       17    18   6    3.6086   436.4    4.904      31.480
2015    5       17    18  12    3.6098   436.2    4.910      31.463
2015    5       17    18  18    3.6109   436.0    4.915      31.445
2015    5       17    18  24    3.6120   435.8    4.921      31.428
2015    5       17    18  30    3.6132   435.6    4.927      31.411
2015    5       17    18  35    3.6143   435.4    4.933      31.394
2015    5       17    18  41    3.6155   435.1    4.938      31.377
2015    5       17    18  47    3.6167   434.9    4.944      31.360
2015    5       17    18  53    3.6179   434.7    4.950      31.343
2015    5       17    18  58    3.6190   434.5    4.956      31.326
2015    5       17    19   4    3.6202   434.3    4.962      31.309
2015    5       17    19  10    3.6214   434.1    4.967      31.292
2015    5       17    19  16    3.6227   433.9    4.973      31.275
2015    5       17    19  22    3.6239   433.7    4.979      31.258
2015    5       17    19  27    3.6251   433.5    4.985      31.241
2015    5       17    19  33    3.6263   433.3    4.990      31.224
2015    5       17    19  39    3.6276   433.1    4.996      31.208
2015    5       17    19  45    3.6288   432.8    5.002      31.191
2015    5       17    19  51    3.6301   432.6    5.008      31.174
2015    5       17    19  56    3.6314   432.4    5.013      31.157
2015    5       17    20   2    3.6327   432.2    5.019      31.140
2015    5       17    20   8    3.6340   432.0    5.025      31.123
2015    5       17    20  14    3.6353   431.8    5.031      31.107
2015    5       17    20  19    3.6366   431.6    5.037      31.090
2015    5       17    20  25    3.6380   431.4    5.043      31.074
2015    5       17    20  31    3.6393   431.2    5.048      31.057
2015    5       17    20  37    3.6407   431.0    5.054      31.041
2015    5       17    20  43    3.6421   430.8    5.060      31.024
2015    5       17    20  48    3.6435   430.6    5.066      31.008
2015    5       17    20  54    3.6449   430.3    5.072      30.992
2015    5       17    21   0    3.6463   430.1    5.078      30.976
2015    5       17    21   6    3.6478   429.9    5.084      30.960
2015    5       17    21  12    3.6493   429.7    5.090      30.944
2015    5       17    21  17    3.6507   429.5    5.096      30.929
2015    5       17    21  23    3.6523   429.3    5.103      30.913
2015    5       17    21  29    3.6538   429.1    5.109      30.898
2015    5       17    21  35    3.6553   428.9    5.115      30.883
2015    5       17    21  40    3.6569   428.7    5.121      30.868
2015    5       17    21  46    3.6584   428.5    5.128      30.853
2015    5       17    21  52    3.6600   428.3    5.134      30.838
2015    5       17    21  58    3.6616   428.1    5.140      30.823
2015    5       17    22   4    3.6632   427.9    5.147      30.809
2015    5       17    22   9    3.6648   427.7    5.153      30.794
2015    5       17    22  15    3.6665   427.5    5.160      30.780
2015    5       17    22  21    3.6681   427.3    5.166      30.766
2015    5       17    22  27    3.6698   427.1    5.173      30.752
2015    5       17    22  33    3.6714   426.9    5.179      30.737
2015    5       17    22  38    3.6731   426.7    5.186      30.723
2015    5       17    22  44    3.6748   426.5    5.192      30.709
2015    5       17    22  50    3.6764   426.3    5.199      30.696
2015    5       17    22  56    3.6781   426.1    5.206      30.682
2015    5       17    23   1    3.6798   425.9    5.212      30.668
2015    5       17    23   7    3.6815   425.7    5.219      30.655
2015    5       17    23  13    3.6832   425.5    5.226      30.641
2015    5       17    23  19    3.6850   425.3    5.232      30.627
2015    5       17    23  25    3.6867   425.1    5.239      30.614
2015    5       17    23  30    3.6884   424.9    5.246      30.600
2015    5       17    23  36    3.6901   424.7    5.252      30.587
2015    5       17    23  42    3.6919   424.5    5.259      30.573
2015    5       17    23  48    3.6936   424.3    5.266      30.560
2015    5       17    23  53    3.6953   424.1    5.273      30.546
2015    5       17    23  59    3.6971   423.9    5.279      30.533
2015    5       18     0   5    3.6989   423.7    5.286      30.520
2015    5       18     0  11    3.7006   423.5    5.293      30.506
2015    5       18     0  17    3.7024   423.3    5.299      30.493
2015    5       18     0  22    3.7042   423.1    5.306      30.479
2015    5       18     0  28    3.7059   422.9    5.313      30.466
2015    5       18     0  34    3.7077   422.7    5.320      30.453
2015    5       18     0  40    3.7095   422.5    5.326      30.439
2015    5       18     0  46    3.7113   422.3    5.333      30.426
2015    5       18     0  51    3.7132   422.1    5.340      30.413
2015    5       18     0  57    3.7150   421.9    5.347      30.400
2015    5       18     1   3    3.7168   421.7    5.354      30.387
2015    5       18     1   9    3.7187   421.5    5.360      30.374
2015    5       18     1  14    3.7205   421.3    5.367      30.361
2015    5       18     1  20    3.7224   421.1    5.374      30.349
2015    5       18     1  26    3.7243   420.9    5.381      30.336
2015    5       18     1  32    3.7262   420.7    5.388      30.323
2015    5       18     1  38    3.7282   420.5    5.395      30.311
2015    5       18     1  43    3.7301   420.3    5.402      30.299
2015    5       18     1  49    3.7321   420.1    5.409      30.287
2015    5       18     1  55    3.7341   419.9    5.416      30.275
2015    5       18     2   1    3.7361   419.7    5.424      30.264
2015    5       18     2   7    3.7381   419.5    5.431      30.252
2015    5       18     2  12    3.7402   419.3    5.438      30.241
2015    5       18     2  18    3.7423   419.1    5.446      30.230
2015    5       18     2  24    3.7444   418.9    5.453      30.220
2015    5       18     2  30    3.7465   418.7    5.461      30.209
2015    5       18     2  35    3.7487   418.5    5.468      30.199
2015    5       18     2  41    3.7509   418.3    5.476      30.189
2015    5       18     2  47    3.7531   418.1    5.483      30.179
2015    5       18     2  53    3.7553   417.9    5.491      30.170
2015    5       18     2  59    3.7576   417.7    5.499      30.161
2015    5       18     3   4    3.7599   417.5    5.507      30.152
2015    5       18     3  10    3.7623   417.3    5.515      30.144
2015    5       18     3  16    3.7646   417.1    5.523      30.136
2015    5       18     3  22    3.7670   417.0    5.531      30.128
2015    5       18     3  28    3.7695   416.8    5.539      30.120
2015    5       18     3  33    3.7720   416.6    5.548      30.113
2015    5       18     3  39    3.7745   416.4    5.556      30.106
2015    5       18     3  45    3.7770   416.2    5.564      30.099
2015    5       18     3  51    3.7796   416.0    5.573      30.093
2015    5       18     3  56    3.7822   415.8    5.581      30.087
2015    5       18     4   2    3.7848   415.6    5.590      30.081
2015    5       18     4   8    3.7874   415.4    5.599      30.076
2015    5       18     4  14    3.7901   415.3    5.607      30.070
2015    5       18     4  20    3.7928   415.1    5.616      30.066
2015    5       18     4  25    3.7955   414.9    5.625      30.061
2015    5       18     4  31    3.7982   414.7    5.634      30.056
2015    5       18     4  37    3.8010   414.5    5.642      30.052
2015    5       18     4  43    3.8038   414.3    5.651      30.048
2015    5       18     4  49    3.8066   414.2    5.660      30.044
2015    5       18     4  54    3.8094   414.0    5.669      30.041
2015    5       18     5   0    3.8122   413.8    5.678      30.037
2015    5       18     5   6    3.8150   413.6    5.687      30.034
2015    5       18     5  12    3.8178   413.4    5.696      30.030
2015    5       18     5  17    3.8207   413.3    5.705      30.027
2015    5       18     5  23    3.8235   413.1    5.714      30.024
2015    5       18     5  29    3.8264   412.9    5.723      30.021
2015    5       18     5  35    3.8292   412.7    5.732      30.018
2015    5       18     5  41    3.8321   412.5    5.741      30.015
2015    5       18     5  46    3.8349   412.4    5.750      30.012
2015    5       18     5  52    3.8378   412.2    5.759      30.009
2015    5       18     5  58    3.8407   412.0    5.768      30.006
2015    5       18     6   4    3.8436   411.8    5.777      30.004
2015    5       18     6   9    3.8464   411.7    5.786      30.001
2015    5       18     6  15    3.8493   411.5    5.795      29.998
2015    5       18     6  21    3.8522   411.3    5.804      29.994
2015    5       18     6  27    3.8551   411.1    5.812      29.991
2015    5       18     6  33    3.8580   411.0    5.821      29.988
2015    5       18     6  38    3.8609   410.8    5.830      29.985
2015    5       18     6  44    3.8638   410.6    5.839      29.981
2015    5       18     6  50    3.8668   410.5    5.848      29.978
2015    5       18     6  56    3.8697   410.3    5.856      29.974
2015    5       18     7   2    3.8726   410.1    5.865      29.971
2015    5       18     7   7    3.8755   409.9    5.874      29.967
2015    5       18     7  13    3.8785   409.8    5.883      29.963
2015    5       18     7  19    3.8814   409.6    5.891      29.959
2015    5       18     7  25    3.8844   409.4    5.900      29.956
2015    5       18     7  30    3.8874   409.2    5.909      29.952
2015    5       18     7  36    3.8904   409.1    5.918      29.948
2015    5       18     7  42    3.8933   408.9    5.926      29.944
2015    5       18     7  48    3.8963   408.7    5.935      29.940
2015    5       18     7  54    3.8994   408.5    5.944      29.936
2015    5       18     7  59    3.9024   408.4    5.953      29.932
2015    5       18     8   5    3.9055   408.2    5.962      29.928
2015    5       18     8  11    3.9085   408.0    5.971      29.924
2015    5       18     8  17    3.9116   407.8    5.980      29.920
2015    5       18     8  23    3.9148   407.7    5.989      29.916
2015    5       18     8  28    3.9179   407.5    5.998      29.913
2015    5       18     8  34    3.9211   407.3    6.007      29.910
2015    5       18     8  40    3.9243   407.1    6.016      29.906
2015    5       18     8  46    3.9276   407.0    6.026      29.904
2015    5       18     8  51    3.9308   406.8    6.035      29.901
2015    5       18     8  57    3.9342   406.6    6.045      29.899
2015    5       18     9   3    3.9375   406.4    6.055      29.897
2015    5       18     9   9    3.9410   406.3    6.065      29.895
2015    5       18     9  15    3.9444   406.1    6.075      29.894
2015    5       18     9  20    3.9479   405.9    6.085      29.894
2015    5       18     9  26    3.9515   405.8    6.095      29.893
2015    5       18     9  32    3.9551   405.6    6.106      29.894
2015    5       18     9  38    3.9588   405.4    6.116      29.895
2015    5       18     9  44    3.9625   405.2    6.127      29.897
2015    5       18     9  49    3.9663   405.1    6.138      29.899
2015    5       18     9  55    3.9701   404.9    6.150      29.902
2015    5       18    10   1    3.9741   404.7    6.161      29.906
2015    5       18    10   7    3.9781   404.6    6.173      29.910
2015    5       18    10  12    3.9821   404.4    6.185      29.915
2015    5       18    10  18    3.9862   404.2    6.197      29.921
2015    5       18    10  24    3.9904   404.1    6.209      29.928
2015    5       18    10  30    3.9946   403.9    6.222      29.936
2015    5       18    10  36    3.9989   403.7    6.235      29.944
2015    5       18    10  41    4.0034   403.6    6.248      29.953
2015    5       18    10  47    4.0078   403.4    6.261      29.963
2015    5       18    10  53    4.0123   403.3    6.275      29.974
2015    5       18    10  59    4.0168   403.1    6.288      29.987
2015    5       18    11   5    4.0214   403.0    6.302      30.000
2015    5       18    11  10    4.0259   402.8    6.315      30.014
2015    5       18    11  16    4.0306   402.7    6.329      30.029
2015    5       18    11  22    4.0352   402.5    6.342      30.045
2015    5       18    11  28    4.0398   402.4    6.356      30.061
2015    5       18    11  33    4.0445   402.3    6.369      30.078
2015    5       18    11  39    4.0491   402.1    6.383      30.095
2015    5       18    11  45    4.0537   402.0    6.396      30.112
2015    5       18    11  51    4.0584   401.9    6.409      30.129
2015    5       18    11  57    4.0630   401.7    6.422      30.146
2015    5       18    12   2    4.0677   401.6    6.435      30.162
2015    5       18    12   8    4.0723   401.5    6.448      30.178
2015    5       18    12  14    4.0770   401.3    6.461      30.194
2015    5       18    12  20    4.0816   401.2    6.474      30.209
2015    5       18    12  25    4.0862   401.1    6.486      30.225
2015    5       18    12  31    4.0908   401.0    6.499      30.240
2015    5       18    12  37    4.0954   400.8    6.511      30.255
2015    5       18    12  43    4.1001   400.7    6.524      30.269
2015    5       18    12  49    4.1047   400.6    6.536      30.283
2015    5       18    12  54    4.1093   400.5    6.548      30.297
2015    5       18    13   0    4.1139   400.3    6.561      30.311
2015    5       18    13   6    4.1185   400.2    6.573      30.324
2015    5       18    13  12    4.1231   400.1    6.585      30.337
2015    5       18    13  18    4.1278   400.0    6.597      30.349
2015    5       18    13  23    4.1324   399.8    6.609      30.362
2015    5       18    13  29    4.1370   399.7    6.621      30.374
2015    5       18    13  35    4.1417   399.6    6.633      30.386
2015    5       18    13  41    4.1463   399.5    6.645      30.398
2015    5       18    13  46    4.1510   399.4    6.656      30.409
2015    5       18    13  52    4.1557   399.2    6.668      30.420
2015    5       18    13  58    4.1604   399.1    6.680      30.431
2015    5       18    14   4    4.1651   399.0    6.692      30.442
2015    5       18    14  10    4.1699   398.9    6.703      30.452
2015    5       18    14  15    4.1746   398.8    6.715      30.462
2015    5       18    14  21    4.1794   398.6    6.727      30.472
2015    5       18    14  27    4.1841   398.5    6.738      30.482
2015    5       18    14  33    4.1890   398.4    6.750      30.492
2015    5       18    14  39    4.1938   398.3    6.762      30.502
2015    5       18    14  44    4.1987   398.2    6.773      30.512
2015    5       18    14  50    4.2036   398.1    6.785      30.522
2015    5       18    14  56    4.2085   397.9    6.797      30.532
2015    5       18    15   2    4.2135   397.8    6.809      30.542
2015    5       18    15   7    4.2185   397.7    6.821      30.552
2015    5       18    15  13    4.2235   397.6    6.833      30.562
2015    5       18    15  19    4.2286   397.5    6.846      30.572
2015    5       18    15  25    4.2338   397.4    6.858      30.583
2015    5       18    15  31    4.2390   397.2    6.871      30.594
2015    5       18    15  36    4.2443   397.1    6.884      30.605
2015    5       18    15  42    4.2496   397.0    6.897      30.617
2015    5       18    15  48    4.2550   396.9    6.910      30.630
2015    5       18    15  54    4.2606   396.8    6.924      30.643
2015    5       18    16   0    4.2661   396.7    6.938      30.656
2015    5       18    16   5    4.2718   396.6    6.952      30.670
2015    5       18    16  11    4.2776   396.4    6.967      30.685
2015    5       18    16  17    4.2834   396.3    6.982      30.702
2015    5       18    16  23    4.2893   396.2    6.997      30.719
2015    5       18    16  28    4.2953   396.1    7.012      30.738
2015    5       18    16  34    4.3012   396.0    7.028      30.759
2015    5       18    16  40    4.3073   396.0    7.043      30.783
2015    5       18    16  46    4.3133   395.9    7.059      30.809
2015    5       18    16  52    4.3194   395.8    7.075      30.836
2015    5       18    16  57    4.3255   395.7    7.090      30.865
2015    5       18    17   3    4.3317   395.6    7.106      30.895
2015    5       18    17   9    4.3379   395.5    7.122      30.927
2015    5       18    17  15    4.3441   395.5    7.137      30.959
2015    5       18    17  21    4.3503   395.4    7.153      30.992
2015    5       18    17  26    4.3566   395.3    7.169      31.026
2015    5       18    17  32    4.3628   395.2    7.185      31.059
2015    5       18    17  38    4.3691   395.2    7.200      31.093
2015    5       18    17  44    4.3754   395.1    7.216      31.128
2015    5       18    17  49    4.3817   395.0    7.231      31.163
2015    5       18    17  55    4.3880   395.0    7.247      31.198
2015    5       18    18   1    4.3944   394.9    7.263      31.232
2015    5       18    18   7    4.4007   394.8    7.279      31.267
2015    5       18    18  13    4.4070   394.8    7.294      31.302
2015    5       18    18  18    4.4133   394.7    7.310      31.337
2015    5       18    18  24    4.4197   394.7    7.325      31.373
2015    5       18    18  30    4.4260   394.6    7.340      31.409
2015    5       18    18  36    4.4322   394.5    7.355      31.444
2015    5       18    18  41    4.4385   394.5    7.370      31.480
2015    5       18    18  47    4.4447   394.4    7.385      31.516
2015    5       18    18  53    4.4508   394.4    7.399      31.552
2015    5       18    18  59    4.4570   394.3    7.413      31.587
2015    5       18    19   5    4.4631   394.3    7.427      31.622
2015    5       18    19  10    4.4693   394.2    7.441      31.656
2015    5       18    19  16    4.4754   394.2    7.455      31.690
2015    5       18    19  22    4.4815   394.1    7.469      31.723
2015    5       18    19  28    4.4875   394.1    7.482      31.755
2015    5       18    19  34    4.4936   394.0    7.495      31.787
2015    5       18    19  39    4.4996   394.0    7.508      31.818
2015    5       18    19  45    4.5056   393.9    7.522      31.849
2015    5       18    19  51    4.5116   393.9    7.534      31.879
2015    5       18    19  57    4.5176   393.8    7.547      31.909
2015    5       18    20   2    4.5236   393.8    7.560      31.939
2015    5       18    20   8    4.5297   393.7    7.573      31.968
2015    5       18    20  14    4.5357   393.7    7.585      31.996
2015    5       18    20  20    4.5416   393.6    7.598      32.024
2015    5       18    20  26    4.5476   393.6    7.610      32.052
2015    5       18    20  31    4.5537   393.5    7.623      32.080
2015    5       18    20  37    4.5597   393.5    7.635      32.107
2015    5       18    20  43    4.5657   393.4    7.647      32.134
2015    5       18    20  49    4.5717   393.4    7.660      32.161
2015    5       18    20  55    4.5778   393.3    7.672      32.187
2015    5       18    21   0    4.5839   393.3    7.684      32.214
2015    5       18    21   6    4.5899   393.2    7.697      32.240
2015    5       18    21  12    4.5960   393.2    7.709      32.266
2015    5       18    21  18    4.6022   393.1    7.721      32.292
2015    5       18    21  23    4.6083   393.1    7.734      32.319
2015    5       18    21  29    4.6145   393.0    7.746      32.345
2015    5       18    21  35    4.6207   393.0    7.759      32.371
2015    5       18    21  41    4.6269   392.9    7.772      32.398
2015    5       18    21  47    4.6332   392.9    7.784      32.424
2015    5       18    21  52    4.6395   392.8    7.797      32.451
2015    5       18    21  58    4.6459   392.8    7.810      32.478
2015    5       18    22   4    4.6523   392.8    7.824      32.505
2015    5       18    22  10    4.6587   392.7    7.837      32.533
2015    5       18    22  16    4.6652   392.7    7.851      32.561
2015    5       18    22  21    4.6718   392.6    7.865      32.589
2015    5       18    22  27    4.6784   392.6    7.880      32.618
2015    5       18    22  33    4.6851   392.6    7.894      32.648
2015    5       18    22  39    4.6918   392.5    7.910      32.678
2015    5       18    22  44    4.6987   392.5    7.925      32.709
2015    5       18    22  50    4.7056   392.5    7.941      32.741
2015    5       18    22  56    4.7126   392.4    7.958      32.774
2015    5       18    23   2    4.7197   392.4    7.975      32.807
2015    5       18    23   8    4.7270   392.3    7.993      32.841
2015    5       18    23  13    4.7344   392.3    8.011      32.876
2015    5       18    23  19    4.7420   392.3    8.030      32.912
2015    5       18    23  25    4.7496   392.3    8.050      32.951
2015    5       18    23  31    4.7573   392.3    8.070      32.993
2015    5       18    23  37    4.7651   392.3    8.090      33.038
2015    5       18    23  42    4.7730   392.3    8.111      33.086
2015    5       18    23  48    4.7808   392.3    8.131      33.137
2015    5       18    23  54    4.7887   392.3    8.152      33.193
2015    5       19     0   0    4.7965   392.3    8.172      33.252
2015    5       19     0   5    4.8043   392.4    8.191      33.314
2015    5       19     0  11    4.8121   392.4    8.211      33.377
2015    5       19     0  17    4.8197   392.5    8.230      33.441
2015    5       19     0  23    4.8274   392.5    8.248      33.506
2015    5       19     0  29    4.8349   392.5    8.266      33.571
2015    5       19     0  34    4.8424   392.6    8.283      33.637
2015    5       19     0  40    4.8497   392.6    8.300      33.702
2015    5       19     0  46    4.8570   392.7    8.316      33.767
2015    5       19     0  52    4.8642   392.7    8.331      33.831
2015    5       19     0  57    4.8712   392.8    8.346      33.895
2015    5       19     1   3    4.8782   392.8    8.361      33.957
2015    5       19     1   9    4.8851   392.9    8.374      34.018
2015    5       19     1  15    4.8920   392.9    8.387      34.078
2015    5       19     1  21    4.8987   393.0    8.400      34.137
2015    5       19     1  26    4.9054   393.0    8.412      34.195
2015    5       19     1  32    4.9120   393.1    8.424      34.251
2015    5       19     1  38    4.9185   393.1    8.435      34.307
2015    5       19     1  44    4.9250   393.2    8.446      34.361
2015    5       19     1  50    4.9314   393.2    8.456      34.414
2015    5       19     1  55    4.9377   393.3    8.467      34.466
2015    5       19     2   1    4.9440   393.3    8.476      34.517
2015    5       19     2   7    4.9502   393.4    8.486      34.567
2015    5       19     2  13    4.9564   393.4    8.495      34.616
2015    5       19     2  18    4.9626   393.4    8.504      34.665
2015    5       19     2  24    4.9687   393.5    8.513      34.712
2015    5       19     2  30    4.9748   393.5    8.522      34.759
2015    5       19     2  36    4.9808   393.6    8.530      34.805
2015    5       19     2  42    4.9868   393.6    8.538      34.850
2015    5       19     2  47    4.9928   393.6    8.546      34.895
2015    5       19     2  53    4.9988   393.7    8.554      34.939
2015    5       19     2  59    5.0048   393.7    8.562      34.983
2015    5       19     3   5    5.0107   393.7    8.570      35.025
2015    5       19     3  11    5.0166   393.8    8.577      35.068
2015    5       19     3  16    5.0225   393.8    8.585      35.110
2015    5       19     3  22    5.0284   393.8    8.592      35.151
2015    5       19     3  28    5.0342   393.8    8.599      35.192
2015    5       19     3  34    5.0401   393.9    8.606      35.233
2015    5       19     3  39    5.0459   393.9    8.613      35.273
2015    5       19     3  45    5.0517   393.9    8.620      35.313
2015    5       19     3  51    5.0575   394.0    8.628      35.352
2015    5       19     3  57    5.0634   394.0    8.634      35.391
2015    5       19     4   3    5.0692   394.0    8.641      35.430
2015    5       19     4   8    5.0750   394.1    8.648      35.468
2015    5       19     4  14    5.0808   394.1    8.655      35.507
2015    5       19     4  20    5.0866   394.1    8.662      35.545
2015    5       19     4  26    5.0923   394.1    8.669      35.583
2015    5       19     4  32    5.0982   394.2    8.676      35.620
2015    5       19     4  37    5.1039   394.2    8.683      35.658
2015    5       19     4  43    5.1097   394.2    8.690      35.695
2015    5       19     4  49    5.1155   394.3    8.697      35.732
2015    5       19     4  55    5.1213   394.3    8.704      35.769
2015    5       19     5   0    5.1271   394.3    8.712      35.806
2015    5       19     5   6    5.1329   394.3    8.719      35.843
2015    5       19     5  12    5.1387   394.4    8.727      35.880
2015    5       19     5  18    5.1446   394.4    8.734      35.917
2015    5       19     5  24    5.1504   394.4    8.742      35.954
2015    5       19     5  29    5.1563   394.5    8.750      35.991
2015    5       19     5  35    5.1621   394.5    8.759      36.029
2015    5       19     5  41    5.1680   394.5    8.767      36.066
2015    5       19     5  47    5.1739   394.6    8.776      36.103
2015    5       19     5  53    5.1799   394.6    8.785      36.141
2015    5       19     5  58    5.1858   394.6    8.795      36.180
2015    5       19     6   4    5.1919   394.7    8.805      36.218
2015    5       19     6  10    5.1979   394.7    8.816      36.257
2015    5       19     6  16    5.2041   394.7    8.826      36.297
2015    5       19     6  21    5.2102   394.8    8.838      36.337
2015    5       19     6  27    5.2165   394.8    8.850      36.377
2015    5       19     6  33    5.2228   394.8    8.863      36.418
2015    5       19     6  39    5.2292   394.9    8.876      36.459
2015    5       19     6  45    5.2357   394.9    8.890      36.502
2015    5       19     6  50    5.2422   395.0    8.904      36.548
2015    5       19     6  56    5.2488   395.0    8.918      36.596
2015    5       19     7   2    5.2554   395.1    8.933      36.647
2015    5       19     7   8    5.2621   395.1    8.948      36.700
2015    5       19     7  13    5.2687   395.2    8.963      36.756
2015    5       19     7  19    5.2754   395.3    8.979      36.814
2015    5       19     7  25    5.2821   395.4    8.994      36.874
2015    5       19     7  31    5.2887   395.4    9.009      36.936
2015    5       19     7  37    5.2954   395.5    9.025      36.998
2015    5       19     7  42    5.3021   395.6    9.040      37.062
2015    5       19     7  48    5.3087   395.7    9.056      37.125
2015    5       19     7  54    5.3154   395.8    9.072      37.188
2015    5       19     8   0    5.3221   395.8    9.088      37.252
2015    5       19     8   6    5.3288   395.9    9.104      37.317
2015    5       19     8  11    5.3355   396.0    9.119      37.384
2015    5       19     8  17    5.3423   396.1    9.135      37.454
2015    5       19     8  23    5.3490   396.2    9.151      37.526
2015    5       19     8  29    5.3557   396.3    9.166      37.600
2015    5       19     8  34    5.3624   396.5    9.180      37.676
2015    5       19     8  40    5.3690   396.6    9.195      37.755
2015    5       19     8  46    5.3755   396.7    9.208      37.835
2015    5       19     8  52    5.3820   396.8    9.221      37.916
2015    5       19     8  58    5.3883   397.0    9.234      37.998
2015    5       19     9   3    5.3945   397.1    9.245      38.078
2015    5       19     9   9    5.4006   397.2    9.257      38.157
2015    5       19     9  15    5.4066   397.3    9.267      38.235
2015    5       19     9  21    5.4125   397.5    9.277      38.312
2015    5       19     9  27    5.4183   397.6    9.286      38.388
2015    5       19     9  32    5.4239   397.7    9.295      38.463
2015    5       19     9  38    5.4294   397.8    9.303      38.538
2015    5       19     9  44    5.4349   398.0    9.310      38.611
2015    5       19     9  50    5.4402   398.1    9.317      38.684
2015    5       19     9  55    5.4454   398.2    9.324      38.755
2015    5       19    10   1    5.4506   398.4    9.330      38.825
2015    5       19    10   7    5.4556   398.5    9.335      38.895
2015    5       19    10  13    5.4606   398.6    9.340      38.963
2015    5       19    10  19    5.4655   398.8    9.345      39.030
2015    5       19    10  24    5.4703   398.9    9.349      39.096
2015    5       19    10  30    5.4749   399.0    9.352      39.160
2015    5       19    10  36    5.4796   399.2    9.355      39.224
2015    5       19    10  42    5.4841   399.3    9.358      39.285
2015    5       19    10  48    5.4885   399.4    9.360      39.346
2015    5       19    10  53    5.4928   399.5    9.362      39.405
2015    5       19    10  59    5.4971   399.7    9.364      39.462
2015    5       19    11   5    5.5013   399.8    9.365      39.519
2015    5       19    11  11    5.5054   399.9    9.366      39.573
2015    5       19    11  16    5.5094   400.1    9.366      39.627
2015    5       19    11  22    5.5134   400.2    9.366      39.679
2015    5       19    11  28    5.5173   400.3    9.366      39.730
2015    5       19    11  34    5.5211   400.4    9.366      39.780
2015    5       19    11  40    5.5249   400.6    9.365      39.828
2015    5       19    11  45    5.5287   400.7    9.365      39.876
2015    5       19    11  51    5.5324   400.8    9.364      39.922
2015    5       19    11  57    5.5361   400.9    9.363      39.968
2015    5       19    12   3    5.5397   401.0    9.361      40.012
2015    5       19    12   8    5.5433   401.2    9.360      40.056
2015    5       19    12  14    5.5468   401.3    9.358      40.098
2015    5       19    12  20    5.5503   401.4    9.357      40.140
2015    5       19    12  26    5.5539   401.5    9.355      40.181
2015    5       19    12  32    5.5573   401.6    9.353      40.221
2015    5       19    12  37    5.5608   401.7    9.352      40.260
2015    5       19    12  43    5.5643   401.9    9.350      40.299
2015    5       19    12  49    5.5677   402.0    9.348      40.337
2015    5       19    12  55    5.5711   402.1    9.346      40.375
2015    5       19    13   1    5.5745   402.2    9.345      40.412
2015    5       19    13   6    5.5779   402.3    9.343      40.449
2015    5       19    13  12    5.5814   402.4    9.341      40.485
2015    5       19    13  18    5.5848   402.5    9.340      40.521
2015    5       19    13  24    5.5882   402.7    9.338      40.557
2015    5       19    13  29    5.5916   402.8    9.337      40.592
2015    5       19    13  35    5.5950   402.9    9.336      40.627
2015    5       19    13  41    5.5985   403.0    9.335      40.662
2015    5       19    13  47    5.6020   403.1    9.334      40.697
2015    5       19    13  53    5.6054   403.2    9.333      40.732
2015    5       19    13  58    5.6089   403.3    9.332      40.767
2015    5       19    14   4    5.6124   403.4    9.332      40.801
2015    5       19    14  10    5.6159   403.5    9.332      40.836
2015    5       19    14  16    5.6195   403.7    9.332      40.870
2015    5       19    14  22    5.6231   403.8    9.332      40.904
2015    5       19    14  27    5.6266   403.9    9.333      40.939
2015    5       19    14  33    5.6303   404.0    9.334      40.973
2015    5       19    14  39    5.6339   404.1    9.335      41.008
2015    5       19    14  45    5.6376   404.2    9.337      41.043
2015    5       19    14  50    5.6414   404.3    9.339      41.078
2015    5       19    14  56    5.6452   404.4    9.342      41.114
2015    5       19    15   2    5.6491   404.5    9.346      41.150
2015    5       19    15   8    5.6530   404.6    9.350      41.187
2015    5       19    15  14    5.6570   404.7    9.355      41.223
2015    5       19    15  19    5.6612   404.8    9.360      41.260
2015    5       19    15  25    5.6654   404.9    9.366      41.299
2015    5       19    15  31    5.6697   405.0    9.373      41.341
2015    5       19    15  37    5.6741   405.1    9.380      41.387
2015    5       19    15  43    5.6786   405.2    9.388      41.435
2015    5       19    15  48    5.6830   405.4    9.396      41.486
2015    5       19    15  54    5.6875   405.5    9.404      41.541
2015    5       19    16   0    5.6920   405.6    9.412      41.599
2015    5       19    16   6    5.6965   405.8    9.420      41.660
2015    5       19    16  11    5.7009   405.9    9.428      41.721
2015    5       19    16  17    5.7053   406.0    9.437      41.783
2015    5       19    16  23    5.7097   406.2    9.445      41.846
2015    5       19    16  29    5.7141   406.3    9.454      41.909
2015    5       19    16  35    5.7184   406.5    9.462      41.973
2015    5       19    16  40    5.7227   406.6    9.471      42.037
2015    5       19    16  46    5.7271   406.7    9.480      42.101
2015    5       19    16  52    5.7314   406.9    9.490      42.166
2015    5       19    16  58    5.7356   407.0    9.499      42.234
2015    5       19    17   3    5.7399   407.2    9.508      42.304
2015    5       19    17   9    5.7440   407.4    9.517      42.376
2015    5       19    17  15    5.7481   407.5    9.526      42.450
2015    5       19    17  21    5.7520   407.7    9.535      42.524
2015    5       19    17  27    5.7558   407.9    9.543      42.601
2015    5       19    17  32    5.7595   408.1    9.550      42.679
2015    5       19    17  38    5.7630   408.3    9.556      42.757
2015    5       19    17  44    5.7664   408.5    9.562      42.833
2015    5       19    17  50    5.7696   408.7    9.566      42.907
2015    5       19    17  56    5.7726   408.9    9.570      42.979
2015    5       19    18   1    5.7755   409.1    9.573      43.050
2015    5       19    18   7    5.7782   409.3    9.575      43.118
2015    5       19    18  13    5.7808   409.5    9.576      43.184
2015    5       19    18  19    5.7832   409.7    9.577      43.249
2015    5       19    18  24    5.7854   409.9    9.576      43.311
2015    5       19    18  30    5.7875   410.1    9.575      43.372
2015    5       19    18  36    5.7895   410.3    9.573      43.430
2015    5       19    18  42    5.7914   410.5    9.570      43.486
2015    5       19    18  48    5.7932   410.7    9.567      43.541
2015    5       19    18  53    5.7949   410.9    9.564      43.594
2015    5       19    18  59    5.7966   411.1    9.559      43.646
2015    5       19    19   5    5.7981   411.3    9.555      43.696
2015    5       19    19  11    5.7997   411.5    9.550      43.744
2015    5       19    19  17    5.8012   411.7    9.544      43.792
2015    5       19    19  22    5.8026   411.9    9.538      43.838
2015    5       19    19  28    5.8041   412.1    9.532      43.883
2015    5       19    19  34    5.8055   412.3    9.526      43.928
2015    5       19    19  40    5.8069   412.5    9.520      43.971
2015    5       19    19  45    5.8083   412.7    9.513      44.013
2015    5       19    19  51    5.8096   412.9    9.506      44.055
2015    5       19    19  57    5.8110   413.1    9.500      44.096
2015    5       19    20   3    5.8123   413.3    9.493      44.137
2015    5       19    20   9    5.8137   413.5    9.486      44.177
2015    5       19    20  14    5.8151   413.7    9.479      44.217
2015    5       19    20  20    5.8165   413.9    9.472      44.256
2015    5       19    20  26    5.8180   414.1    9.466      44.295
2015    5       19    20  32    5.8195   414.3    9.460      44.333
2015    5       19    20  38    5.8211   414.5    9.453      44.373
2015    5       19    20  43    5.8227   414.7    9.447      44.414
2015    5       19    20  49    5.8244   414.9    9.441      44.456
2015    5       19    20  55    5.8260   415.1    9.435      44.500
2015    5       19    21   1    5.8277   415.3    9.429      44.545
2015    5       19    21   6    5.8293   415.5    9.423      44.592
2015    5       19    21  12    5.8309   415.7    9.417      44.639
2015    5       19    21  18    5.8324   416.0    9.411      44.686
2015    5       19    21  24    5.8339   416.2    9.404      44.732
2015    5       19    21  30    5.8353   416.4    9.397      44.777
2015    5       19    21  35    5.8366   416.7    9.390      44.821
2015    5       19    21  41    5.8377   416.9    9.382      44.864
2015    5       19    21  47    5.8388   417.1    9.374      44.905
2015    5       19    21  53    5.8397   417.3    9.365      44.944
2015    5       19    21  59    5.8405   417.6    9.356      44.982
2015    5       19    22   4    5.8413   417.8    9.347      45.017
2015    5       19    22  10    5.8419   418.0    9.337      45.051
2015    5       19    22  16    5.8425   418.3    9.328      45.083
2015    5       19    22  22    5.8429   418.5    9.318      45.114
2015    5       19    22  27    5.8434   418.7    9.308      45.143
2015    5       19    22  33    5.8438   418.9    9.298      45.171
2015    5       19    22  39    5.8441   419.1    9.288      45.197
2015    5       19    22  45    5.8444   419.3    9.278      45.222
2015    5       19    22  51    5.8447   419.5    9.268      45.246
2015    5       19    22  56    5.8449   419.7    9.258      45.269
2015    5       19    23   2    5.8451   419.9    9.249      45.291
2015    5       19    23   8    5.8453   420.1    9.240      45.314
2015    5       19    23  14    5.8455   420.3    9.231      45.336
2015    5       19    23  19    5.8456   420.5    9.222      45.357
2015    5       19    23  25    5.8458   420.6    9.214      45.379
2015    5       19    23  31    5.8459   420.8    9.206      45.401
2015    5       19    23  37    5.8462   421.0    9.199      45.423
2015    5       19    23  43    5.8464   421.2    9.192      45.446
2015    5       19    23  48    5.8467   421.3    9.185      45.469
2015    5       19    23  54    5.8471   421.5    9.180      45.492
2015    5       20     0   0    5.8475   421.7    9.174      45.513
2015    5       20     0   6    5.8479   421.8    9.170      45.537
2015    5       20     0  12    5.8484   422.0    9.166      45.564
2015    5       20     0  17    5.8489   422.2    9.162      45.593
2015    5       20     0  23    5.8493   422.4    9.158      45.625
2015    5       20     0  29    5.8497   422.6    9.155      45.657
2015    5       20     0  35    5.8500   422.8    9.151      45.692
2015    5       20     0  40    5.8502   423.0    9.147      45.730
2015    5       20     0  46    5.8504   423.2    9.143      45.769
2015    5       20     0  52    5.8504   423.4    9.138      45.809
2015    5       20     0  58    5.8503   423.6    9.133      45.847
2015    5       20     1   4    5.8502   423.8    9.127      45.885
2015    5       20     1   9    5.8499   424.0    9.121      45.921
2015    5       20     1  15    5.8495   424.2    9.114      45.957
2015    5       20     1  21    5.8490   424.4    9.107      45.992
2015    5       20     1  27    5.8483   424.6    9.099      46.026
2015    5       20     1  33    5.8476   424.8    9.090      46.059
2015    5       20     1  38    5.8467   425.1    9.082      46.090
2015    5       20     1  44    5.8458   425.3    9.072      46.120
2015    5       20     1  50    5.8448   425.5    9.062      46.149
2015    5       20     1  56    5.8437   425.7    9.052      46.177
2015    5       20     2   1    5.8426   425.9    9.041      46.204
2015    5       20     2   7    5.8414   426.1    9.030      46.230
2015    5       20     2  13    5.8401   426.4    9.018      46.255
2015    5       20     2  19    5.8388   426.6    9.006      46.278
2015    5       20     2  25    5.8374   426.8    8.994      46.301
2015    5       20     2  30    5.8361   427.0    8.982      46.323
2015    5       20     2  36    5.8346   427.2    8.970      46.344
2015    5       20     2  42    5.8332   427.5    8.957      46.365
2015    5       20     2  48    5.8317   427.7    8.944      46.384
2015    5       20     2  54    5.8302   427.9    8.931      46.403
2015    5       20     2  59    5.8287   428.1    8.918      46.422
2015    5       20     3   5    5.8272   428.3    8.905      46.439
2015    5       20     3  11    5.8257   428.5    8.892      46.456
2015    5       20     3  17    5.8241   428.8    8.879      46.473
2015    5       20     3  22    5.8225   429.0    8.866      46.489
2015    5       20     3  28    5.8210   429.2    8.853      46.505
2015    5       20     3  34    5.8194   429.4    8.840      46.521
2015    5       20     3  40    5.8179   429.6    8.827      46.537
2015    5       20     3  46    5.8163   429.9    8.814      46.553
2015    5       20     3  51    5.8148   430.1    8.802      46.569
2015    5       20     3  57    5.8133   430.3    8.789      46.587
2015    5       20     4   3    5.8117   430.5    8.777      46.606
2015    5       20     4   9    5.8102   430.7    8.764      46.628
2015    5       20     4  14    5.8085   431.0    8.752      46.651
2015    5       20     4  20    5.8068   431.2    8.739      46.675
2015    5       20     4  26    5.8050   431.5    8.725      46.700
2015    5       20     4  32    5.8031   431.8    8.712      46.725
2015    5       20     4  38    5.8010   432.0    8.697      46.748
2015    5       20     4  43    5.7987   432.3    8.682      46.769
2015    5       20     4  49    5.7962   432.6    8.667      46.789
2015    5       20     4  55    5.7934   432.8    8.650      46.806
2015    5       20     5   1    5.7904   433.1    8.632      46.820
2015    5       20     5   7    5.7872   433.4    8.613      46.830
2015    5       20     5  12    5.7837   433.6    8.594      46.836
2015    5       20     5  18    5.7799   433.9    8.574      46.839
2015    5       20     5  24    5.7760   434.1    8.554      46.838
2015    5       20     5  30    5.7719   434.4    8.533      46.835
2015    5       20     5  35    5.7677   434.6    8.513      46.829
2015    5       20     5  41    5.7634   434.9    8.492      46.820
2015    5       20     5  47    5.7590   435.1    8.471      46.811
2015    5       20     5  53    5.7546   435.3    8.450      46.801
2015    5       20     5  59    5.7502   435.5    8.430      46.790
2015    5       20     6   4    5.7457   435.8    8.410      46.779
2015    5       20     6  10    5.7412   436.0    8.389      46.767
2015    5       20     6  16    5.7367   436.2    8.369      46.755
2015    5       20     6  22    5.7323   436.4    8.350      46.743
2015    5       20     6  28    5.7277   436.6    8.330      46.731
2015    5       20     6  33    5.7232   436.8    8.311      46.720
2015    5       20     6  39    5.7187   437.0    8.292      46.708
2015    5       20     6  45    5.7142   437.2    8.273      46.697
2015    5       20     6  51    5.7097   437.4    8.254      46.686
2015    5       20     6  56    5.7052   437.6    8.235      46.675
2015    5       20     7   2    5.7007   437.8    8.217      46.665
2015    5       20     7   8    5.6962   438.0    8.198      46.654
2015    5       20     7  14    5.6917   438.2    8.180      46.643
2015    5       20     7  20    5.6872   438.4    8.161      46.632
2015    5       20     7  25    5.6826   438.6    8.143      46.621
2015    5       20     7  31    5.6781   438.8    8.125      46.610
2015    5       20     7  37    5.6735   438.9    8.106      46.599
2015    5       20     7  43    5.6689   439.1    8.088      46.587
2015    5       20     7  49    5.6643   439.3    8.070      46.574
2015    5       20     7  54    5.6597   439.5    8.052      46.562
2015    5       20     8   0    5.6550   439.7    8.033      46.549
2015    5       20     8   6    5.6503   439.9    8.015      46.536
2015    5       20     8  12    5.6456   440.1    7.997      46.523
2015    5       20     8  17    5.6408   440.3    7.978      46.509
2015    5       20     8  23    5.6360   440.4    7.960      46.496
2015    5       20     8  29    5.6312   440.6    7.941      46.481
2015    5       20     8  35    5.6264   440.8    7.923      46.467
2015    5       20     8  41    5.6215   441.0    7.904      46.452
2015    5       20     8  46    5.6165   441.2    7.885      46.435
2015    5       20     8  52    5.6114   441.4    7.865      46.417
2015    5       20     8  58    5.6064   441.5    7.846      46.398
2015    5       20     9   4    5.6013   441.7    7.827      46.377
2015    5       20     9  10    5.5961   441.9    7.807      46.353
2015    5       20     9  15    5.5909   442.0    7.788      46.327
2015    5       20     9  21    5.5856   442.2    7.769      46.299
2015    5       20     9  27    5.5803   442.3    7.750      46.270
2015    5       20     9  33    5.5750   442.5    7.731      46.239
2015    5       20     9  38    5.5697   442.6    7.712      46.207
2015    5       20     9  44    5.5643   442.8    7.693      46.175
2015    5       20     9  50    5.5590   442.9    7.674      46.142
2015    5       20     9  56    5.5536   443.1    7.656      46.108
2015    5       20    10   2    5.5482   443.2    7.637      46.074
2015    5       20    10   7    5.5427   443.4    7.619      46.040
2015    5       20    10  13    5.5374   443.5    7.601      46.005
2015    5       20    10  19    5.5319   443.6    7.582      45.969
2015    5       20    10  25    5.5265   443.8    7.564      45.934
2015    5       20    10  30    5.5211   443.9    7.546      45.898
2015    5       20    10  36    5.5156   444.1    7.529      45.861
2015    5       20    10  42    5.5102   444.2    7.511      45.825
2015    5       20    10  48    5.5047   444.3    7.493      45.789
2015    5       20    10  54    5.4991   444.5    7.476      45.754
2015    5       20    10  59    5.4936   444.6    7.458      45.719
2015    5       20    11   5    5.4880   444.8    7.440      45.684
2015    5       20    11  11    5.4824   444.9    7.423      45.649
2015    5       20    11  17    5.4767   445.0    7.405      45.614
2015    5       20    11  23    5.4710   445.2    7.388      45.579
2015    5       20    11  28    5.4653   445.3    7.370      45.544
2015    5       20    11  34    5.4596   445.5    7.353      45.509
2015    5       20    11  40    5.4538   445.6    7.335      45.473
2015    5       20    11  46    5.4480   445.7    7.317      45.436
2015    5       20    11  51    5.4420   445.9    7.298      45.398
2015    5       20    11  57    5.4360   446.0    7.280      45.359
2015    5       20    12   3    5.4299   446.1    7.261      45.319
2015    5       20    12   9    5.4238   446.3    7.242      45.279
2015    5       20    12  15    5.4175   446.4    7.222      45.234
2015    5       20    12  20    5.4111   446.5    7.203      45.187
2015    5       20    12  26    5.4046   446.7    7.183      45.138
2015    5       20    12  32    5.3981   446.8    7.163      45.088
2015    5       20    12  38    5.3915   446.9    7.142      45.036
2015    5       20    12  44    5.3849   447.0    7.122      44.984
2015    5       20    12  49    5.3782   447.1    7.103      44.929
2015    5       20    12  55    5.3716   447.2    7.083      44.875
2015    5       20    13   1    5.3650   447.2    7.064      44.821
2015    5       20    13   7    5.3584   447.3    7.046      44.769
2015    5       20    13  12    5.3520   447.4    7.028      44.717
2015    5       20    13  18    5.3456   447.5    7.010      44.665
2015    5       20    13  24    5.3392   447.6    6.992      44.614
2015    5       20    13  30    5.3330   447.6    6.975      44.563
2015    5       20    13  36    5.3268   447.7    6.959      44.512
2015    5       20    13  41    5.3206   447.8    6.943      44.462
2015    5       20    13  47    5.3146   447.9    6.927      44.413
2015    5       20    13  53    5.3086   447.9    6.912      44.364
2015    5       20    13  59    5.3026   448.0    6.897      44.316
2015    5       20    14   5    5.2968   448.1    6.883      44.269
2015    5       20    14  10    5.2909   448.1    6.869      44.223
2015    5       20    14  16    5.2851   448.2    6.855      44.177
2015    5       20    14  22    5.2793   448.3    6.842      44.132
2015    5       20    14  28    5.2736   448.3    6.829      44.087
2015    5       20    14  33    5.2679   448.4    6.817      44.044
2015    5       20    14  39    5.2622   448.5    6.804      44.001
2015    5       20    14  45    5.2566   448.5    6.792      43.958
2015    5       20    14  51    5.2510   448.6    6.781      43.917
2015    5       20    14  57    5.2454   448.7    6.769      43.876
2015    5       20    15   2    5.2397   448.8    6.757      43.836
2015    5       20    15   8    5.2341   448.8    6.746      43.796
2015    5       20    15  14    5.2285   448.9    6.735      43.757
2015    5       20    15  20    5.2229   449.0    6.724      43.719
2015    5       20    15  26    5.2173   449.0    6.712      43.681
2015    5       20    15  31    5.2116   449.1    6.701      43.643
2015    5       20    15  37    5.2059   449.2    6.690      43.605
2015    5       20    15  43    5.2002   449.3    6.678      43.567
2015    5       20    15  49    5.1945   449.3    6.667      43.529
2015    5       20    15  54    5.1887   449.4    6.655      43.490
2015    5       20    16   0    5.1829   449.4    6.644      43.450
2015    5       20    16   6    5.1771   449.5    6.632      43.407
2015    5       20    16  12    5.1713   449.5    6.620      43.363
2015    5       20    16  18    5.1654   449.5    6.609      43.318
2015    5       20    16  23    5.1596   449.6    6.597      43.271
2015    5       20    16  29    5.1537   449.6    6.585      43.223
2015    5       20    16  35    5.1479   449.6    6.574      43.174
2015    5       20    16  41    5.1420   449.6    6.562      43.125
2015    5       20    16  46    5.1362   449.6    6.551      43.076
2015    5       20    16  52    5.1304   449.7    6.540      43.027
2015    5       20    16  58    5.1246   449.7    6.529      42.979
2015    5       20    17   4    5.1189   449.7    6.518      42.930
2015    5       20    17  10    5.1132   449.7    6.507      42.881
2015    5       20    17  15    5.1075   449.7    6.496      42.833
2015    5       20    17  21    5.1018   449.7    6.486      42.784
2015    5       20    17  27    5.0962   449.7    6.475      42.736
2015    5       20    17  33    5.0906   449.7    6.465      42.687
2015    5       20    17  39    5.0850   449.7    6.454      42.639
2015    5       20    17  44    5.0795   449.7    6.444      42.590
2015    5       20    17  50    5.0740   449.7    6.434      42.542
2015    5       20    17  56    5.0685   449.7    6.424      42.493
2015    5       20    18   2    5.0630   449.7    6.414      42.444
2015    5       20    18   7    5.0575   449.7    6.404      42.396
2015    5       20    18  13    5.0520   449.7    6.394      42.347
2015    5       20    18  19    5.0466   449.7    6.385      42.299
2015    5       20    18  25    5.0412   449.6    6.375      42.251
2015    5       20    18  31    5.0358   449.6    6.366      42.203
2015    5       20    18  36    5.0305   449.6    6.356      42.156
2015    5       20    18  42    5.0252   449.6    6.347      42.108
2015    5       20    18  48    5.0199   449.6    6.338      42.061
2015    5       20    18  54    5.0147   449.5    6.329      42.014
2015    5       20    19   0    5.0095   449.5    6.320      41.967
2015    5       20    19   5    5.0043   449.5    6.311      41.921
2015    5       20    19  11    4.9992   449.5    6.303      41.875
2015    5       20    19  17    4.9941   449.4    6.294      41.829
2015    5       20    19  23    4.9891   449.4    6.286      41.784
2015    5       20    19  28    4.9840   449.4    6.277      41.739
2015    5       20    19  34    4.9791   449.3    6.269      41.694
2015    5       20    19  40    4.9741   449.3    6.261      41.650
2015    5       20    19  46    4.9692   449.3    6.253      41.606
2015    5       20    19  52    4.9644   449.2    6.244      41.564
2015    5       20    19  57    4.9596   449.2    6.236      41.521
2015    5       20    20   3    4.9549   449.2    6.228      41.479
2015    5       20    20   9    4.9502   449.1    6.220      41.438
2015    5       20    20  15    4.9455   449.1    6.213      41.396
2015    5       20    20  21    4.9410   449.0    6.205      41.355
2015    5       20    20  26    4.9364   449.0    6.197      41.313
2015    5       20    20  32    4.9319   449.0    6.190      41.271
2015    5       20    20  38    4.9275   448.9    6.183      41.229
2015    5       20    20  44    4.9231   448.9    6.175      41.186
2015    5       20    20  49    4.9187   448.8    6.168      41.143
2015    5       20    20  55    4.9144   448.8    6.162      41.100
2015    5       20    21   1    4.9101   448.7    6.155      41.056
2015    5       20    21   7    4.9058   448.7    6.148      41.013
2015    5       20    21  13    4.9016   448.7    6.142      40.969
2015    5       20    21  18    4.8974   448.6    6.136      40.926
2015    5       20    21  24    4.8933   448.6    6.131      40.883
2015    5       20    21  30    4.8891   448.5    6.125      40.840
2015    5       20    21  36    4.8850   448.5    6.120      40.798
2015    5       20    21  41    4.8810   448.5    6.115      40.756
2015    5       20    21  47    4.8769   448.4    6.110      40.715
2015    5       20    21  53    4.8728   448.4    6.105      40.675
2015    5       20    21  59    4.8688   448.3    6.101      40.635
2015    5       20    22   5    4.8648   448.3    6.096      40.596
2015    5       20    22  10    4.8608   448.3    6.092      40.557
2015    5       20    22  16    4.8568   448.2    6.088      40.519
2015    5       20    22  22    4.8529   448.2    6.085      40.482
2015    5       20    22  28    4.8489   448.1    6.081      40.446
2015    5       20    22  34    4.8449   448.1    6.078      40.411
2015    5       20    22  39    4.8410   448.1    6.074      40.376
2015    5       20    22  45    4.8370   448.0    6.071      40.342
2015    5       20    22  51    4.8331   448.0    6.068      40.308
2015    5       20    22  57    4.8292   448.0    6.065      40.275
2015    5       20    23   2    4.8253   447.9    6.061      40.243
2015    5       20    23   8    4.8214   447.9    6.058      40.212
2015    5       20    23  14    4.8175   447.8    6.055      40.181
2015    5       20    23  20    4.8137   447.8    6.052      40.151
2015    5       20    23  26    4.8099   447.7    6.049      40.121
2015    5       20    23  31    4.8061   447.7    6.046      40.091
2015    5       20    23  37    4.8023   447.6    6.043      40.062
2015    5       20    23  43    4.7985   447.6    6.040      40.034
2015    5       20    23  49    4.7947   447.5    6.037      40.006
2015    5       20    23  55    4.7910   447.5    6.034      39.978
2015    5       21     0   0    4.7873   447.4    6.031      39.950
2015    5       21     0   6    4.7836   447.3    6.028      39.923
2015    5       21     0  12    4.7800   447.3    6.025      39.897
2015    5       21     0  18    4.7763   447.2    6.022      39.871
2015    5       21     0  23    4.7727   447.2    6.020      39.845
2015    5       21     0  29    4.7692   447.1    6.017      39.819
2015    5       21     0  35    4.7656   447.1    6.014      39.794
2015    5       21     0  41    4.7621   447.0    6.011      39.768
2015    5       21     0  47    4.7586   446.9    6.008      39.742
2015    5       21     0  52    4.7551   446.9    6.006      39.717
2015    5       21     0  58    4.7516   446.8    6.003      39.691
2015    5       21     1   4    4.7482   446.8    6.000      39.664
2015    5       21     1  10    4.7448   446.7    5.997      39.638
2015    5       21     1  16    4.7414   446.6    5.995      39.612
2015    5       21     1  21    4.7381   446.6    5.992      39.585
2015    5       21     1  27    4.7347   446.5    5.990      39.559
2015    5       21     1  33    4.7314   446.4    5.987      39.532
2015    5       21     1  39    4.7281   446.4    5.984      39.505
2015    5       21     1  44    4.7248   446.3    5.982      39.478
2015    5       21     1  50    4.7215   446.3    5.979      39.450
2015    5       21     1  56    4.7183   446.2    5.977      39.423
2015    5       21     2   2    4.7151   446.1    5.974      39.395
2015    5       21     2   8    4.7119   446.1    5.972      39.367
2015    5       21     2  13    4.7086   446.0    5.969      39.340
2015    5       21     2  19    4.7055   445.9    5.966      39.311
2015    5       21     2  25    4.7023   445.9    5.964      39.283
2015    5       21     2  31    4.6991   445.8    5.961      39.255
2015    5       21     2  37    4.6960   445.7    5.959      39.226
2015    5       21     2  42    4.6928   445.7    5.956      39.197
2015    5       21     2  48    4.6897   445.6    5.954      39.169
2015    5       21     2  54    4.6866   445.5    5.951      39.140
2015    5       21     3   0    4.6834   445.4    5.948      39.111
2015    5       21     3   5    4.6803   445.4    5.946      39.081
2015    5       21     3  11    4.6772   445.3    5.943      39.052
2015    5       21     3  17    4.6741   445.2    5.940      39.023
2015    5       21     3  23    4.6710   445.2    5.938      38.993
2015    5       21     3  29    4.6680   445.1    5.935      38.964
2015    5       21     3  34    4.6649   445.0    5.932      38.934
2015    5       21     3  40    4.6619   444.9    5.930      38.904
2015    5       21     3  46    4.6588   444.9    5.927      38.874
2015    5       21     3  52    4.6558   444.8    5.924      38.844
2015    5       21     3  57    4.6528   444.7    5.922      38.814
2015    5       21     4   3    4.6498   444.7    5.919      38.784
2015    5       21     4   9    4.6467   444.6    5.916      38.754
2015    5       21     4  15    4.6438   444.5    5.913      38.723
2015    5       21     4  21    4.6408   444.4    5.911      38.693
2015    5       21     4  26    4.6378   444.4    5.908      38.662
2015    5       21     4  32    4.6349   444.3    5.905      38.631
2015    5       21     4  38    4.6319   444.2    5.903      38.601
2015    5       21     4  44    4.6290   444.1    5.900      38.570
2015    5       21     4  50    4.6260   444.1    5.897      38.539
2015    5       21     4  55    4.6231   444.0    5.895      38.508
2015    5       21     5   1    4.6202   443.9    5.892      38.477
2015    5       21     5   7    4.6173   443.8    5.889      38.446
2015    5       21     5  13    4.6145   443.8    5.887      38.415
2015    5       21     5  18    4.6116   443.7    5.884      38.384
2015    5       21     5  24    4.6087   443.6    5.882      38.353
2015    5       21     5  30    4.6059   443.5    5.879      38.322
2015    5       21     5  36    4.6031   443.5    5.877      38.291
2015    5       21     5  42    4.6003   443.4    5.874      38.260
2015    5       21     5  47    4.5975   443.3    5.872      38.229
2015    5       21     5  53    4.5947   443.2    5.870      38.198
2015    5       21     5  59    4.5919   443.2    5.867      38.167
2015    5       21     6   5    4.5892   443.1    5.865      38.137
2015    5       21     6  11    4.5864   443.0    5.863      38.106
2015    5       21     6  16    4.5837   442.9    5.861      38.076
2015    5       21     6  22    4.5810   442.8    5.859      38.045
2015    5       21     6  28    4.5783   442.8    5.857      38.015
2015    5       21     6  34    4.5756   442.7    5.855      37.985
2015    5       21     6  39    4.5730   442.6    5.853      37.955
2015    5       21     6  45    4.5703   442.5    5.851      37.925
2015    5       21     6  51    4.5677   442.4    5.849      37.896
2015    5       21     6  57    4.5651   442.4    5.847      37.866
2015    5       21     7   3    4.5625   442.3    5.845      37.837
2015    5       21     7   8    4.5599   442.2    5.844      37.807
2015    5       21     7  14    4.5573   442.1    5.842      37.779
2015    5       21     7  20    4.5547   442.0    5.840      37.750
2015    5       21     7  26    4.5522   442.0    5.839      37.721
2015    5       21     7  32    4.5497   441.9    5.837      37.692
2015    5       21     7  37    4.5471   441.8    5.835      37.664
2015    5       21     7  43    4.5446   441.7    5.834      37.636
2015    5       21     7  49    4.5421   441.6    5.832      37.608
2015    5       21     7  55    4.5396   441.5    5.831      37.580
2015    5       21     8   0    4.5372   441.5    5.830      37.552
2015    5       21     8   6    4.5347   441.4    5.828      37.524
2015    5       21     8  12    4.5323   441.3    5.827      37.496
2015    5       21     8  18    4.5298   441.2    5.825      37.469
2015    5       21     8  24    4.5274   441.1    5.824      37.442
2015    5       21     8  29    4.5250   441.0    5.823      37.414
2015    5       21     8  35    4.5226   440.9    5.821      37.387
2015    5       21     8  41    4.5202   440.9    5.820      37.360
2015    5       21     8  47    4.5179   440.8    5.819      37.334
2015    5       21     8  52    4.5155   440.7    5.818      37.307
2015    5       21     8  58    4.5132   440.6    5.816      37.280
2015    5       21     9   4    4.5108   440.5    5.815      37.253
2015    5       21     9  10    4.5085   440.4    5.814      37.226
2015    5       21     9  16    4.5062   440.3    5.813      37.200
2015    5       21     9  21    4.5038   440.2    5.812      37.173
2015    5       21     9  27    4.5015   440.2    5.810      37.147
2015    5       21     9  33    4.4992   440.1    5.809      37.120
2015    5       21     9  39    4.4970   440.0    5.808      37.094
2015    5       21     9  45    4.4947   439.9    5.807      37.067
2015    5       21     9  50    4.4924   439.8    5.806      37.041
2015    5       21     9  56    4.4902   439.7    5.805      37.014
2015    5       21    10   2    4.4879   439.6    5.803      36.987
2015    5       21    10   8    4.4857   439.5    5.802      36.961
2015    5       21    10  13    4.4834   439.4    5.801      36.934
2015    5       21    10  19    4.4812   439.3    5.800      36.908
2015    5       21    10  25    4.4790   439.3    5.799      36.881
2015    5       21    10  31    4.4768   439.2    5.798      36.854
2015    5       21    10  37    4.4746   439.1    5.797      36.828
2015    5       21    10  42    4.4724   439.0    5.795      36.801
2015    5       21    10  48    4.4702   438.9    5.794      36.774
2015    5       21    10  54    4.4680   438.8    5.793      36.747
2015    5       21    11   0    4.4658   438.7    5.792      36.721
2015    5       21    11   6    4.4637   438.6    5.791      36.694
2015    5       21    11  11    4.4615   438.5    5.790      36.667
2015    5       21    11  17    4.4593   438.4    5.789      36.640
2015    5       21    11  23    4.4572   438.3    5.788      36.613
2015    5       21    11  29    4.4551   438.2    5.787      36.586
2015    5       21    11  34    4.4530   438.1    5.786      36.559
2015    5       21    11  40    4.4508   438.0    5.785      36.532
2015    5       21    11  46    4.4487   437.9    5.784      36.505
2015    5       21    11  52    4.4466   437.8    5.783      36.478
2015    5       21    11  58    4.4445   437.7    5.782      36.451
2015    5       21    12   3    4.4425   437.6    5.781      36.424
2015    5       21    12   9    4.4404   437.6    5.780      36.397
2015    5       21    12  15    4.4383   437.5    5.779      36.369
2015    5       21    12  21    4.4363   437.4    5.778      36.342
2015    5       21    12  27    4.4342   437.3    5.777      36.315
2015    5       21    12  32    4.4322   437.2    5.777      36.288
2015    5       21    12  38    4.4302   437.1    5.776      36.261
2015    5       21    12  44    4.4281   437.0    5.775      36.233
2015    5       21    12  50    4.4261   436.9    5.774      36.206
2015    5       21    12  55    4.4241   436.8    5.773      36.179
2015    5       21    13   1    4.4221   436.7    5.773      36.152
2015    5       21    13   7    4.4201   436.6    5.772      36.125
2015    5       21    13  13    4.4181   436.5    5.771      36.097
2015    5       21    13  19    4.4162   436.4    5.770      36.070
2015    5       21    13  24    4.4142   436.3    5.770      36.043
2015    5       21    13  30    4.4122   436.2    5.769      36.016
2015    5       21    13  36    4.4103   436.1    5.768      35.988
2015    5       21    13  42    4.4083   436.0    5.768      35.961
2015    5       21    13  47    4.4064   435.9    5.767      35.933
2015    5       21    13  53    4.4044   435.8    5.766      35.906
2015    5       21    13  59    4.4025   435.7    5.766      35.878
2015    5       21    14   5    4.4006   435.6    5.765      35.851
2015    5       21    14  11    4.3986   435.5    5.764      35.823
2015    5       21    14  16    4.3967   435.4    5.764      35.795
2015    5       21    14  22    4.3948   435.3    5.763      35.768
2015    5       21    14  28    4.3929   435.2    5.762      35.740
2015    5       21    14  34    4.3910   435.1    5.762      35.712
2015    5       21    14  40    4.3891   435.0    5.761      35.684
2015    5       21    14  45    4.3872   434.9    5.761      35.656
2015    5       21    14  51    4.3853   434.8    5.760      35.629
2015    5       21    14  57    4.3834   434.7    5.759      35.600
2015    5       21    15   3    4.3815   434.6    5.759      35.572
2015    5       21    15   8    4.3796   434.5    5.758      35.544
2015    5       21    15  14    4.3778   434.4    5.758      35.517
2015    5       21    15  20    4.3759   434.3    5.757      35.489
2015    5       21    15  26    4.3741   434.2    5.756      35.461
2015    5       21    15  32    4.3722   434.0    5.756      35.432
2015    5       21    15  37    4.3704   433.9    5.755      35.404
2015    5       21    15  43    4.3686   433.8    5.755      35.377
2015    5       21    15  49    4.3668   433.7    5.754      35.349
2015    5       21    15  55    4.3650   433.6    5.754      35.321
2015    5       21    16   1    4.3632   433.5    5.753      35.293
2015    5       21    16   6    4.3614   433.4    5.753      35.265
2015    5       21    16  12    4.3596   433.3    5.752      35.237
2015    5       21    16  18    4.3579   433.2    5.752      35.210
2015    5       21    16  24    4.3561   433.1    5.752      35.182
2015    5       21    16  29    4.3544   433.0    5.751      35.155
2015    5       21    16  35    4.3527   432.9    5.751      35.127
2015    5       21    16  41    4.3510   432.8    5.751      35.100
2015    5       21    16  47    4.3493   432.7    5.750      35.073
2015    5       21    16  53    4.3476   432.6    5.750      35.046
2015    5       21    16  58    4.3459   432.5    5.750      35.019
2015    5       21    17   4    4.3442   432.4    5.750      34.992
2015    5       21    17  10    4.3426   432.3    5.750      34.966
2015    5       21    17  16    4.3410   432.2    5.749      34.939
2015    5       21    17  22    4.3393   432.1    5.749      34.913
2015    5       21    17  27    4.3377   431.9    5.749      34.887
2015    5       21    17  33    4.3361   431.8    5.749      34.861
2015    5       21    17  39    4.3345   431.7    5.749      34.835
2015    5       21    17  45    4.3329   431.6    5.749      34.809
2015    5       21    17  50    4.3313   431.5    5.749      34.783
2015    5       21    17  56    4.3298   431.4    5.749      34.757
2015    5       21    18   2    4.3282   431.3    5.749      34.732
2015    5       21    18   8    4.3266   431.2    5.749      34.706
2015    5       21    18  14    4.3251   431.1    5.749      34.681
2015    5       21    18  19    4.3235   431.0    5.749      34.655
2015    5       21    18  25    4.3220   430.9    5.749      34.630
2015    5       21    18  31    4.3204   430.8    5.749      34.605
2015    5       21    18  37    4.3189   430.7    5.749      34.579
2015    5       21    18  42    4.3174   430.6    5.748      34.554
2015    5       21    18  48    4.3158   430.5    5.748      34.529
2015    5       21    18  54    4.3143   430.4    5.748      34.504
2015    5       21    19   0    4.3128   430.3    5.748      34.478
2015    5       21    19   6    4.3113   430.1    5.748      34.453
2015    5       21    19  11    4.3097   430.0    5.748      34.427
2015    5       21    19  17    4.3082   429.9    5.748      34.402
2015    5       21    19  23    4.3067   429.8    5.748      34.376
2015    5       21    19  29    4.3052   429.7    5.748      34.351
2015    5       21    19  35    4.3037   429.6    5.747      34.325
2015    5       21    19  40    4.3022   429.5    5.747      34.300
2015    5       21    19  46    4.3007   429.4    5.747      34.274
2015    5       21    19  52    4.2992   429.3    5.747      34.248
2015    5       21    19  58    4.2978   429.2    5.747      34.222
2015    5       21    20   3    4.2963   429.1    5.747      34.196
2015    5       21    20   9    4.2948   429.0    5.746      34.170
2015    5       21    20  15    4.2933   428.9    5.746      34.144
2015    5       21    20  21    4.2919   428.8    5.746      34.118
2015    5       21    20  27    4.2904   428.6    5.746      34.092
2015    5       21    20  32    4.2889   428.5    5.745      34.065
2015    5       21    20  38    4.2874   428.4    5.745      34.039
2015    5       21    20  44    4.2860   428.3    5.745      34.012
2015    5       21    20  50    4.2845   428.2    5.745      33.986
2015    5       21    20  56    4.2830   428.1    5.744      33.959
2015    5       21    21   1    4.2816   428.0    5.744      33.932
2015    5       21    21   7    4.2801   427.9    5.744      33.905
2015    5       21    21  13    4.2786   427.8    5.743      33.878
2015    5       21    21  19    4.2772   427.7    5.743      33.851
2015    5       21    21  24    4.2757   427.6    5.743      33.824
2015    5       21    21  30    4.2743   427.4    5.743      33.797
2015    5       21    21  36    4.2728   427.3    5.742      33.770
2015    5       21    21  42    4.2714   427.2    5.742      33.743
2015    5       21    21  48    4.2699   427.1    5.741      33.715
2015    5       21    21  53    4.2685   427.0    5.741      33.688
2015    5       21    21  59    4.2670   426.9    5.741      33.660
2015    5       21    22   5    4.2656   426.8    5.740      33.633
2015    5       21    22  11    4.2641   426.7    5.740      33.605
2015    5       21    22  17    4.2627   426.6    5.740      33.578
2015    5       21    22  22    4.2613   426.4    5.739      33.550
2015    5       21    22  28    4.2599   426.3    5.739      33.523
2015    5       21    22  34    4.2584   426.2    5.739      33.495
2015    5       21    22  40    4.2570   426.1    5.739      33.468
2015    5       21    22  45    4.2556   426.0    5.738      33.440
2015    5       21    22  51    4.2542   425.9    5.738      33.412
2015    5       21    22  57    4.2528   425.8    5.738      33.385
2015    5       21    23   3    4.2514   425.7    5.738      33.357
2015    5       21    23   9    4.2501   425.5    5.737      33.330
2015    5       21    23  14    4.2487   425.4    5.737      33.302
2015    5       21    23  20    4.2473   425.3    5.737      33.275
2015    5       21    23  26    4.2460   425.2    5.737      33.247
2015    5       21    23  32    4.2447   425.1    5.737      33.220
2015    5       21    23  38    4.2433   425.0    5.737      33.193
2015    5       21    23  43    4.2420   424.9    5.737      33.166
2015    5       21    23  49    4.2407   424.7    5.737      33.139
2015    5       21    23  55    4.2394   424.6    5.737      33.112
2015    5       22     0   1    4.2381   424.5    5.738      33.086
