year    month   day   hour  minute  B_enl V_enl   n_enl       T_enl
[year] [month] [day] [hour][minute] [nT]  [km/s]  [cm-3]      [kK]
2015    5       12     0   1    4.9731   650.2    3.385      69.308
2015    5       12     0   7    4.9713   650.4    3.383      69.323
2015    5       12     0  13    4.9695   650.5    3.380      69.338
2015    5       12     0  18    4.9676   650.7    3.377      69.353
2015    5       12     0  24    4.9658   650.9    3.375      69.367
2015    5       12     0  30    4.9639   651.0    3.372      69.380
2015    5       12     0  36    4.9621   651.2    3.369      69.393
2015    5       12     0  41    4.9602   651.4    3.367      69.405
2015    5       12     0  47    4.9584   651.5    3.364      69.418
2015    5       12     0  53    4.9565   651.7    3.361      69.430
2015    5       12     0  59    4.9546   651.9    3.358      69.442
2015    5       12     1   4    4.9528   652.0    3.356      69.453
2015    5       12     1  10    4.9509   652.2    3.353      69.465
2015    5       12     1  16    4.9491   652.4    3.350      69.476
2015    5       12     1  22    4.9472   652.5    3.348      69.487
2015    5       12     1  27    4.9454   652.7    3.345      69.499
2015    5       12     1  33    4.9435   652.8    3.342      69.511
2015    5       12     1  39    4.9417   653.0    3.339      69.522
2015    5       12     1  45    4.9399   653.2    3.337      69.534
2015    5       12     1  50    4.9381   653.3    3.334      69.547
2015    5       12     1  56    4.9363   653.5    3.332      69.560
2015    5       12     2   2    4.9345   653.7    3.329      69.573
2015    5       12     2   8    4.9327   653.8    3.327      69.586
2015    5       12     2  13    4.9310   654.0    3.324      69.601
2015    5       12     2  19    4.9292   654.1    3.322      69.616
2015    5       12     2  25    4.9274   654.3    3.320      69.633
2015    5       12     2  31    4.9257   654.5    3.317      69.650
2015    5       12     2  36    4.9239   654.7    3.315      69.668
2015    5       12     2  42    4.9221   654.8    3.312      69.686
2015    5       12     2  48    4.9204   655.0    3.310      69.704
2015    5       12     2  54    4.9186   655.2    3.308      69.720
2015    5       12     2  59    4.9167   655.4    3.305      69.737
2015    5       12     3   5    4.9149   655.5    3.303      69.752
2015    5       12     3  11    4.9131   655.7    3.300      69.768
2015    5       12     3  17    4.9112   655.9    3.297      69.782
2015    5       12     3  22    4.9094   656.1    3.295      69.797
2015    5       12     3  28    4.9075   656.2    3.292      69.810
2015    5       12     3  34    4.9057   656.4    3.290      69.824
2015    5       12     3  40    4.9038   656.6    3.287      69.837
2015    5       12     3  45    4.9019   656.8    3.284      69.849
2015    5       12     3  51    4.9000   656.9    3.282      69.861
2015    5       12     3  57    4.8981   657.1    3.279      69.872
2015    5       12     4   3    4.8962   657.3    3.276      69.883
2015    5       12     4   8    4.8943   657.5    3.274      69.894
2015    5       12     4  14    4.8923   657.6    3.271      69.903
2015    5       12     4  20    4.8904   657.8    3.268      69.913
2015    5       12     4  26    4.8884   658.0    3.266      69.921
2015    5       12     4  31    4.8864   658.1    3.263      69.930
2015    5       12     4  37    4.8845   658.3    3.260      69.937
2015    5       12     4  43    4.8825   658.5    3.257      69.945
2015    5       12     4  49    4.8805   658.7    3.255      69.951
2015    5       12     4  54    4.8785   658.8    3.252      69.958
2015    5       12     5   0    4.8765   659.0    3.249      69.964
2015    5       12     5   6    4.8745   659.2    3.246      69.970
2015    5       12     5  12    4.8725   659.3    3.244      69.976
2015    5       12     5  17    4.8704   659.5    3.241      69.982
2015    5       12     5  23    4.8684   659.7    3.238      69.988
2015    5       12     5  29    4.8663   659.9    3.235      69.993
2015    5       12     5  35    4.8643   660.0    3.233      69.999
2015    5       12     5  40    4.8622   660.2    3.230      70.004
2015    5       12     5  46    4.8601   660.4    3.227      70.009
2015    5       12     5  52    4.8579   660.5    3.225      70.015
2015    5       12     5  58    4.8558   660.7    3.222      70.020
2015    5       12     6   4    4.8537   660.9    3.219      70.025
2015    5       12     6   9    4.8515   661.0    3.217      70.031
2015    5       12     6  15    4.8493   661.2    3.214      70.036
2015    5       12     6  21    4.8471   661.4    3.211      70.042
2015    5       12     6  27    4.8449   661.5    3.209      70.048
2015    5       12     6  32    4.8426   661.7    3.206      70.055
2015    5       12     6  38    4.8403   661.9    3.203      70.061
2015    5       12     6  44    4.8381   662.0    3.201      70.068
2015    5       12     6  50    4.8358   662.2    3.198      70.076
2015    5       12     6  55    4.8335   662.4    3.195      70.083
2015    5       12     7   1    4.8312   662.5    3.193      70.090
2015    5       12     7   7    4.8289   662.7    3.190      70.097
2015    5       12     7  13    4.8266   662.8    3.187      70.104
2015    5       12     7  18    4.8242   663.0    3.184      70.111
2015    5       12     7  24    4.8219   663.1    3.181      70.117
2015    5       12     7  30    4.8196   663.3    3.178      70.123
2015    5       12     7  36    4.8172   663.5    3.175      70.128
2015    5       12     7  41    4.8149   663.6    3.173      70.132
2015    5       12     7  47    4.8125   663.8    3.170      70.137
2015    5       12     7  53    4.8102   663.9    3.167      70.140
2015    5       12     7  59    4.8079   664.1    3.164      70.143
2015    5       12     8   4    4.8055   664.2    3.161      70.146
2015    5       12     8  10    4.8032   664.4    3.158      70.148
2015    5       12     8  16    4.8008   664.5    3.155      70.149
2015    5       12     8  22    4.7985   664.7    3.152      70.150
2015    5       12     8  27    4.7961   664.8    3.149      70.151
2015    5       12     8  33    4.7938   665.0    3.146      70.151
2015    5       12     8  39    4.7915   665.1    3.142      70.151
2015    5       12     8  45    4.7891   665.3    3.139      70.150
2015    5       12     8  50    4.7868   665.4    3.136      70.149
2015    5       12     8  56    4.7844   665.6    3.133      70.148
2015    5       12     9   2    4.7821   665.7    3.130      70.146
2015    5       12     9   8    4.7798   665.9    3.127      70.145
2015    5       12     9  13    4.7774   666.0    3.124      70.143
2015    5       12     9  19    4.7751   666.2    3.121      70.140
2015    5       12     9  25    4.7728   666.3    3.118      70.138
2015    5       12     9  31    4.7705   666.5    3.115      70.136
2015    5       12     9  36    4.7681   666.6    3.112      70.134
2015    5       12     9  42    4.7658   666.8    3.109      70.131
2015    5       12     9  48    4.7634   666.9    3.106      70.129
2015    5       12     9  54    4.7611   667.1    3.104      70.127
2015    5       12     9  59    4.7588   667.2    3.101      70.125
2015    5       12    10   5    4.7564   667.4    3.098      70.123
2015    5       12    10  11    4.7541   667.5    3.095      70.121
2015    5       12    10  17    4.7517   667.7    3.092      70.120
2015    5       12    10  22    4.7493   667.8    3.090      70.118
2015    5       12    10  28    4.7469   667.9    3.087      70.117
2015    5       12    10  34    4.7445   668.1    3.084      70.116
2015    5       12    10  40    4.7421   668.2    3.082      70.114
2015    5       12    10  45    4.7397   668.4    3.079      70.113
2015    5       12    10  51    4.7372   668.5    3.076      70.112
2015    5       12    10  57    4.7348   668.7    3.074      70.111
2015    5       12    11   3    4.7323   668.8    3.071      70.110
2015    5       12    11   8    4.7298   669.0    3.069      70.108
2015    5       12    11  14    4.7273   669.1    3.066      70.107
2015    5       12    11  20    4.7248   669.2    3.064      70.105
2015    5       12    11  26    4.7222   669.4    3.061      70.103
2015    5       12    11  31    4.7197   669.5    3.059      70.101
2015    5       12    11  37    4.7171   669.6    3.056      70.098
2015    5       12    11  43    4.7146   669.8    3.053      70.095
2015    5       12    11  49    4.7120   669.9    3.051      70.092
2015    5       12    11  54    4.7093   670.1    3.048      70.088
2015    5       12    12   0    4.7067   670.2    3.046      70.084
2015    5       12    12   6    4.7041   670.3    3.043      70.080
2015    5       12    12  12    4.7014   670.5    3.041      70.075
2015    5       12    12  17    4.6988   670.6    3.038      70.070
2015    5       12    12  23    4.6961   670.7    3.036      70.064
2015    5       12    12  29    4.6934   670.8    3.033      70.058
2015    5       12    12  35    4.6907   671.0    3.030      70.051
2015    5       12    12  40    4.6880   671.1    3.028      70.044
2015    5       12    12  46    4.6853   671.2    3.025      70.037
2015    5       12    12  52    4.6825   671.3    3.023      70.029
2015    5       12    12  58    4.6798   671.4    3.020      70.022
2015    5       12    13   3    4.6770   671.6    3.018      70.014
2015    5       12    13   9    4.6743   671.7    3.015      70.005
2015    5       12    13  15    4.6715   671.8    3.013      69.997
2015    5       12    13  21    4.6688   671.9    3.010      69.988
2015    5       12    13  26    4.6660   672.0    3.007      69.979
2015    5       12    13  32    4.6632   672.1    3.005      69.970
2015    5       12    13  38    4.6604   672.2    3.002      69.961
2015    5       12    13  44    4.6577   672.3    3.000      69.952
2015    5       12    13  49    4.6549   672.4    2.997      69.942
2015    5       12    13  55    4.6521   672.5    2.995      69.933
2015    5       12    14   1    4.6494   672.6    2.992      69.923
2015    5       12    14   7    4.6466   672.7    2.990      69.913
2015    5       12    14  12    4.6438   672.8    2.988      69.902
2015    5       12    14  18    4.6411   672.9    2.985      69.892
2015    5       12    14  24    4.6383   673.0    2.983      69.881
2015    5       12    14  30    4.6356   673.1    2.980      69.870
2015    5       12    14  35    4.6328   673.2    2.977      69.858
2015    5       12    14  41    4.6301   673.3    2.975      69.846
2015    5       12    14  47    4.6273   673.4    2.972      69.833
2015    5       12    14  53    4.6246   673.5    2.970      69.819
2015    5       12    14  58    4.6219   673.6    2.967      69.804
2015    5       12    15   4    4.6192   673.7    2.965      69.789
2015    5       12    15  10    4.6165   673.8    2.962      69.772
2015    5       12    15  16    4.6137   673.9    2.959      69.756
2015    5       12    15  22    4.6110   673.9    2.957      69.739
2015    5       12    15  27    4.6083   674.0    2.954      69.721
2015    5       12    15  33    4.6056   674.1    2.951      69.702
2015    5       12    15  39    4.6029   674.2    2.949      69.683
2015    5       12    15  45    4.6002   674.3    2.946      69.664
2015    5       12    15  50    4.5975   674.4    2.943      69.644
2015    5       12    15  56    4.5949   674.4    2.940      69.623
2015    5       12    16   2    4.5922   674.5    2.938      69.602
2015    5       12    16   8    4.5895   674.6    2.935      69.581
2015    5       12    16  13    4.5868   674.7    2.932      69.559
2015    5       12    16  19    4.5842   674.8    2.930      69.537
2015    5       12    16  25    4.5815   674.8    2.927      69.515
2015    5       12    16  31    4.5788   674.9    2.924      69.493
2015    5       12    16  36    4.5762   675.0    2.922      69.470
2015    5       12    16  42    4.5735   675.1    2.919      69.448
2015    5       12    16  48    4.5709   675.2    2.917      69.426
2015    5       12    16  54    4.5682   675.2    2.914      69.404
2015    5       12    16  59    4.5656   675.3    2.912      69.382
2015    5       12    17   5    4.5630   675.4    2.909      69.360
2015    5       12    17  11    4.5603   675.5    2.907      69.338
2015    5       12    17  17    4.5577   675.5    2.905      69.317
2015    5       12    17  22    4.5551   675.6    2.903      69.296
2015    5       12    17  28    4.5524   675.7    2.900      69.275
2015    5       12    17  34    4.5498   675.8    2.898      69.254
2015    5       12    17  40    4.5471   675.8    2.896      69.234
2015    5       12    17  45    4.5445   675.9    2.894      69.214
2015    5       12    17  51    4.5418   676.0    2.892      69.195
2015    5       12    17  57    4.5391   676.1    2.890      69.175
2015    5       12    18   3    4.5364   676.1    2.888      69.157
2015    5       12    18   8    4.5337   676.2    2.886      69.138
2015    5       12    18  14    4.5310   676.3    2.884      69.120
2015    5       12    18  20    4.5283   676.3    2.882      69.102
2015    5       12    18  26    4.5255   676.4    2.880      69.084
2015    5       12    18  31    4.5228   676.5    2.878      69.067
2015    5       12    18  37    4.5200   676.6    2.876      69.049
2015    5       12    18  43    4.5172   676.6    2.874      69.032
2015    5       12    18  49    4.5145   676.7    2.873      69.015
2015    5       12    18  54    4.5117   676.8    2.871      68.998
2015    5       12    19   0    4.5089   676.8    2.869      68.981
2015    5       12    19   6    4.5061   676.9    2.867      68.965
2015    5       12    19  12    4.5033   676.9    2.865      68.948
2015    5       12    19  17    4.5005   677.0    2.864      68.931
2015    5       12    19  23    4.4977   677.1    2.862      68.915
2015    5       12    19  29    4.4948   677.1    2.860      68.898
2015    5       12    19  35    4.4920   677.2    2.858      68.882
2015    5       12    19  40    4.4892   677.2    2.857      68.865
2015    5       12    19  46    4.4864   677.3    2.855      68.848
2015    5       12    19  52    4.4835   677.3    2.853      68.831
2015    5       12    19  58    4.4807   677.4    2.851      68.814
2015    5       12    20   3    4.4779   677.4    2.850      68.797
2015    5       12    20   9    4.4751   677.5    2.848      68.779
2015    5       12    20  15    4.4723   677.5    2.846      68.761
2015    5       12    20  21    4.4695   677.6    2.844      68.743
2015    5       12    20  26    4.4667   677.6    2.843      68.725
2015    5       12    20  32    4.4639   677.7    2.841      68.706
2015    5       12    20  38    4.4611   677.7    2.839      68.687
2015    5       12    20  44    4.4584   677.7    2.837      68.668
2015    5       12    20  49    4.4556   677.8    2.836      68.648
2015    5       12    20  55    4.4529   677.8    2.834      68.628
2015    5       12    21   1    4.4501   677.8    2.832      68.607
2015    5       12    21   7    4.4474   677.9    2.830      68.586
2015    5       12    21  12    4.4448   677.9    2.829      68.564
2015    5       12    21  18    4.4421   677.9    2.827      68.542
2015    5       12    21  24    4.4394   677.9    2.825      68.520
2015    5       12    21  30    4.4368   678.0    2.823      68.497
2015    5       12    21  35    4.4342   678.0    2.822      68.473
2015    5       12    21  41    4.4316   678.0    2.820      68.449
2015    5       12    21  47    4.4290   678.0    2.818      68.424
2015    5       12    21  53    4.4264   678.0    2.816      68.398
2015    5       12    21  58    4.4238   678.1    2.815      68.371
2015    5       12    22   4    4.4212   678.1    2.813      68.344
2015    5       12    22  10    4.4187   678.1    2.811      68.316
2015    5       12    22  16    4.4161   678.1    2.809      68.287
2015    5       12    22  21    4.4136   678.1    2.807      68.258
2015    5       12    22  27    4.4110   678.1    2.805      68.228
2015    5       12    22  33    4.4085   678.1    2.803      68.197
2015    5       12    22  39    4.4059   678.1    2.802      68.166
2015    5       12    22  44    4.4034   678.2    2.800      68.134
2015    5       12    22  50    4.4008   678.2    2.798      68.102
2015    5       12    22  56    4.3983   678.2    2.796      68.069
2015    5       12    23   2    4.3958   678.2    2.794      68.036
2015    5       12    23   7    4.3933   678.2    2.792      68.003
2015    5       12    23  13    4.3907   678.2    2.790      67.969
2015    5       12    23  19    4.3882   678.2    2.788      67.935
2015    5       12    23  25    4.3857   678.2    2.787      67.901
2015    5       12    23  30    4.3832   678.2    2.785      67.868
2015    5       12    23  36    4.3808   678.2    2.783      67.834
2015    5       12    23  42    4.3783   678.2    2.781      67.801
2015    5       12    23  48    4.3758   678.2    2.779      67.767
2015    5       12    23  53    4.3734   678.1    2.778      67.735
2015    5       12    23  59    4.3709   678.1    2.776      67.702
2015    5       13     0   5    4.3685   678.1    2.774      67.670
2015    5       13     0  11    4.3661   678.1    2.773      67.639
2015    5       13     0  16    4.3637   678.1    2.771      67.608
2015    5       13     0  22    4.3613   678.1    2.770      67.578
2015    5       13     0  28    4.3589   678.1    2.768      67.548
2015    5       13     0  34    4.3565   678.1    2.767      67.519
2015    5       13     0  39    4.3541   678.1    2.766      67.490
2015    5       13     0  45    4.3517   678.1    2.764      67.462
2015    5       13     0  51    4.3493   678.1    2.763      67.435
2015    5       13     0  57    4.3469   678.1    2.762      67.408
2015    5       13     1   2    4.3445   678.1    2.761      67.382
2015    5       13     1   8    4.3421   678.1    2.759      67.356
2015    5       13     1  14    4.3397   678.2    2.758      67.330
2015    5       13     1  20    4.3373   678.2    2.757      67.305
2015    5       13     1  26    4.3348   678.2    2.756      67.279
2015    5       13     1  31    4.3324   678.2    2.755      67.255
2015    5       13     1  37    4.3299   678.2    2.754      67.230
2015    5       13     1  43    4.3274   678.2    2.753      67.206
2015    5       13     1  49    4.3249   678.2    2.751      67.181
2015    5       13     1  54    4.3224   678.2    2.750      67.157
2015    5       13     2   0    4.3200   678.2    2.749      67.133
2015    5       13     2   6    4.3175   678.2    2.748      67.108
2015    5       13     2  12    4.3149   678.2    2.747      67.084
2015    5       13     2  17    4.3124   678.2    2.745      67.060
2015    5       13     2  23    4.3099   678.2    2.744      67.035
2015    5       13     2  29    4.3074   678.2    2.743      67.010
2015    5       13     2  35    4.3049   678.1    2.742      66.986
2015    5       13     2  40    4.3024   678.1    2.741      66.961
2015    5       13     2  46    4.2999   678.1    2.739      66.936
2015    5       13     2  52    4.2974   678.1    2.738      66.911
2015    5       13     2  58    4.2949   678.1    2.737      66.885
2015    5       13     3   3    4.2923   678.1    2.735      66.860
2015    5       13     3   9    4.2898   678.1    2.734      66.834
2015    5       13     3  15    4.2873   678.1    2.733      66.808
2015    5       13     3  21    4.2849   678.1    2.732      66.782
2015    5       13     3  26    4.2824   678.1    2.730      66.756
2015    5       13     3  32    4.2799   678.0    2.729      66.730
2015    5       13     3  38    4.2775   678.0    2.728      66.703
2015    5       13     3  44    4.2750   678.0    2.727      66.676
2015    5       13     3  49    4.2726   678.0    2.725      66.650
2015    5       13     3  55    4.2702   678.0    2.724      66.623
2015    5       13     4   1    4.2678   677.9    2.723      66.597
2015    5       13     4   7    4.2654   677.9    2.722      66.570
2015    5       13     4  12    4.2631   677.9    2.721      66.544
2015    5       13     4  18    4.2608   677.9    2.720      66.518
2015    5       13     4  24    4.2585   677.8    2.719      66.492
2015    5       13     4  30    4.2562   677.8    2.718      66.466
2015    5       13     4  35    4.2539   677.8    2.717      66.441
2015    5       13     4  41    4.2517   677.8    2.716      66.416
2015    5       13     4  47    4.2495   677.7    2.715      66.392
2015    5       13     4  53    4.2474   677.7    2.714      66.368
2015    5       13     4  58    4.2452   677.7    2.714      66.344
2015    5       13     5   4    4.2430   677.7    2.713      66.320
2015    5       13     5  10    4.2409   677.6    2.712      66.296
2015    5       13     5  16    4.2387   677.6    2.712      66.273
2015    5       13     5  21    4.2365   677.6    2.711      66.249
2015    5       13     5  27    4.2343   677.5    2.711      66.225
2015    5       13     5  33    4.2321   677.5    2.710      66.201
2015    5       13     5  39    4.2298   677.5    2.710      66.177
2015    5       13     5  44    4.2276   677.4    2.709      66.152
2015    5       13     5  50    4.2253   677.4    2.709      66.127
2015    5       13     5  56    4.2231   677.4    2.708      66.101
2015    5       13     6   2    4.2208   677.3    2.707      66.075
2015    5       13     6   7    4.2185   677.3    2.707      66.048
2015    5       13     6  13    4.2162   677.2    2.706      66.020
2015    5       13     6  19    4.2140   677.2    2.706      65.992
2015    5       13     6  25    4.2117   677.1    2.705      65.963
2015    5       13     6  30    4.2094   677.1    2.704      65.934
2015    5       13     6  36    4.2071   677.0    2.703      65.905
2015    5       13     6  42    4.2049   677.0    2.703      65.875
2015    5       13     6  48    4.2026   676.9    2.702      65.844
2015    5       13     6  53    4.2003   676.9    2.701      65.814
2015    5       13     6  59    4.1981   676.8    2.700      65.784
2015    5       13     7   5    4.1958   676.7    2.700      65.753
2015    5       13     7  11    4.1936   676.7    2.699      65.722
2015    5       13     7  16    4.1914   676.6    2.698      65.692
2015    5       13     7  22    4.1892   676.6    2.697      65.661
2015    5       13     7  28    4.1870   676.5    2.697      65.630
2015    5       13     7  34    4.1848   676.4    2.696      65.600
2015    5       13     7  39    4.1826   676.4    2.695      65.570
2015    5       13     7  45    4.1804   676.3    2.694      65.539
2015    5       13     7  51    4.1783   676.3    2.693      65.509
2015    5       13     7  57    4.1761   676.2    2.693      65.479
2015    5       13     8   2    4.1740   676.1    2.692      65.450
2015    5       13     8   8    4.1718   676.1    2.691      65.420
2015    5       13     8  14    4.1697   676.0    2.690      65.390
2015    5       13     8  20    4.1676   676.0    2.689      65.361
2015    5       13     8  25    4.1654   675.9    2.689      65.331
2015    5       13     8  31    4.1633   675.8    2.688      65.301
2015    5       13     8  37    4.1612   675.8    2.687      65.271
2015    5       13     8  43    4.1590   675.7    2.686      65.241
2015    5       13     8  48    4.1569   675.7    2.685      65.211
2015    5       13     8  54    4.1547   675.6    2.684      65.181
2015    5       13     9   0    4.1526   675.5    2.683      65.150
2015    5       13     9   6    4.1505   675.5    2.682      65.119
2015    5       13     9  11    4.1483   675.4    2.681      65.087
2015    5       13     9  17    4.1462   675.4    2.680      65.055
2015    5       13     9  23    4.1441   675.3    2.679      65.022
2015    5       13     9  29    4.1420   675.2    2.678      64.989
2015    5       13     9  34    4.1399   675.2    2.677      64.956
2015    5       13     9  40    4.1378   675.1    2.675      64.921
2015    5       13     9  46    4.1357   675.0    2.674      64.886
2015    5       13     9  52    4.1336   675.0    2.673      64.851
2015    5       13     9  57    4.1315   674.9    2.672      64.816
2015    5       13    10   3    4.1294   674.8    2.670      64.779
2015    5       13    10   9    4.1273   674.8    2.669      64.743
2015    5       13    10  15    4.1253   674.7    2.668      64.706
2015    5       13    10  20    4.1232   674.6    2.667      64.668
2015    5       13    10  26    4.1211   674.6    2.665      64.630
2015    5       13    10  32    4.1191   674.5    2.664      64.592
2015    5       13    10  38    4.1170   674.4    2.663      64.553
2015    5       13    10  43    4.1150   674.3    2.661      64.514
2015    5       13    10  49    4.1129   674.3    2.660      64.475
2015    5       13    10  55    4.1109   674.2    2.659      64.436
2015    5       13    11   1    4.1089   674.1    2.657      64.397
2015    5       13    11   7    4.1069   674.0    2.656      64.359
2015    5       13    11  12    4.1049   674.0    2.655      64.320
2015    5       13    11  18    4.1029   673.9    2.654      64.282
2015    5       13    11  24    4.1010   673.8    2.653      64.245
2015    5       13    11  30    4.0990   673.7    2.652      64.209
2015    5       13    11  35    4.0971   673.7    2.651      64.173
2015    5       13    11  41    4.0952   673.6    2.650      64.138
2015    5       13    11  47    4.0933   673.5    2.649      64.104
2015    5       13    11  53    4.0914   673.4    2.648      64.071
2015    5       13    11  58    4.0895   673.3    2.647      64.039
2015    5       13    12   4    4.0877   673.3    2.647      64.009
2015    5       13    12  10    4.0859   673.2    2.646      63.980
2015    5       13    12  16    4.0840   673.1    2.646      63.952
2015    5       13    12  21    4.0822   673.0    2.646      63.925
2015    5       13    12  27    4.0803   673.0    2.646      63.899
2015    5       13    12  33    4.0785   672.9    2.646      63.874
2015    5       13    12  39    4.0766   672.8    2.646      63.850
2015    5       13    12  44    4.0747   672.7    2.646      63.827
2015    5       13    12  50    4.0727   672.7    2.646      63.804
2015    5       13    12  56    4.0707   672.6    2.646      63.782
2015    5       13    13   2    4.0687   672.5    2.646      63.760
2015    5       13    13   7    4.0667   672.5    2.646      63.738
2015    5       13    13  13    4.0647   672.4    2.646      63.716
2015    5       13    13  19    4.0626   672.3    2.646      63.694
2015    5       13    13  25    4.0605   672.2    2.647      63.671
2015    5       13    13  30    4.0584   672.1    2.647      63.648
2015    5       13    13  36    4.0563   672.0    2.647      63.625
2015    5       13    13  42    4.0542   672.0    2.647      63.601
2015    5       13    13  48    4.0521   671.9    2.647      63.577
2015    5       13    13  53    4.0499   671.8    2.647      63.552
2015    5       13    13  59    4.0478   671.7    2.647      63.526
2015    5       13    14   5    4.0457   671.6    2.647      63.500
2015    5       13    14  11    4.0436   671.5    2.647      63.474
2015    5       13    14  16    4.0414   671.4    2.647      63.447
2015    5       13    14  22    4.0393   671.3    2.647      63.419
2015    5       13    14  28    4.0372   671.2    2.647      63.392
2015    5       13    14  34    4.0351   671.1    2.647      63.363
2015    5       13    14  39    4.0329   671.0    2.647      63.334
2015    5       13    14  45    4.0309   670.9    2.647      63.305
2015    5       13    14  51    4.0287   670.8    2.646      63.275
2015    5       13    14  57    4.0267   670.7    2.646      63.245
2015    5       13    15   2    4.0246   670.6    2.646      63.214
2015    5       13    15   8    4.0225   670.5    2.646      63.183
2015    5       13    15  14    4.0204   670.4    2.645      63.152
2015    5       13    15  20    4.0184   670.3    2.645      63.121
2015    5       13    15  25    4.0164   670.1    2.645      63.089
2015    5       13    15  31    4.0143   670.0    2.644      63.057
2015    5       13    15  37    4.0123   669.9    2.644      63.025
2015    5       13    15  43    4.0103   669.8    2.644      62.992
2015    5       13    15  48    4.0083   669.7    2.643      62.960
2015    5       13    15  54    4.0064   669.6    2.643      62.926
2015    5       13    16   0    4.0044   669.5    2.642      62.893
2015    5       13    16   6    4.0025   669.3    2.642      62.859
2015    5       13    16  11    4.0005   669.2    2.641      62.825
2015    5       13    16  17    3.9986   669.1    2.641      62.791
2015    5       13    16  23    3.9967   669.0    2.640      62.756
2015    5       13    16  29    3.9949   668.9    2.640      62.721
2015    5       13    16  34    3.9930   668.7    2.639      62.686
2015    5       13    16  40    3.9912   668.6    2.638      62.651
2015    5       13    16  46    3.9893   668.5    2.638      62.615
2015    5       13    16  52    3.9876   668.4    2.637      62.579
2015    5       13    16  57    3.9858   668.3    2.636      62.543
2015    5       13    17   3    3.9840   668.1    2.636      62.507
2015    5       13    17   9    3.9822   668.0    2.635      62.471
2015    5       13    17  15    3.9805   667.9    2.634      62.434
2015    5       13    17  20    3.9787   667.8    2.634      62.398
2015    5       13    17  26    3.9770   667.7    2.633      62.361
2015    5       13    17  32    3.9753   667.5    2.632      62.323
2015    5       13    17  38    3.9736   667.4    2.632      62.286
2015    5       13    17  43    3.9719   667.3    2.631      62.248
2015    5       13    17  49    3.9701   667.2    2.630      62.211
2015    5       13    17  55    3.9684   667.0    2.629      62.173
2015    5       13    18   1    3.9667   666.9    2.629      62.135
2015    5       13    18   6    3.9650   666.8    2.628      62.097
2015    5       13    18  12    3.9632   666.7    2.627      62.058
2015    5       13    18  18    3.9615   666.6    2.626      62.020
2015    5       13    18  24    3.9598   666.4    2.626      61.982
2015    5       13    18  29    3.9580   666.3    2.625      61.944
2015    5       13    18  35    3.9563   666.2    2.624      61.906
2015    5       13    18  41    3.9545   666.1    2.623      61.868
2015    5       13    18  47    3.9528   665.9    2.623      61.830
2015    5       13    18  52    3.9510   665.8    2.622      61.793
2015    5       13    18  58    3.9493   665.7    2.621      61.756
2015    5       13    19   4    3.9475   665.6    2.621      61.718
2015    5       13    19  10    3.9457   665.4    2.620      61.682
2015    5       13    19  15    3.9440   665.3    2.619      61.645
2015    5       13    19  21    3.9422   665.2    2.619      61.609
2015    5       13    19  27    3.9405   665.1    2.618      61.573
2015    5       13    19  33    3.9387   664.9    2.618      61.537
2015    5       13    19  38    3.9369   664.8    2.617      61.502
2015    5       13    19  44    3.9352   664.7    2.617      61.466
2015    5       13    19  50    3.9334   664.5    2.616      61.431
2015    5       13    19  56    3.9316   664.4    2.616      61.396
2015    5       13    20   1    3.9298   664.3    2.615      61.361
2015    5       13    20   7    3.9280   664.2    2.615      61.327
2015    5       13    20  13    3.9261   664.0    2.614      61.292
2015    5       13    20  19    3.9243   663.9    2.614      61.257
2015    5       13    20  24    3.9224   663.8    2.614      61.222
2015    5       13    20  30    3.9206   663.7    2.613      61.187
2015    5       13    20  36    3.9187   663.5    2.613      61.151
2015    5       13    20  42    3.9168   663.4    2.612      61.115
2015    5       13    20  47    3.9149   663.3    2.612      61.080
2015    5       13    20  53    3.9130   663.1    2.612      61.043
2015    5       13    20  59    3.9111   663.0    2.611      61.007
2015    5       13    21   5    3.9092   662.9    2.611      60.969
2015    5       13    21  10    3.9072   662.7    2.611      60.932
2015    5       13    21  16    3.9053   662.6    2.610      60.894
2015    5       13    21  22    3.9034   662.5    2.610      60.856
2015    5       13    21  28    3.9014   662.3    2.609      60.817
2015    5       13    21  33    3.8995   662.2    2.609      60.777
2015    5       13    21  39    3.8975   662.0    2.609      60.737
2015    5       13    21  45    3.8956   661.9    2.608      60.697
2015    5       13    21  51    3.8937   661.8    2.608      60.657
2015    5       13    21  57    3.8918   661.6    2.607      60.616
2015    5       13    22   2    3.8898   661.5    2.607      60.575
2015    5       13    22   8    3.8879   661.3    2.607      60.533
2015    5       13    22  14    3.8860   661.2    2.606      60.492
2015    5       13    22  20    3.8841   661.0    2.606      60.450
2015    5       13    22  25    3.8822   660.9    2.606      60.408
2015    5       13    22  31    3.8803   660.7    2.606      60.367
2015    5       13    22  37    3.8784   660.5    2.605      60.326
2015    5       13    22  43    3.8765   660.4    2.605      60.285
2015    5       13    22  48    3.8747   660.2    2.605      60.244
2015    5       13    22  54    3.8729   660.0    2.605      60.204
2015    5       13    23   0    3.8710   659.9    2.605      60.164
2015    5       13    23   6    3.8692   659.7    2.605      60.124
2015    5       13    23  11    3.8674   659.5    2.605      60.084
2015    5       13    23  17    3.8657   659.4    2.605      60.045
2015    5       13    23  23    3.8639   659.2    2.605      60.006
2015    5       13    23  29    3.8622   659.0    2.605      59.968
2015    5       13    23  34    3.8604   658.9    2.605      59.929
2015    5       13    23  40    3.8587   658.7    2.605      59.892
2015    5       13    23  46    3.8570   658.5    2.606      59.855
2015    5       13    23  52    3.8553   658.3    2.606      59.818
2015    5       13    23  57    3.8537   658.2    2.606      59.782
2015    5       14     0   3    3.8520   658.0    2.607      59.747
2015    5       14     0   9    3.8504   657.8    2.607      59.712
2015    5       14     0  15    3.8487   657.6    2.607      59.677
2015    5       14     0  20    3.8471   657.5    2.608      59.644
2015    5       14     0  26    3.8455   657.3    2.608      59.610
2015    5       14     0  32    3.8439   657.1    2.609      59.577
2015    5       14     0  38    3.8423   656.9    2.609      59.545
2015    5       14     0  43    3.8408   656.8    2.609      59.512
2015    5       14     0  49    3.8392   656.6    2.610      59.480
2015    5       14     0  55    3.8376   656.4    2.610      59.449
2015    5       14     1   1    3.8360   656.3    2.611      59.417
2015    5       14     1   6    3.8344   656.1    2.611      59.386
2015    5       14     1  12    3.8328   655.9    2.612      59.355
2015    5       14     1  18    3.8312   655.7    2.612      59.325
2015    5       14     1  24    3.8295   655.6    2.612      59.294
2015    5       14     1  29    3.8279   655.4    2.613      59.264
2015    5       14     1  35    3.8262   655.2    2.613      59.234
2015    5       14     1  41    3.8245   655.1    2.613      59.203
2015    5       14     1  47    3.8228   654.9    2.614      59.173
2015    5       14     1  52    3.8211   654.7    2.614      59.143
2015    5       14     1  58    3.8194   654.6    2.614      59.112
2015    5       14     2   4    3.8177   654.4    2.614      59.081
2015    5       14     2  10    3.8159   654.2    2.614      59.050
2015    5       14     2  15    3.8142   654.1    2.615      59.018
2015    5       14     2  21    3.8124   653.9    2.615      58.986
2015    5       14     2  27    3.8106   653.7    2.615      58.953
2015    5       14     2  33    3.8089   653.6    2.615      58.920
2015    5       14     2  38    3.8071   653.4    2.615      58.886
2015    5       14     2  44    3.8053   653.2    2.615      58.852
2015    5       14     2  50    3.8035   653.1    2.615      58.817
2015    5       14     2  56    3.8017   652.9    2.615      58.782
2015    5       14     3   1    3.8000   652.7    2.615      58.745
2015    5       14     3   7    3.7982   652.5    2.614      58.709
2015    5       14     3  13    3.7964   652.4    2.614      58.671
2015    5       14     3  19    3.7946   652.2    2.614      58.633
2015    5       14     3  24    3.7928   652.0    2.614      58.594
2015    5       14     3  30    3.7910   651.9    2.614      58.555
2015    5       14     3  36    3.7892   651.7    2.614      58.515
2015    5       14     3  42    3.7874   651.5    2.613      58.474
2015    5       14     3  47    3.7856   651.3    2.613      58.433
2015    5       14     3  53    3.7838   651.2    2.613      58.392
2015    5       14     3  59    3.7820   651.0    2.613      58.350
2015    5       14     4   5    3.7802   650.8    2.613      58.308
2015    5       14     4  10    3.7784   650.6    2.612      58.265
2015    5       14     4  16    3.7766   650.5    2.612      58.222
2015    5       14     4  22    3.7748   650.3    2.612      58.178
2015    5       14     4  28    3.7730   650.1    2.611      58.134
2015    5       14     4  33    3.7712   649.9    2.611      58.090
2015    5       14     4  39    3.7694   649.8    2.611      58.045
2015    5       14     4  45    3.7675   649.6    2.610      58.000
2015    5       14     4  51    3.7657   649.4    2.610      57.954
2015    5       14     4  56    3.7639   649.2    2.610      57.908
2015    5       14     5   2    3.7621   649.0    2.609      57.862
2015    5       14     5   8    3.7604   648.8    2.609      57.816
2015    5       14     5  14    3.7586   648.6    2.608      57.769
2015    5       14     5  19    3.7568   648.5    2.608      57.723
2015    5       14     5  25    3.7550   648.3    2.607      57.676
2015    5       14     5  31    3.7533   648.1    2.607      57.628
2015    5       14     5  37    3.7515   647.9    2.606      57.581
2015    5       14     5  42    3.7498   647.7    2.606      57.533
2015    5       14     5  48    3.7480   647.5    2.605      57.484
2015    5       14     5  54    3.7463   647.3    2.605      57.436
2015    5       14     6   0    3.7446   647.1    2.604      57.387
2015    5       14     6   5    3.7429   646.9    2.604      57.338
2015    5       14     6  11    3.7412   646.7    2.604      57.289
2015    5       14     6  17    3.7395   646.5    2.603      57.240
2015    5       14     6  23    3.7378   646.3    2.603      57.191
2015    5       14     6  28    3.7361   646.1    2.603      57.142
2015    5       14     6  34    3.7345   645.9    2.603      57.093
2015    5       14     6  40    3.7329   645.7    2.602      57.044
2015    5       14     6  46    3.7312   645.5    2.602      56.996
2015    5       14     6  51    3.7296   645.2    2.602      56.947
2015    5       14     6  57    3.7280   645.0    2.602      56.899
2015    5       14     7   3    3.7264   644.8    2.602      56.850
2015    5       14     7   9    3.7248   644.6    2.602      56.802
2015    5       14     7  14    3.7232   644.4    2.602      56.754
2015    5       14     7  20    3.7217   644.2    2.602      56.706
2015    5       14     7  26    3.7201   643.9    2.602      56.659
2015    5       14     7  32    3.7186   643.7    2.602      56.611
2015    5       14     7  37    3.7170   643.5    2.603      56.565
2015    5       14     7  43    3.7155   643.3    2.603      56.518
2015    5       14     7  49    3.7140   643.0    2.603      56.472
2015    5       14     7  55    3.7125   642.8    2.603      56.427
2015    5       14     8   0    3.7110   642.6    2.604      56.383
2015    5       14     8   6    3.7095   642.4    2.604      56.339
2015    5       14     8  12    3.7081   642.1    2.605      56.295
2015    5       14     8  18    3.7066   641.9    2.605      56.252
2015    5       14     8  23    3.7052   641.7    2.606      56.211
2015    5       14     8  29    3.7038   641.4    2.607      56.170
2015    5       14     8  35    3.7023   641.2    2.607      56.129
2015    5       14     8  41    3.7009   641.0    2.608      56.090
2015    5       14     8  46    3.6995   640.7    2.609      56.051
2015    5       14     8  52    3.6981   640.5    2.610      56.013
2015    5       14     8  58    3.6967   640.3    2.610      55.976
2015    5       14     9   4    3.6953   640.1    2.611      55.939
2015    5       14     9   9    3.6938   639.8    2.612      55.902
2015    5       14     9  15    3.6924   639.6    2.613      55.865
2015    5       14     9  21    3.6910   639.4    2.614      55.829
2015    5       14     9  27    3.6895   639.2    2.615      55.792
2015    5       14     9  32    3.6881   638.9    2.615      55.756
2015    5       14     9  38    3.6866   638.7    2.616      55.719
2015    5       14     9  44    3.6851   638.5    2.617      55.682
2015    5       14     9  50    3.6837   638.2    2.618      55.645
2015    5       14     9  55    3.6822   638.0    2.619      55.607
2015    5       14    10   1    3.6807   637.8    2.619      55.569
2015    5       14    10   7    3.6792   637.5    2.620      55.531
2015    5       14    10  13    3.6777   637.3    2.621      55.492
2015    5       14    10  18    3.6762   637.1    2.621      55.453
2015    5       14    10  24    3.6747   636.8    2.622      55.414
2015    5       14    10  30    3.6732   636.6    2.623      55.375
2015    5       14    10  36    3.6717   636.4    2.623      55.335
2015    5       14    10  42    3.6702   636.1    2.624      55.296
2015    5       14    10  47    3.6688   635.9    2.625      55.256
2015    5       14    10  53    3.6673   635.7    2.625      55.216
2015    5       14    10  59    3.6658   635.4    2.626      55.177
2015    5       14    11   5    3.6643   635.2    2.627      55.138
2015    5       14    11  10    3.6629   635.0    2.627      55.098
2015    5       14    11  16    3.6614   634.7    2.628      55.059
2015    5       14    11  22    3.6600   634.5    2.629      55.021
2015    5       14    11  28    3.6585   634.3    2.630      54.982
2015    5       14    11  33    3.6571   634.1    2.631      54.944
2015    5       14    11  39    3.6557   633.8    2.632      54.906
2015    5       14    11  45    3.6542   633.6    2.632      54.868
2015    5       14    11  51    3.6528   633.4    2.633      54.831
2015    5       14    11  56    3.6514   633.1    2.634      54.794
2015    5       14    12   2    3.6500   632.9    2.635      54.757
2015    5       14    12   8    3.6486   632.7    2.636      54.721
2015    5       14    12  14    3.6472   632.4    2.637      54.685
2015    5       14    12  19    3.6458   632.2    2.638      54.649
2015    5       14    12  25    3.6444   632.0    2.639      54.614
2015    5       14    12  31    3.6431   631.7    2.640      54.579
2015    5       14    12  37    3.6417   631.5    2.642      54.544
2015    5       14    12  42    3.6404   631.3    2.643      54.510
2015    5       14    12  48    3.6390   631.0    2.644      54.475
2015    5       14    12  54    3.6377   630.8    2.645      54.440
2015    5       14    13   0    3.6363   630.6    2.646      54.405
2015    5       14    13   5    3.6350   630.3    2.647      54.370
2015    5       14    13  11    3.6336   630.1    2.648      54.334
2015    5       14    13  17    3.6322   629.8    2.649      54.298
2015    5       14    13  23    3.6309   629.6    2.650      54.261
2015    5       14    13  28    3.6295   629.4    2.651      54.223
2015    5       14    13  34    3.6282   629.1    2.651      54.186
2015    5       14    13  40    3.6268   628.9    2.652      54.147
2015    5       14    13  46    3.6254   628.6    2.653      54.108
2015    5       14    13  51    3.6241   628.4    2.654      54.069
2015    5       14    13  57    3.6227   628.1    2.654      54.029
2015    5       14    14   3    3.6214   627.9    2.655      53.989
2015    5       14    14   9    3.6200   627.6    2.656      53.948
2015    5       14    14  14    3.6187   627.4    2.656      53.906
2015    5       14    14  20    3.6174   627.1    2.657      53.865
2015    5       14    14  26    3.6161   626.9    2.657      53.823
2015    5       14    14  32    3.6148   626.6    2.658      53.780
2015    5       14    14  37    3.6135   626.4    2.658      53.737
2015    5       14    14  43    3.6122   626.1    2.659      53.694
2015    5       14    14  49    3.6109   625.9    2.659      53.650
2015    5       14    14  55    3.6097   625.6    2.660      53.605
2015    5       14    15   0    3.6085   625.4    2.660      53.561
2015    5       14    15   6    3.6072   625.1    2.660      53.516
2015    5       14    15  12    3.6060   624.8    2.661      53.470
2015    5       14    15  18    3.6048   624.6    2.662      53.425
2015    5       14    15  23    3.6036   624.3    2.662      53.380
2015    5       14    15  29    3.6025   624.1    2.663      53.335
2015    5       14    15  35    3.6013   623.8    2.663      53.289
2015    5       14    15  41    3.6002   623.5    2.664      53.245
2015    5       14    15  46    3.5990   623.3    2.665      53.200
2015    5       14    15  52    3.5979   623.0    2.665      53.155
2015    5       14    15  58    3.5968   622.8    2.666      53.111
2015    5       14    16   4    3.5957   622.5    2.667      53.067
2015    5       14    16   9    3.5946   622.2    2.668      53.023
2015    5       14    16  15    3.5935   622.0    2.669      52.979
2015    5       14    16  21    3.5924   621.7    2.670      52.935
2015    5       14    16  27    3.5913   621.5    2.670      52.890
2015    5       14    16  32    3.5902   621.2    2.671      52.846
2015    5       14    16  38    3.5891   620.9    2.672      52.802
2015    5       14    16  44    3.5880   620.7    2.673      52.757
2015    5       14    16  50    3.5869   620.4    2.674      52.712
2015    5       14    16  55    3.5858   620.1    2.675      52.667
2015    5       14    17   1    3.5846   619.9    2.676      52.621
2015    5       14    17   7    3.5835   619.6    2.677      52.575
2015    5       14    17  13    3.5824   619.3    2.678      52.529
2015    5       14    17  18    3.5813   619.1    2.679      52.484
2015    5       14    17  24    3.5802   618.8    2.679      52.438
2015    5       14    17  30    3.5791   618.5    2.680      52.392
2015    5       14    17  36    3.5780   618.2    2.681      52.346
2015    5       14    17  41    3.5769   618.0    2.682      52.301
2015    5       14    17  47    3.5758   617.7    2.683      52.256
2015    5       14    17  53    3.5748   617.4    2.684      52.212
2015    5       14    17  59    3.5737   617.1    2.686      52.167
2015    5       14    18   4    3.5727   616.9    2.687      52.124
2015    5       14    18  10    3.5717   616.6    2.688      52.081
2015    5       14    18  16    3.5707   616.3    2.689      52.038
2015    5       14    18  22    3.5697   616.0    2.690      51.997
2015    5       14    18  27    3.5688   615.7    2.692      51.956
2015    5       14    18  33    3.5678   615.5    2.693      51.915
2015    5       14    18  39    3.5669   615.2    2.695      51.875
2015    5       14    18  45    3.5659   614.9    2.696      51.836
2015    5       14    18  50    3.5650   614.6    2.698      51.798
2015    5       14    18  56    3.5642   614.4    2.699      51.760
2015    5       14    19   2    3.5633   614.1    2.701      51.723
2015    5       14    19   8    3.5624   613.8    2.703      51.687
2015    5       14    19  13    3.5615   613.5    2.705      51.652
2015    5       14    19  19    3.5607   613.2    2.707      51.617
2015    5       14    19  25    3.5598   613.0    2.709      51.583
2015    5       14    19  31    3.5590   612.7    2.711      51.549
2015    5       14    19  36    3.5582   612.4    2.713      51.516
2015    5       14    19  42    3.5574   612.2    2.715      51.483
2015    5       14    19  48    3.5565   611.9    2.717      51.450
2015    5       14    19  54    3.5557   611.6    2.719      51.418
2015    5       14    19  59    3.5549   611.3    2.721      51.386
2015    5       14    20   5    3.5541   611.1    2.723      51.355
2015    5       14    20  11    3.5533   610.8    2.726      51.323
2015    5       14    20  17    3.5525   610.5    2.728      51.292
2015    5       14    20  22    3.5517   610.3    2.730      51.260
2015    5       14    20  28    3.5509   610.0    2.732      51.229
2015    5       14    20  34    3.5500   609.7    2.734      51.197
2015    5       14    20  40    3.5492   609.4    2.737      51.166
2015    5       14    20  45    3.5484   609.2    2.739      51.134
2015    5       14    20  51    3.5476   608.9    2.741      51.103
2015    5       14    20  57    3.5468   608.6    2.743      51.072
2015    5       14    21   3    3.5460   608.3    2.745      51.040
2015    5       14    21   8    3.5452   608.1    2.748      51.009
2015    5       14    21  14    3.5444   607.8    2.750      50.978
2015    5       14    21  20    3.5437   607.5    2.752      50.948
2015    5       14    21  26    3.5429   607.2    2.754      50.917
2015    5       14    21  31    3.5422   607.0    2.756      50.887
2015    5       14    21  37    3.5415   606.7    2.759      50.857
2015    5       14    21  43    3.5408   606.4    2.761      50.827
2015    5       14    21  49    3.5401   606.1    2.763      50.797
2015    5       14    21  54    3.5394   605.9    2.765      50.768
2015    5       14    22   0    3.5388   605.6    2.767      50.738
2015    5       14    22   6    3.5382   605.3    2.769      50.708
2015    5       14    22  12    3.5375   605.1    2.772      50.678
2015    5       14    22  17    3.5369   604.8    2.774      50.647
2015    5       14    22  23    3.5363   604.5    2.776      50.616
2015    5       14    22  29    3.5356   604.3    2.778      50.585
2015    5       14    22  35    3.5350   604.0    2.780      50.553
2015    5       14    22  40    3.5344   603.7    2.782      50.521
2015    5       14    22  46    3.5338   603.5    2.784      50.489
2015    5       14    22  52    3.5332   603.2    2.786      50.456
2015    5       14    22  58    3.5325   602.9    2.788      50.423
2015    5       14    23   3    3.5319   602.7    2.789      50.389
2015    5       14    23   9    3.5313   602.4    2.791      50.355
2015    5       14    23  15    3.5306   602.2    2.793      50.321
2015    5       14    23  21    3.5300   601.9    2.795      50.286
2015    5       14    23  26    3.5294   601.6    2.796      50.250
2015    5       14    23  32    3.5288   601.4    2.798      50.214
2015    5       14    23  38    3.5282   601.1    2.800      50.178
2015    5       14    23  44    3.5275   600.8    2.801      50.141
2015    5       14    23  49    3.5269   600.6    2.803      50.104
2015    5       14    23  55    3.5263   600.3    2.804      50.066
2015    5       15     0   1    3.5257   600.0    2.806      50.028
2015    5       15     0   7    3.5251   599.8    2.807      49.989
2015    5       15     0  12    3.5245   599.5    2.808      49.950
2015    5       15     0  18    3.5239   599.2    2.810      49.911
2015    5       15     0  24    3.5233   599.0    2.811      49.872
2015    5       15     0  30    3.5227   598.7    2.813      49.832
2015    5       15     0  35    3.5221   598.4    2.814      49.792
2015    5       15     0  41    3.5216   598.2    2.816      49.752
2015    5       15     0  47    3.5210   597.9    2.817      49.712
2015    5       15     0  53    3.5205   597.7    2.818      49.672
2015    5       15     0  58    3.5199   597.4    2.820      49.633
2015    5       15     1   4    3.5194   597.1    2.821      49.593
2015    5       15     1  10    3.5189   596.9    2.823      49.553
2015    5       15     1  16    3.5183   596.6    2.824      49.514
2015    5       15     1  21    3.5178   596.3    2.826      49.475
2015    5       15     1  27    3.5173   596.1    2.828      49.436
2015    5       15     1  33    3.5169   595.8    2.829      49.397
2015    5       15     1  39    3.5164   595.5    2.831      49.358
2015    5       15     1  45    3.5159   595.3    2.833      49.320
2015    5       15     1  50    3.5155   595.0    2.834      49.282
2015    5       15     1  56    3.5150   594.8    2.836      49.244
2015    5       15     2   2    3.5146   594.5    2.838      49.207
2015    5       15     2   8    3.5141   594.2    2.839      49.169
2015    5       15     2  13    3.5137   594.0    2.841      49.132
2015    5       15     2  19    3.5133   593.7    2.843      49.095
2015    5       15     2  25    3.5128   593.4    2.845      49.059
2015    5       15     2  31    3.5124   593.2    2.847      49.022
2015    5       15     2  36    3.5120   592.9    2.849      48.985
2015    5       15     2  42    3.5116   592.6    2.850      48.949
2015    5       15     2  48    3.5112   592.4    2.852      48.913
2015    5       15     2  54    3.5108   592.1    2.854      48.876
2015    5       15     2  59    3.5104   591.8    2.856      48.840
2015    5       15     3   5    3.5100   591.6    2.858      48.804
2015    5       15     3  11    3.5096   591.3    2.860      48.768
2015    5       15     3  17    3.5092   591.0    2.862      48.732
2015    5       15     3  22    3.5088   590.8    2.864      48.697
2015    5       15     3  28    3.5084   590.5    2.866      48.661
2015    5       15     3  34    3.5081   590.2    2.868      48.626
2015    5       15     3  40    3.5077   590.0    2.870      48.591
2015    5       15     3  45    3.5074   589.7    2.873      48.556
2015    5       15     3  51    3.5070   589.4    2.875      48.521
2015    5       15     3  57    3.5067   589.1    2.877      48.487
2015    5       15     4   3    3.5064   588.9    2.879      48.453
2015    5       15     4   8    3.5061   588.6    2.882      48.419
2015    5       15     4  14    3.5058   588.3    2.884      48.386
2015    5       15     4  20    3.5055   588.1    2.886      48.353
2015    5       15     4  26    3.5053   587.8    2.889      48.321
2015    5       15     4  31    3.5051   587.5    2.891      48.289
2015    5       15     4  37    3.5048   587.2    2.894      48.258
2015    5       15     4  43    3.5046   587.0    2.896      48.227
2015    5       15     4  49    3.5045   586.7    2.899      48.197
2015    5       15     4  54    3.5043   586.4    2.902      48.167
2015    5       15     5   0    3.5041   586.2    2.904      48.138
2015    5       15     5   6    3.5040   585.9    2.907      48.109
2015    5       15     5  12    3.5039   585.6    2.910      48.080
2015    5       15     5  17    3.5037   585.4    2.913      48.052
2015    5       15     5  23    3.5036   585.1    2.915      48.024
2015    5       15     5  29    3.5035   584.9    2.918      47.997
2015    5       15     5  35    3.5034   584.6    2.921      47.969
2015    5       15     5  40    3.5033   584.4    2.924      47.942
2015    5       15     5  46    3.5032   584.1    2.927      47.915
2015    5       15     5  52    3.5031   583.8    2.930      47.888
2015    5       15     5  58    3.5030   583.6    2.932      47.861
2015    5       15     6   3    3.5029   583.3    2.935      47.833
2015    5       15     6   9    3.5028   583.1    2.938      47.806
2015    5       15     6  15    3.5027   582.8    2.941      47.779
2015    5       15     6  21    3.5026   582.6    2.943      47.751
2015    5       15     6  26    3.5025   582.3    2.946      47.724
2015    5       15     6  32    3.5024   582.0    2.949      47.696
2015    5       15     6  38    3.5023   581.8    2.951      47.669
2015    5       15     6  44    3.5022   581.5    2.954      47.641
2015    5       15     6  49    3.5021   581.3    2.956      47.613
2015    5       15     6  55    3.5021   581.0    2.959      47.585
2015    5       15     7   1    3.5019   580.8    2.961      47.557
2015    5       15     7   7    3.5019   580.5    2.964      47.529
2015    5       15     7  12    3.5017   580.3    2.966      47.500
2015    5       15     7  18    3.5016   580.0    2.969      47.472
2015    5       15     7  24    3.5015   579.8    2.971      47.443
2015    5       15     7  30    3.5014   579.5    2.973      47.414
2015    5       15     7  35    3.5013   579.3    2.976      47.385
2015    5       15     7  41    3.5012   579.0    2.978      47.356
2015    5       15     7  47    3.5011   578.8    2.980      47.326
2015    5       15     7  53    3.5010   578.5    2.983      47.297
2015    5       15     7  58    3.5009   578.3    2.985      47.267
2015    5       15     8   4    3.5008   578.0    2.987      47.237
2015    5       15     8  10    3.5006   577.8    2.989      47.207
2015    5       15     8  16    3.5005   577.5    2.991      47.176
2015    5       15     8  21    3.5004   577.3    2.994      47.146
2015    5       15     8  27    3.5003   577.0    2.996      47.115
2015    5       15     8  33    3.5002   576.8    2.998      47.084
2015    5       15     8  39    3.5001   576.6    3.000      47.053
2015    5       15     8  44    3.4999   576.3    3.002      47.022
2015    5       15     8  50    3.4998   576.1    3.004      46.991
2015    5       15     8  56    3.4997   575.8    3.006      46.959
2015    5       15     9   2    3.4996   575.6    3.008      46.927
2015    5       15     9   7    3.4995   575.3    3.010      46.895
2015    5       15     9  13    3.4993   575.1    3.012      46.863
2015    5       15     9  19    3.4992   574.8    3.014      46.831
2015    5       15     9  25    3.4991   574.6    3.016      46.799
2015    5       15     9  30    3.4990   574.4    3.018      46.766
2015    5       15     9  36    3.4989   574.1    3.020      46.734
2015    5       15     9  42    3.4987   573.9    3.022      46.701
2015    5       15     9  48    3.4986   573.6    3.024      46.668
2015    5       15     9  53    3.4985   573.4    3.026      46.635
2015    5       15     9  59    3.4984   573.1    3.028      46.602
2015    5       15    10   5    3.4982   572.9    3.030      46.569
2015    5       15    10  11    3.4981   572.7    3.032      46.535
2015    5       15    10  16    3.4980   572.4    3.034      46.502
2015    5       15    10  22    3.4979   572.2    3.036      46.469
2015    5       15    10  28    3.4978   571.9    3.038      46.436
2015    5       15    10  34    3.4977   571.7    3.040      46.403
2015    5       15    10  39    3.4976   571.4    3.042      46.370
2015    5       15    10  45    3.4975   571.2    3.044      46.337
2015    5       15    10  51    3.4974   570.9    3.045      46.304
2015    5       15    10  57    3.4973   570.7    3.047      46.272
2015    5       15    11   2    3.4973   570.4    3.049      46.239
2015    5       15    11   8    3.4972   570.2    3.051      46.207
2015    5       15    11  14    3.4971   569.9    3.053      46.175
2015    5       15    11  20    3.4971   569.7    3.055      46.143
2015    5       15    11  25    3.4970   569.5    3.058      46.111
2015    5       15    11  31    3.4970   569.2    3.060      46.080
2015    5       15    11  37    3.4970   569.0    3.062      46.049
2015    5       15    11  43    3.4969   568.7    3.064      46.018
2015    5       15    11  48    3.4969   568.5    3.066      45.987
2015    5       15    11  54    3.4969   568.2    3.068      45.957
2015    5       15    12   0    3.4969   568.0    3.070      45.926
2015    5       15    12   6    3.4969   567.7    3.072      45.896
2015    5       15    12  11    3.4969   567.5    3.074      45.867
2015    5       15    12  17    3.4969   567.3    3.076      45.837
2015    5       15    12  23    3.4969   567.0    3.079      45.808
2015    5       15    12  29    3.4969   566.8    3.081      45.779
2015    5       15    12  34    3.4969   566.5    3.083      45.750
2015    5       15    12  40    3.4969   566.3    3.085      45.721
2015    5       15    12  46    3.4969   566.0    3.087      45.693
2015    5       15    12  52    3.4969   565.8    3.090      45.664
2015    5       15    12  57    3.4970   565.5    3.092      45.636
2015    5       15    13   3    3.4970   565.3    3.094      45.608
2015    5       15    13   9    3.4970   565.1    3.096      45.580
2015    5       15    13  15    3.4970   564.8    3.099      45.551
2015    5       15    13  20    3.4970   564.6    3.101      45.523
2015    5       15    13  26    3.4970   564.3    3.103      45.495
2015    5       15    13  32    3.4970   564.1    3.105      45.468
2015    5       15    13  38    3.4970   563.8    3.108      45.440
2015    5       15    13  43    3.4970   563.6    3.110      45.412
2015    5       15    13  49    3.4970   563.4    3.112      45.384
2015    5       15    13  55    3.4970   563.1    3.114      45.356
2015    5       15    14   1    3.4970   562.9    3.117      45.328
2015    5       15    14   6    3.4969   562.6    3.119      45.300
2015    5       15    14  12    3.4969   562.4    3.121      45.272
2015    5       15    14  18    3.4969   562.1    3.124      45.244
2015    5       15    14  24    3.4968   561.9    3.126      45.216
2015    5       15    14  29    3.4968   561.7    3.128      45.188
2015    5       15    14  35    3.4968   561.4    3.131      45.160
2015    5       15    14  41    3.4967   561.2    3.133      45.132
2015    5       15    14  47    3.4967   560.9    3.135      45.104
2015    5       15    14  52    3.4966   560.7    3.138      45.076
2015    5       15    14  58    3.4966   560.4    3.140      45.048
2015    5       15    15   4    3.4965   560.2    3.143      45.021
2015    5       15    15  10    3.4964   560.0    3.145      44.993
2015    5       15    15  15    3.4964   559.7    3.148      44.966
2015    5       15    15  21    3.4963   559.5    3.150      44.939
2015    5       15    15  27    3.4963   559.2    3.153      44.912
2015    5       15    15  33    3.4962   559.0    3.155      44.885
2015    5       15    15  38    3.4962   558.8    3.158      44.859
2015    5       15    15  44    3.4962   558.5    3.161      44.832
2015    5       15    15  50    3.4961   558.3    3.163      44.806
2015    5       15    15  56    3.4961   558.0    3.166      44.781
2015    5       15    16   1    3.4960   557.8    3.169      44.755
2015    5       15    16   7    3.4960   557.6    3.172      44.730
2015    5       15    16  13    3.4960   557.3    3.175      44.706
2015    5       15    16  19    3.4960   557.1    3.178      44.681
2015    5       15    16  24    3.4960   556.8    3.181      44.657
2015    5       15    16  30    3.4960   556.6    3.184      44.633
2015    5       15    16  36    3.4960   556.4    3.187      44.609
2015    5       15    16  42    3.4960   556.1    3.190      44.586
2015    5       15    16  47    3.4960   555.9    3.193      44.562
2015    5       15    16  53    3.4961   555.7    3.196      44.539
2015    5       15    16  59    3.4961   555.4    3.199      44.516
2015    5       15    17   5    3.4961   555.2    3.202      44.492
2015    5       15    17  10    3.4961   555.0    3.205      44.469
2015    5       15    17  16    3.4961   554.7    3.208      44.445
2015    5       15    17  22    3.4961   554.5    3.211      44.421
2015    5       15    17  28    3.4961   554.3    3.214      44.397
2015    5       15    17  33    3.4961   554.0    3.217      44.373
2015    5       15    17  39    3.4961   553.8    3.220      44.349
2015    5       15    17  45    3.4960   553.6    3.223      44.324
2015    5       15    17  51    3.4960   553.3    3.226      44.300
2015    5       15    17  56    3.4960   553.1    3.228      44.275
2015    5       15    18   2    3.4960   552.9    3.231      44.249
2015    5       15    18   8    3.4959   552.6    3.234      44.224
2015    5       15    18  14    3.4959   552.4    3.236      44.198
2015    5       15    18  19    3.4958   552.2    3.239      44.172
2015    5       15    18  25    3.4958   551.9    3.242      44.147
2015    5       15    18  31    3.4958   551.7    3.244      44.121
2015    5       15    18  37    3.4957   551.5    3.246      44.095
2015    5       15    18  42    3.4957   551.2    3.249      44.069
2015    5       15    18  48    3.4957   551.0    3.251      44.043
2015    5       15    18  54    3.4956   550.8    3.254      44.017
2015    5       15    19   0    3.4956   550.5    3.256      43.991
2015    5       15    19   5    3.4956   550.3    3.258      43.965
2015    5       15    19  11    3.4955   550.1    3.260      43.938
2015    5       15    19  17    3.4955   549.8    3.263      43.912
2015    5       15    19  23    3.4955   549.6    3.265      43.885
2015    5       15    19  28    3.4954   549.4    3.267      43.858
2015    5       15    19  34    3.4954   549.1    3.269      43.831
2015    5       15    19  40    3.4954   548.9    3.271      43.804
2015    5       15    19  46    3.4953   548.7    3.273      43.777
2015    5       15    19  51    3.4953   548.4    3.275      43.749
2015    5       15    19  57    3.4952   548.2    3.277      43.722
2015    5       15    20   3    3.4952   548.0    3.279      43.694
2015    5       15    20   9    3.4951   547.7    3.281      43.665
2015    5       15    20  14    3.4950   547.5    3.283      43.637
2015    5       15    20  20    3.4950   547.3    3.285      43.608
2015    5       15    20  26    3.4949   547.0    3.287      43.580
2015    5       15    20  32    3.4949   546.8    3.289      43.550
2015    5       15    20  37    3.4948   546.6    3.291      43.521
2015    5       15    20  43    3.4947   546.4    3.292      43.492
2015    5       15    20  49    3.4947   546.1    3.294      43.462
2015    5       15    20  55    3.4946   545.9    3.296      43.432
2015    5       15    21   0    3.4945   545.7    3.298      43.403
2015    5       15    21   6    3.4944   545.4    3.300      43.372
2015    5       15    21  12    3.4943   545.2    3.301      43.342
2015    5       15    21  18    3.4943   545.0    3.303      43.312
2015    5       15    21  23    3.4942   544.7    3.305      43.281
2015    5       15    21  29    3.4941   544.5    3.307      43.250
2015    5       15    21  35    3.4940   544.3    3.308      43.219
2015    5       15    21  41    3.4939   544.0    3.310      43.188
2015    5       15    21  46    3.4938   543.8    3.312      43.157
2015    5       15    21  52    3.4937   543.6    3.314      43.126
2015    5       15    21  58    3.4936   543.3    3.316      43.095
2015    5       15    22   4    3.4935   543.1    3.317      43.064
2015    5       15    22   9    3.4935   542.9    3.319      43.033
2015    5       15    22  15    3.4934   542.6    3.321      43.002
2015    5       15    22  21    3.4933   542.4    3.323      42.971
2015    5       15    22  27    3.4932   542.2    3.325      42.940
2015    5       15    22  32    3.4931   542.0    3.326      42.909
2015    5       15    22  38    3.4930   541.7    3.328      42.878
2015    5       15    22  44    3.4929   541.5    3.330      42.847
2015    5       15    22  50    3.4928   541.3    3.332      42.817
2015    5       15    22  55    3.4928   541.0    3.334      42.787
2015    5       15    23   1    3.4927   540.8    3.336      42.757
2015    5       15    23   7    3.4926   540.6    3.338      42.727
2015    5       15    23  13    3.4925   540.3    3.340      42.698
2015    5       15    23  18    3.4924   540.1    3.342      42.669
2015    5       15    23  24    3.4924   539.9    3.345      42.641
2015    5       15    23  30    3.4923   539.6    3.347      42.612
2015    5       15    23  36    3.4922   539.4    3.349      42.585
2015    5       15    23  41    3.4922   539.2    3.351      42.557
2015    5       15    23  47    3.4921   538.9    3.354      42.531
2015    5       15    23  53    3.4921   538.7    3.356      42.504
2015    5       15    23  59    3.4920   538.5    3.359      42.478
2015    5       16     0   4    3.4920   538.2    3.361      42.452
2015    5       16     0  10    3.4919   538.0    3.364      42.427
2015    5       16     0  16    3.4919   537.8    3.366      42.402
2015    5       16     0  22    3.4918   537.5    3.369      42.377
2015    5       16     0  27    3.4918   537.3    3.371      42.353
2015    5       16     0  33    3.4917   537.1    3.374      42.329
2015    5       16     0  39    3.4917   536.8    3.376      42.305
2015    5       16     0  45    3.4916   536.6    3.379      42.281
2015    5       16     0  50    3.4915   536.4    3.382      42.257
2015    5       16     0  56    3.4915   536.2    3.384      42.233
2015    5       16     1   2    3.4914   535.9    3.387      42.210
2015    5       16     1   8    3.4913   535.7    3.390      42.186
2015    5       16     1  13    3.4913   535.4    3.393      42.163
2015    5       16     1  19    3.4912   535.2    3.395      42.139
2015    5       16     1  25    3.4911   535.0    3.398      42.116
2015    5       16     1  31    3.4910   534.7    3.401      42.093
2015    5       16     1  36    3.4910   534.5    3.404      42.069
2015    5       16     1  42    3.4909   534.3    3.406      42.046
2015    5       16     1  48    3.4908   534.0    3.409      42.023
2015    5       16     1  54    3.4908   533.8    3.412      42.000
2015    5       16     1  59    3.4907   533.6    3.415      41.976
2015    5       16     2   5    3.4907   533.3    3.418      41.953
2015    5       16     2  11    3.4906   533.1    3.421      41.930
2015    5       16     2  17    3.4905   532.9    3.423      41.907
2015    5       16     2  22    3.4905   532.6    3.426      41.883
2015    5       16     2  28    3.4904   532.4    3.429      41.860
2015    5       16     2  34    3.4904   532.2    3.432      41.836
2015    5       16     2  40    3.4903   531.9    3.435      41.813
2015    5       16     2  45    3.4903   531.7    3.438      41.788
2015    5       16     2  51    3.4902   531.5    3.441      41.764
2015    5       16     2  57    3.4902   531.3    3.444      41.740
2015    5       16     3   3    3.4901   531.0    3.447      41.715
2015    5       16     3   8    3.4901   530.8    3.450      41.690
2015    5       16     3  14    3.4901   530.6    3.453      41.665
2015    5       16     3  20    3.4900   530.3    3.456      41.640
2015    5       16     3  26    3.4900   530.1    3.459      41.614
2015    5       16     3  31    3.4899   529.9    3.462      41.589
2015    5       16     3  37    3.4899   529.7    3.465      41.562
2015    5       16     3  43    3.4898   529.4    3.468      41.536
2015    5       16     3  49    3.4898   529.2    3.471      41.509
2015    5       16     3  54    3.4897   529.0    3.474      41.482
2015    5       16     4   0    3.4896   528.8    3.477      41.455
2015    5       16     4   6    3.4896   528.5    3.480      41.428
2015    5       16     4  12    3.4895   528.3    3.482      41.400
2015    5       16     4  18    3.4894   528.1    3.485      41.372
2015    5       16     4  23    3.4893   527.8    3.488      41.343
2015    5       16     4  29    3.4892   527.6    3.491      41.315
2015    5       16     4  35    3.4891   527.4    3.493      41.286
2015    5       16     4  41    3.4890   527.2    3.496      41.257
2015    5       16     4  46    3.4888   526.9    3.499      41.228
2015    5       16     4  52    3.4887   526.7    3.501      41.199
2015    5       16     4  58    3.4886   526.5    3.504      41.170
2015    5       16     5   4    3.4885   526.2    3.506      41.141
2015    5       16     5   9    3.4883   526.0    3.508      41.111
2015    5       16     5  15    3.4882   525.8    3.511      41.082
2015    5       16     5  21    3.4881   525.5    3.513      41.053
2015    5       16     5  27    3.4880   525.3    3.515      41.024
2015    5       16     5  32    3.4878   525.1    3.518      40.996
2015    5       16     5  38    3.4877   524.9    3.520      40.967
2015    5       16     5  44    3.4876   524.6    3.522      40.939
2015    5       16     5  50    3.4875   524.4    3.524      40.911
2015    5       16     5  55    3.4874   524.2    3.526      40.883
2015    5       16     6   1    3.4873   523.9    3.528      40.855
2015    5       16     6   7    3.4872   523.7    3.530      40.828
2015    5       16     6  13    3.4871   523.5    3.532      40.801
2015    5       16     6  18    3.4870   523.2    3.534      40.774
2015    5       16     6  24    3.4869   523.0    3.536      40.747
2015    5       16     6  30    3.4868   522.8    3.538      40.720
2015    5       16     6  36    3.4867   522.5    3.540      40.693
2015    5       16     6  41    3.4866   522.3    3.542      40.667
2015    5       16     6  47    3.4865   522.1    3.544      40.640
2015    5       16     6  53    3.4865   521.8    3.545      40.613
2015    5       16     6  59    3.4864   521.6    3.547      40.586
2015    5       16     7   4    3.4863   521.4    3.549      40.558
2015    5       16     7  10    3.4862   521.1    3.551      40.531
2015    5       16     7  16    3.4861   520.9    3.553      40.503
2015    5       16     7  22    3.4860   520.7    3.555      40.476
2015    5       16     7  27    3.4859   520.4    3.556      40.448
2015    5       16     7  33    3.4859   520.2    3.558      40.420
2015    5       16     7  39    3.4858   520.0    3.560      40.393
2015    5       16     7  45    3.4857   519.7    3.562      40.365
2015    5       16     7  50    3.4856   519.5    3.564      40.337
2015    5       16     7  56    3.4856   519.3    3.566      40.309
2015    5       16     8   2    3.4855   519.0    3.568      40.281
2015    5       16     8   8    3.4854   518.8    3.569      40.253
2015    5       16     8  13    3.4854   518.6    3.571      40.225
2015    5       16     8  19    3.4853   518.4    3.573      40.197
2015    5       16     8  25    3.4852   518.1    3.575      40.169
2015    5       16     8  31    3.4852   517.9    3.577      40.140
2015    5       16     8  36    3.4851   517.7    3.579      40.112
2015    5       16     8  42    3.4851   517.4    3.581      40.083
2015    5       16     8  48    3.4850   517.2    3.584      40.055
2015    5       16     8  54    3.4849   517.0    3.586      40.026
2015    5       16     8  59    3.4849   516.7    3.588      39.998
2015    5       16     9   5    3.4848   516.5    3.590      39.969
2015    5       16     9  11    3.4848   516.3    3.592      39.940
2015    5       16     9  17    3.4847   516.1    3.594      39.911
2015    5       16     9  22    3.4846   515.8    3.596      39.882
2015    5       16     9  28    3.4846   515.6    3.599      39.853
2015    5       16     9  34    3.4845   515.4    3.601      39.824
2015    5       16     9  40    3.4845   515.1    3.603      39.794
2015    5       16     9  45    3.4844   514.9    3.606      39.765
2015    5       16     9  51    3.4843   514.7    3.608      39.736
2015    5       16     9  57    3.4843   514.5    3.611      39.706
2015    5       16    10   3    3.4842   514.2    3.613      39.677
2015    5       16    10   8    3.4842   514.0    3.616      39.647
2015    5       16    10  14    3.4841   513.8    3.618      39.617
2015    5       16    10  20    3.4840   513.6    3.621      39.588
2015    5       16    10  26    3.4840   513.3    3.623      39.558
2015    5       16    10  31    3.4839   513.1    3.626      39.528
2015    5       16    10  37    3.4838   512.9    3.629      39.499
2015    5       16    10  43    3.4837   512.6    3.631      39.469
2015    5       16    10  49    3.4836   512.4    3.634      39.439
2015    5       16    10  54    3.4836   512.2    3.637      39.410
2015    5       16    11   0    3.4834   512.0    3.639      39.380
2015    5       16    11   6    3.4834   511.7    3.642      39.350
2015    5       16    11  12    3.4832   511.5    3.645      39.321
2015    5       16    11  17    3.4831   511.3    3.648      39.291
2015    5       16    11  23    3.4830   511.1    3.650      39.262
2015    5       16    11  29    3.4829   510.8    3.653      39.233
2015    5       16    11  35    3.4827   510.6    3.656      39.204
2015    5       16    11  40    3.4826   510.3    3.659      39.176
2015    5       16    11  46    3.4825   510.1    3.662      39.148
2015    5       16    11  52    3.4824   509.9    3.665      39.120
2015    5       16    11  58    3.4822   509.6    3.668      39.092
2015    5       16    12   3    3.4821   509.4    3.670      39.065
2015    5       16    12   9    3.4820   509.2    3.673      39.038
2015    5       16    12  15    3.4819   508.9    3.676      39.012
2015    5       16    12  21    3.4818   508.7    3.679      38.986
2015    5       16    12  26    3.4817   508.4    3.682      38.961
2015    5       16    12  32    3.4817   508.2    3.686      38.937
2015    5       16    12  38    3.4816   508.0    3.689      38.913
2015    5       16    12  44    3.4816   507.7    3.692      38.890
2015    5       16    12  49    3.4815   507.5    3.695      38.867
2015    5       16    12  55    3.4815   507.3    3.698      38.845
2015    5       16    13   1    3.4815   507.0    3.702      38.824
2015    5       16    13   7    3.4815   506.8    3.705      38.803
2015    5       16    13  12    3.4816   506.5    3.708      38.782
2015    5       16    13  18    3.4816   506.3    3.712      38.761
2015    5       16    13  24    3.4817   506.1    3.715      38.740
2015    5       16    13  30    3.4817   505.8    3.719      38.720
2015    5       16    13  35    3.4818   505.6    3.722      38.699
2015    5       16    13  41    3.4818   505.4    3.726      38.678
2015    5       16    13  47    3.4819   505.1    3.730      38.656
2015    5       16    13  53    3.4820   504.9    3.733      38.635
2015    5       16    13  58    3.4821   504.7    3.737      38.613
2015    5       16    14   4    3.4821   504.4    3.740      38.591
2015    5       16    14  10    3.4822   504.2    3.744      38.568
2015    5       16    14  16    3.4823   504.0    3.747      38.545
2015    5       16    14  21    3.4823   503.7    3.751      38.522
2015    5       16    14  27    3.4823   503.5    3.755      38.498
2015    5       16    14  33    3.4823   503.3    3.758      38.473
2015    5       16    14  39    3.4824   503.0    3.761      38.447
2015    5       16    14  44    3.4824   502.8    3.765      38.421
2015    5       16    14  50    3.4824   502.6    3.768      38.394
2015    5       16    14  56    3.4823   502.3    3.771      38.367
2015    5       16    15   2    3.4823   502.1    3.775      38.339
2015    5       16    15   7    3.4823   501.9    3.778      38.311
2015    5       16    15  13    3.4823   501.6    3.781      38.282
2015    5       16    15  19    3.4822   501.4    3.784      38.253
2015    5       16    15  25    3.4822   501.2    3.787      38.224
2015    5       16    15  30    3.4821   500.9    3.790      38.195
2015    5       16    15  36    3.4821   500.7    3.793      38.165
2015    5       16    15  42    3.4820   500.5    3.796      38.135
2015    5       16    15  48    3.4820   500.2    3.799      38.105
2015    5       16    15  53    3.4819   500.0    3.801      38.075
2015    5       16    15  59    3.4819   499.7    3.804      38.045
2015    5       16    16   5    3.4818   499.5    3.807      38.014
2015    5       16    16  11    3.4818   499.3    3.809      37.984
2015    5       16    16  16    3.4817   499.0    3.812      37.953
2015    5       16    16  22    3.4816   498.8    3.814      37.923
2015    5       16    16  28    3.4816   498.6    3.817      37.892
2015    5       16    16  34    3.4815   498.3    3.819      37.861
2015    5       16    16  39    3.4814   498.1    3.821      37.830
2015    5       16    16  45    3.4813   497.9    3.824      37.799
2015    5       16    16  51    3.4812   497.6    3.826      37.768
2015    5       16    16  57    3.4811   497.4    3.828      37.736
2015    5       16    17   2    3.4810   497.2    3.830      37.705
2015    5       16    17   8    3.4809   496.9    3.832      37.673
2015    5       16    17  14    3.4808   496.7    3.834      37.642
2015    5       16    17  20    3.4807   496.5    3.836      37.610
2015    5       16    17  25    3.4806   496.2    3.838      37.578
2015    5       16    17  31    3.4804   496.0    3.840      37.546
2015    5       16    17  37    3.4803   495.7    3.842      37.514
2015    5       16    17  43    3.4802   495.5    3.844      37.481
2015    5       16    17  48    3.4800   495.3    3.846      37.449
2015    5       16    17  54    3.4799   495.0    3.848      37.417
2015    5       16    18   0    3.4798   494.8    3.850      37.384
2015    5       16    18   6    3.4796   494.6    3.851      37.352
2015    5       16    18  11    3.4795   494.3    3.853      37.320
2015    5       16    18  17    3.4793   494.1    3.855      37.287
2015    5       16    18  23    3.4792   493.8    3.857      37.255
2015    5       16    18  29    3.4790   493.6    3.858      37.223
2015    5       16    18  34    3.4789   493.4    3.860      37.191
2015    5       16    18  40    3.4787   493.1    3.862      37.159
2015    5       16    18  46    3.4786   492.9    3.864      37.127
2015    5       16    18  52    3.4784   492.6    3.865      37.095
2015    5       16    18  57    3.4783   492.4    3.867      37.063
2015    5       16    19   3    3.4782   492.1    3.869      37.031
2015    5       16    19   9    3.4780   491.9    3.871      37.000
2015    5       16    19  15    3.4779   491.7    3.872      36.968
2015    5       16    19  20    3.4778   491.4    3.874      36.937
2015    5       16    19  26    3.4777   491.2    3.876      36.906
2015    5       16    19  32    3.4776   490.9    3.878      36.875
2015    5       16    19  38    3.4775   490.7    3.880      36.844
2015    5       16    19  43    3.4774   490.4    3.882      36.814
2015    5       16    19  49    3.4773   490.2    3.884      36.784
2015    5       16    19  55    3.4772   489.9    3.886      36.753
2015    5       16    20   1    3.4772   489.7    3.888      36.723
2015    5       16    20   6    3.4771   489.5    3.891      36.694
2015    5       16    20  12    3.4771   489.2    3.893      36.664
2015    5       16    20  18    3.4770   489.0    3.895      36.635
2015    5       16    20  24    3.4770   488.7    3.898      36.605
2015    5       16    20  29    3.4770   488.5    3.900      36.576
2015    5       16    20  35    3.4769   488.2    3.903      36.547
2015    5       16    20  41    3.4769   488.0    3.905      36.518
2015    5       16    20  47    3.4769   487.7    3.908      36.489
2015    5       16    20  52    3.4769   487.5    3.911      36.460
2015    5       16    20  58    3.4769   487.3    3.913      36.432
2015    5       16    21   4    3.4770   487.0    3.916      36.403
2015    5       16    21  10    3.4770   486.8    3.919      36.375
2015    5       16    21  15    3.4770   486.5    3.922      36.346
2015    5       16    21  21    3.4771   486.3    3.925      36.318
2015    5       16    21  27    3.4771   486.0    3.928      36.289
2015    5       16    21  33    3.4772   485.8    3.932      36.261
2015    5       16    21  38    3.4773   485.5    3.935      36.233
2015    5       16    21  44    3.4774   485.3    3.938      36.204
2015    5       16    21  50    3.4774   485.1    3.941      36.176
2015    5       16    21  56    3.4775   484.8    3.945      36.148
2015    5       16    22   1    3.4776   484.6    3.948      36.119
2015    5       16    22   7    3.4777   484.3    3.952      36.091
2015    5       16    22  13    3.4778   484.1    3.955      36.063
2015    5       16    22  19    3.4779   483.8    3.959      36.035
2015    5       16    22  25    3.4781   483.6    3.962      36.006
2015    5       16    22  30    3.4782   483.3    3.966      35.978
2015    5       16    22  36    3.4783   483.1    3.969      35.950
2015    5       16    22  42    3.4785   482.8    3.973      35.922
2015    5       16    22  48    3.4786   482.6    3.977      35.895
2015    5       16    22  53    3.4788   482.3    3.981      35.867
2015    5       16    22  59    3.4790   482.1    3.984      35.840
2015    5       16    23   5    3.4791   481.8    3.988      35.813
2015    5       16    23  11    3.4794   481.6    3.992      35.787
2015    5       16    23  16    3.4796   481.3    3.996      35.760
2015    5       16    23  22    3.4798   481.1    4.000      35.734
2015    5       16    23  28    3.4801   480.8    4.004      35.709
2015    5       16    23  34    3.4803   480.6    4.008      35.684
2015    5       16    23  39    3.4806   480.3    4.012      35.658
2015    5       16    23  45    3.4809   480.1    4.016      35.634
2015    5       16    23  51    3.4812   479.8    4.020      35.609
2015    5       16    23  57    3.4815   479.6    4.024      35.585
2015    5       17     0   2    3.4819   479.4    4.028      35.561
2015    5       17     0   8    3.4822   479.1    4.032      35.538
2015    5       17     0  14    3.4826   478.9    4.036      35.514
2015    5       17     0  20    3.4829   478.6    4.040      35.490
2015    5       17     0  25    3.4832   478.4    4.044      35.467
2015    5       17     0  31    3.4836   478.1    4.048      35.444
2015    5       17     0  37    3.4839   477.9    4.052      35.421
2015    5       17     0  43    3.4842   477.7    4.056      35.397
2015    5       17     0  48    3.4846   477.4    4.060      35.374
2015    5       17     0  54    3.4848   477.2    4.064      35.351
2015    5       17     1   0    3.4852   476.9    4.068      35.328
2015    5       17     1   6    3.4855   476.7    4.072      35.304
2015    5       17     1  11    3.4857   476.4    4.076      35.280
2015    5       17     1  17    3.4860   476.2    4.079      35.257
2015    5       17     1  23    3.4863   475.9    4.083      35.232
2015    5       17     1  29    3.4865   475.7    4.087      35.208
2015    5       17     1  34    3.4868   475.5    4.090      35.184
2015    5       17     1  40    3.4871   475.2    4.094      35.159
2015    5       17     1  46    3.4873   475.0    4.097      35.134
2015    5       17     1  52    3.4876   474.7    4.101      35.109
2015    5       17     1  57    3.4878   474.5    4.104      35.084
2015    5       17     2   3    3.4881   474.2    4.107      35.058
2015    5       17     2   9    3.4883   474.0    4.111      35.033
2015    5       17     2  15    3.4886   473.8    4.114      35.007
2015    5       17     2  20    3.4888   473.5    4.117      34.980
2015    5       17     2  26    3.4890   473.3    4.120      34.954
2015    5       17     2  32    3.4893   473.0    4.124      34.927
2015    5       17     2  38    3.4895   472.8    4.127      34.900
2015    5       17     2  43    3.4897   472.5    4.130      34.873
2015    5       17     2  49    3.4899   472.3    4.133      34.845
2015    5       17     2  55    3.4901   472.1    4.136      34.817
2015    5       17     3   1    3.4903   471.8    4.139      34.789
2015    5       17     3   6    3.4905   471.6    4.142      34.761
2015    5       17     3  12    3.4907   471.3    4.145      34.733
2015    5       17     3  18    3.4909   471.1    4.148      34.704
2015    5       17     3  24    3.4911   470.8    4.150      34.675
2015    5       17     3  29    3.4913   470.6    4.153      34.646
2015    5       17     3  35    3.4915   470.3    4.156      34.617
2015    5       17     3  41    3.4917   470.1    4.159      34.588
2015    5       17     3  47    3.4919   469.9    4.161      34.558
2015    5       17     3  52    3.4920   469.6    4.164      34.529
2015    5       17     3  58    3.4922   469.4    4.167      34.499
2015    5       17     4   4    3.4924   469.1    4.170      34.469
2015    5       17     4  10    3.4926   468.9    4.172      34.439
2015    5       17     4  15    3.4928   468.6    4.175      34.409
2015    5       17     4  21    3.4930   468.4    4.178      34.379
2015    5       17     4  27    3.4932   468.1    4.181      34.348
2015    5       17     4  33    3.4934   467.9    4.183      34.318
2015    5       17     4  38    3.4936   467.6    4.186      34.288
2015    5       17     4  44    3.4938   467.4    4.189      34.258
2015    5       17     4  50    3.4940   467.1    4.192      34.228
2015    5       17     4  56    3.4942   466.9    4.195      34.198
2015    5       17     5   1    3.4945   466.6    4.198      34.168
2015    5       17     5   7    3.4947   466.4    4.201      34.138
2015    5       17     5  13    3.4950   466.1    4.204      34.108
2015    5       17     5  19    3.4952   465.9    4.207      34.079
2015    5       17     5  24    3.4955   465.6    4.210      34.050
2015    5       17     5  30    3.4958   465.4    4.213      34.021
2015    5       17     5  36    3.4961   465.1    4.216      33.992
2015    5       17     5  42    3.4964   464.9    4.220      33.964
2015    5       17     5  47    3.4967   464.6    4.223      33.935
2015    5       17     5  53    3.4971   464.4    4.227      33.907
2015    5       17     5  59    3.4974   464.1    4.230      33.880
2015    5       17     6   5    3.4978   463.8    4.234      33.852
2015    5       17     6  10    3.4982   463.6    4.237      33.825
2015    5       17     6  16    3.4986   463.3    4.241      33.799
2015    5       17     6  22    3.4990   463.1    4.245      33.772
2015    5       17     6  28    3.4995   462.8    4.249      33.746
2015    5       17     6  33    3.4999   462.6    4.253      33.721
2015    5       17     6  39    3.5004   462.3    4.257      33.695
2015    5       17     6  45    3.5009   462.1    4.261      33.670
2015    5       17     6  51    3.5014   461.8    4.265      33.645
2015    5       17     6  56    3.5019   461.5    4.269      33.621
2015    5       17     7   2    3.5025   461.3    4.273      33.597
2015    5       17     7   8    3.5030   461.0    4.277      33.573
2015    5       17     7  14    3.5036   460.8    4.282      33.550
2015    5       17     7  19    3.5042   460.5    4.286      33.526
2015    5       17     7  25    3.5048   460.3    4.291      33.503
2015    5       17     7  31    3.5055   460.0    4.295      33.480
2015    5       17     7  37    3.5061   459.8    4.300      33.458
2015    5       17     7  42    3.5068   459.5    4.304      33.435
2015    5       17     7  48    3.5075   459.3    4.309      33.413
2015    5       17     7  54    3.5082   459.0    4.314      33.391
2015    5       17     8   0    3.5089   458.8    4.318      33.369
2015    5       17     8   5    3.5096   458.5    4.323      33.348
2015    5       17     8  11    3.5103   458.2    4.328      33.326
2015    5       17     8  17    3.5111   458.0    4.333      33.305
2015    5       17     8  23    3.5118   457.7    4.337      33.283
2015    5       17     8  28    3.5126   457.5    4.342      33.262
2015    5       17     8  34    3.5134   457.2    4.347      33.241
2015    5       17     8  40    3.5142   457.0    4.352      33.220
2015    5       17     8  46    3.5150   456.7    4.357      33.199
2015    5       17     8  51    3.5158   456.5    4.362      33.178
2015    5       17     8  57    3.5167   456.2    4.367      33.157
2015    5       17     9   3    3.5175   456.0    4.372      33.137
2015    5       17     9   9    3.5184   455.7    4.377      33.116
2015    5       17     9  14    3.5192   455.5    4.382      33.095
2015    5       17     9  20    3.5201   455.2    4.387      33.075
2015    5       17     9  26    3.5210   455.0    4.392      33.054
2015    5       17     9  32    3.5219   454.7    4.397      33.033
2015    5       17     9  37    3.5228   454.5    4.402      33.013
2015    5       17     9  43    3.5237   454.2    4.407      32.992
2015    5       17     9  49    3.5246   454.0    4.412      32.972
2015    5       17     9  55    3.5255   453.8    4.417      32.951
2015    5       17    10   0    3.5264   453.5    4.422      32.930
2015    5       17    10   6    3.5273   453.3    4.427      32.910
2015    5       17    10  12    3.5283   453.0    4.432      32.889
2015    5       17    10  18    3.5292   452.8    4.437      32.868
2015    5       17    10  23    3.5301   452.5    4.442      32.848
2015    5       17    10  29    3.5311   452.3    4.447      32.827
2015    5       17    10  35    3.5320   452.0    4.452      32.806
2015    5       17    10  41    3.5330   451.8    4.457      32.785
2015    5       17    10  46    3.5340   451.5    4.462      32.764
2015    5       17    10  52    3.5349   451.3    4.467      32.743
2015    5       17    10  58    3.5359   451.0    4.472      32.722
2015    5       17    11   4    3.5369   450.8    4.477      32.701
2015    5       17    11   9    3.5379   450.5    4.482      32.680
2015    5       17    11  15    3.5389   450.3    4.487      32.659
2015    5       17    11  21    3.5399   450.0    4.492      32.638
2015    5       17    11  27    3.5409   449.8    4.497      32.616
2015    5       17    11  32    3.5420   449.5    4.502      32.595
2015    5       17    11  38    3.5430   449.3    4.506      32.573
2015    5       17    11  44    3.5441   449.0    4.511      32.552
2015    5       17    11  50    3.5452   448.8    4.516      32.530
2015    5       17    11  55    3.5463   448.5    4.521      32.509
2015    5       17    12   1    3.5473   448.3    4.526      32.487
2015    5       17    12   7    3.5484   448.0    4.531      32.465
2015    5       17    12  13    3.5496   447.8    4.536      32.444
2015    5       17    12  18    3.5507   447.6    4.540      32.422
2015    5       17    12  24    3.5519   447.3    4.545      32.400
2015    5       17    12  30    3.5530   447.1    4.550      32.378
2015    5       17    12  36    3.5542   446.8    4.555      32.356
2015    5       17    12  41    3.5554   446.6    4.560      32.335
2015    5       17    12  47    3.5566   446.3    4.564      32.313
2015    5       17    12  53    3.5578   446.1    4.569      32.291
2015    5       17    12  59    3.5591   445.8    4.574      32.269
2015    5       17    13   4    3.5603   445.6    4.579      32.247
2015    5       17    13  10    3.5616   445.3    4.584      32.225
2015    5       17    13  16    3.5629   445.1    4.588      32.204
2015    5       17    13  22    3.5642   444.8    4.593      32.182
2015    5       17    13  27    3.5655   444.6    4.598      32.160
2015    5       17    13  33    3.5668   444.3    4.603      32.138
2015    5       17    13  39    3.5682   444.1    4.608      32.116
2015    5       17    13  45    3.5695   443.8    4.613      32.095
2015    5       17    13  50    3.5709   443.6    4.618      32.073
2015    5       17    13  56    3.5723   443.3    4.623      32.051
2015    5       17    14   2    3.5737   443.1    4.627      32.030
2015    5       17    14   8    3.5751   442.9    4.632      32.008
2015    5       17    14  13    3.5766   442.6    4.637      31.987
2015    5       17    14  19    3.5781   442.4    4.642      31.965
2015    5       17    14  25    3.5795   442.1    4.647      31.944
2015    5       17    14  31    3.5810   441.9    4.653      31.923
2015    5       17    14  36    3.5825   441.6    4.658      31.902
2015    5       17    14  42    3.5841   441.4    4.663      31.881
2015    5       17    14  48    3.5856   441.1    4.668      31.861
2015    5       17    14  54    3.5872   440.9    4.673      31.840
2015    5       17    14  59    3.5888   440.6    4.678      31.820
2015    5       17    15   5    3.5904   440.4    4.684      31.800
2015    5       17    15  11    3.5920   440.2    4.689      31.780
2015    5       17    15  17    3.5937   439.9    4.695      31.760
2015    5       17    15  22    3.5953   439.7    4.700      31.740
2015    5       17    15  28    3.5970   439.4    4.706      31.721
2015    5       17    15  34    3.5987   439.2    4.711      31.702
2015    5       17    15  40    3.6004   438.9    4.717      31.683
2015    5       17    15  45    3.6022   438.7    4.722      31.664
2015    5       17    15  51    3.6039   438.5    4.728      31.645
2015    5       17    15  57    3.6057   438.2    4.734      31.627
2015    5       17    16   3    3.6075   438.0    4.740      31.609
2015    5       17    16   8    3.6093   437.8    4.746      31.591
2015    5       17    16  14    3.6111   437.5    4.752      31.574
2015    5       17    16  20    3.6130   437.3    4.758      31.556
2015    5       17    16  26    3.6148   437.0    4.764      31.539
2015    5       17    16  31    3.6167   436.8    4.770      31.522
2015    5       17    16  37    3.6186   436.6    4.776      31.505
2015    5       17    16  43    3.6205   436.3    4.782      31.489
2015    5       17    16  49    3.6224   436.1    4.789      31.473
2015    5       17    16  54    3.6244   435.9    4.795      31.457
2015    5       17    17   0    3.6263   435.6    4.801      31.441
2015    5       17    17   6    3.6282   435.4    4.808      31.425
2015    5       17    17  12    3.6302   435.2    4.814      31.410
2015    5       17    17  17    3.6322   434.9    4.821      31.395
2015    5       17    17  23    3.6342   434.7    4.827      31.380
2015    5       17    17  29    3.6362   434.5    4.834      31.365
2015    5       17    17  35    3.6382   434.2    4.840      31.350
2015    5       17    17  40    3.6402   434.0    4.847      31.335
2015    5       17    17  46    3.6423   433.8    4.854      31.321
2015    5       17    17  52    3.6443   433.5    4.861      31.307
2015    5       17    17  58    3.6464   433.3    4.867      31.293
2015    5       17    18   3    3.6484   433.1    4.874      31.279
2015    5       17    18   9    3.6505   432.9    4.881      31.265
2015    5       17    18  15    3.6526   432.6    4.888      31.252
2015    5       17    18  21    3.6547   432.4    4.895      31.238
2015    5       17    18  26    3.6568   432.2    4.902      31.225
2015    5       17    18  32    3.6590   432.0    4.909      31.212
2015    5       17    18  38    3.6611   431.7    4.916      31.199
2015    5       17    18  44    3.6633   431.5    4.923      31.186
2015    5       17    18  49    3.6654   431.3    4.930      31.173
2015    5       17    18  55    3.6676   431.1    4.937      31.160
2015    5       17    19   1    3.6698   430.8    4.944      31.147
2015    5       17    19   7    3.6720   430.6    4.951      31.135
2015    5       17    19  12    3.6742   430.4    4.959      31.122
2015    5       17    19  18    3.6764   430.2    4.966      31.110
2015    5       17    19  24    3.6787   429.9    4.973      31.098
2015    5       17    19  30    3.6809   429.7    4.980      31.086
2015    5       17    19  36    3.6832   429.5    4.988      31.074
2015    5       17    19  41    3.6855   429.3    4.995      31.062
2015    5       17    19  47    3.6878   429.1    5.003      31.050
2015    5       17    19  53    3.6901   428.8    5.010      31.038
2015    5       17    19  59    3.6924   428.6    5.017      31.027
2015    5       17    20   4    3.6947   428.4    5.025      31.015
2015    5       17    20  10    3.6971   428.2    5.033      31.004
2015    5       17    20  16    3.6995   427.9    5.040      30.993
2015    5       17    20  22    3.7019   427.7    5.048      30.982
2015    5       17    20  27    3.7043   427.5    5.055      30.971
2015    5       17    20  33    3.7067   427.3    5.063      30.960
2015    5       17    20  39    3.7092   427.1    5.071      30.949
2015    5       17    20  45    3.7117   426.9    5.079      30.939
2015    5       17    20  50    3.7142   426.6    5.087      30.928
2015    5       17    20  56    3.7167   426.4    5.095      30.918
2015    5       17    21   2    3.7193   426.2    5.103      30.908
2015    5       17    21   8    3.7218   426.0    5.111      30.898
2015    5       17    21  13    3.7244   425.8    5.119      30.889
2015    5       17    21  19    3.7271   425.5    5.128      30.879
2015    5       17    21  25    3.7297   425.3    5.136      30.870
2015    5       17    21  31    3.7324   425.1    5.144      30.861
2015    5       17    21  36    3.7351   424.9    5.153      30.853
2015    5       17    21  42    3.7379   424.7    5.162      30.844
2015    5       17    21  48    3.7407   424.5    5.170      30.836
2015    5       17    21  54    3.7435   424.2    5.179      30.829
2015    5       17    21  59    3.7463   424.0    5.188      30.821
2015    5       17    22   5    3.7492   423.8    5.197      30.814
2015    5       17    22  11    3.7521   423.6    5.206      30.808
2015    5       17    22  17    3.7551   423.4    5.215      30.801
2015    5       17    22  22    3.7580   423.2    5.225      30.795
2015    5       17    22  28    3.7611   423.0    5.234      30.790
2015    5       17    22  34    3.7641   422.8    5.243      30.784
2015    5       17    22  40    3.7672   422.6    5.253      30.779
2015    5       17    22  45    3.7703   422.4    5.263      30.775
2015    5       17    22  51    3.7734   422.1    5.272      30.770
2015    5       17    22  57    3.7766   421.9    5.282      30.767
2015    5       17    23   3    3.7798   421.7    5.292      30.763
2015    5       17    23   8    3.7830   421.5    5.302      30.760
2015    5       17    23  14    3.7862   421.3    5.312      30.757
2015    5       17    23  20    3.7895   421.1    5.322      30.754
2015    5       17    23  26    3.7927   420.9    5.332      30.752
2015    5       17    23  31    3.7960   420.8    5.342      30.750
2015    5       17    23  37    3.7994   420.6    5.353      30.748
2015    5       17    23  43    3.8027   420.4    5.363      30.747
2015    5       17    23  49    3.8060   420.2    5.373      30.745
2015    5       17    23  54    3.8094   420.0    5.383      30.744
2015    5       18     0   0    3.8127   419.8    5.394      30.743
2015    5       18     0   6    3.8161   419.6    5.404      30.743
2015    5       18     0  12    3.8195   419.4    5.414      30.742
2015    5       18     0  17    3.8229   419.2    5.425      30.742
2015    5       18     0  23    3.8263   419.0    5.435      30.742
2015    5       18     0  29    3.8297   418.9    5.445      30.742
2015    5       18     0  35    3.8331   418.7    5.456      30.742
2015    5       18     0  40    3.8366   418.5    5.466      30.743
2015    5       18     0  46    3.8400   418.3    5.476      30.744
2015    5       18     0  52    3.8435   418.1    5.487      30.744
2015    5       18     0  58    3.8470   417.9    5.497      30.745
2015    5       18     1   3    3.8504   417.8    5.507      30.747
2015    5       18     1   9    3.8540   417.6    5.518      30.748
2015    5       18     1  15    3.8575   417.4    5.528      30.749
2015    5       18     1  21    3.8610   417.2    5.538      30.751
2015    5       18     1  26    3.8645   417.0    5.549      30.753
2015    5       18     1  32    3.8681   416.9    5.559      30.755
2015    5       18     1  38    3.8716   416.7    5.569      30.757
2015    5       18     1  44    3.8752   416.5    5.579      30.759
2015    5       18     1  49    3.8788   416.3    5.590      30.762
2015    5       18     1  55    3.8824   416.2    5.600      30.765
2015    5       18     2   1    3.8860   416.0    5.610      30.768
2015    5       18     2   7    3.8896   415.8    5.620      30.771
2015    5       18     2  12    3.8932   415.7    5.630      30.775
2015    5       18     2  18    3.8969   415.5    5.641      30.779
2015    5       18     2  24    3.9006   415.3    5.651      30.782
2015    5       18     2  30    3.9043   415.1    5.661      30.787
2015    5       18     2  35    3.9080   415.0    5.672      30.791
2015    5       18     2  41    3.9117   414.8    5.682      30.796
2015    5       18     2  47    3.9154   414.7    5.692      30.801
2015    5       18     2  53    3.9192   414.5    5.703      30.806
2015    5       18     2  58    3.9230   414.3    5.713      30.812
2015    5       18     3   4    3.9268   414.2    5.724      30.818
2015    5       18     3  10    3.9306   414.0    5.734      30.824
2015    5       18     3  16    3.9344   413.8    5.745      30.830
2015    5       18     3  21    3.9383   413.7    5.755      30.837
2015    5       18     3  27    3.9422   413.5    5.766      30.843
2015    5       18     3  33    3.9461   413.4    5.777      30.851
2015    5       18     3  39    3.9500   413.2    5.788      30.858
2015    5       18     3  44    3.9539   413.1    5.798      30.866
2015    5       18     3  50    3.9579   412.9    5.809      30.874
2015    5       18     3  56    3.9619   412.8    5.820      30.882
2015    5       18     4   2    3.9659   412.6    5.831      30.891
2015    5       18     4   7    3.9700   412.4    5.842      30.900
2015    5       18     4  13    3.9741   412.3    5.854      30.909
2015    5       18     4  19    3.9782   412.2    5.865      30.918
2015    5       18     4  25    3.9823   412.0    5.876      30.928
2015    5       18     4  30    3.9865   411.9    5.888      30.938
2015    5       18     4  36    3.9906   411.7    5.899      30.949
2015    5       18     4  42    3.9949   411.6    5.911      30.959
2015    5       18     4  48    3.9991   411.4    5.923      30.970
2015    5       18     4  53    4.0034   411.3    5.935      30.982
2015    5       18     4  59    4.0076   411.1    5.947      30.993
2015    5       18     5   5    4.0120   411.0    5.959      31.005
2015    5       18     5  11    4.0163   410.9    5.971      31.018
2015    5       18     5  16    4.0207   410.7    5.983      31.030
2015    5       18     5  22    4.0251   410.6    5.996      31.043
2015    5       18     5  28    4.0295   410.5    6.008      31.056
2015    5       18     5  34    4.0339   410.3    6.021      31.070
2015    5       18     5  39    4.0384   410.2    6.034      31.084
2015    5       18     5  45    4.0428   410.1    6.047      31.098
2015    5       18     5  51    4.0473   410.0    6.060      31.113
2015    5       18     5  57    4.0518   409.8    6.073      31.127
2015    5       18     6   2    4.0563   409.7    6.086      31.142
2015    5       18     6   8    4.0608   409.6    6.099      31.157
2015    5       18     6  14    4.0654   409.5    6.112      31.173
2015    5       18     6  20    4.0699   409.4    6.126      31.189
2015    5       18     6  25    4.0745   409.2    6.139      31.204
2015    5       18     6  31    4.0790   409.1    6.152      31.221
2015    5       18     6  37    4.0836   409.0    6.166      31.237
2015    5       18     6  43    4.0881   408.9    6.180      31.253
2015    5       18     6  48    4.0927   408.8    6.193      31.270
2015    5       18     6  54    4.0972   408.7    6.207      31.287
2015    5       18     7   0    4.1018   408.6    6.221      31.303
2015    5       18     7   6    4.1063   408.5    6.234      31.320
2015    5       18     7  11    4.1109   408.4    6.248      31.337
2015    5       18     7  17    4.1154   408.3    6.262      31.354
2015    5       18     7  23    4.1200   408.2    6.276      31.371
2015    5       18     7  29    4.1245   408.1    6.289      31.388
2015    5       18     7  34    4.1290   407.9    6.303      31.405
2015    5       18     7  40    4.1336   407.8    6.317      31.422
2015    5       18     7  46    4.1381   407.7    6.331      31.439
2015    5       18     7  52    4.1426   407.6    6.345      31.457
2015    5       18     7  57    4.1471   407.5    6.359      31.474
2015    5       18     8   3    4.1517   407.4    6.372      31.492
2015    5       18     8   9    4.1562   407.3    6.386      31.511
2015    5       18     8  15    4.1608   407.2    6.400      31.530
2015    5       18     8  20    4.1653   407.1    6.413      31.549
2015    5       18     8  26    4.1699   407.0    6.426      31.569
2015    5       18     8  32    4.1744   406.9    6.440      31.590
2015    5       18     8  38    4.1790   406.8    6.453      31.611
2015    5       18     8  43    4.1836   406.8    6.466      31.634
2015    5       18     8  49    4.1881   406.7    6.479      31.656
2015    5       18     8  55    4.1927   406.6    6.492      31.679
2015    5       18     9   1    4.1973   406.5    6.504      31.703
2015    5       18     9   6    4.2019   406.4    6.517      31.727
2015    5       18     9  12    4.2065   406.3    6.529      31.751
2015    5       18     9  18    4.2111   406.2    6.542      31.775
2015    5       18     9  24    4.2157   406.1    6.554      31.800
2015    5       18     9  29    4.2203   406.0    6.566      31.824
2015    5       18     9  35    4.2249   405.9    6.578      31.848
2015    5       18     9  41    4.2295   405.9    6.590      31.873
2015    5       18     9  47    4.2341   405.8    6.602      31.897
2015    5       18     9  52    4.2388   405.7    6.614      31.921
2015    5       18     9  58    4.2434   405.6    6.626      31.945
2015    5       18    10   4    4.2480   405.5    6.637      31.969
2015    5       18    10  10    4.2527   405.4    6.649      31.993
2015    5       18    10  15    4.2573   405.4    6.660      32.017
2015    5       18    10  21    4.2620   405.3    6.671      32.041
2015    5       18    10  27    4.2667   405.2    6.683      32.064
2015    5       18    10  33    4.2713   405.1    6.694      32.088
2015    5       18    10  38    4.2760   405.1    6.705      32.111
2015    5       18    10  44    4.2807   405.0    6.716      32.135
2015    5       18    10  50    4.2854   404.9    6.727      32.158
2015    5       18    10  56    4.2901   404.9    6.738      32.181
2015    5       18    11   1    4.2948   404.8    6.749      32.204
2015    5       18    11   7    4.2995   404.7    6.759      32.227
2015    5       18    11  13    4.3042   404.6    6.770      32.250
2015    5       18    11  19    4.3090   404.6    6.781      32.272
2015    5       18    11  24    4.3137   404.5    6.792      32.295
2015    5       18    11  30    4.3185   404.5    6.803      32.318
2015    5       18    11  36    4.3232   404.4    6.813      32.340
2015    5       18    11  42    4.3280   404.3    6.824      32.363
2015    5       18    11  47    4.3327   404.3    6.834      32.385
2015    5       18    11  53    4.3375   404.2    6.845      32.408
2015    5       18    11  59    4.3423   404.2    6.856      32.430
2015    5       18    12   5    4.3471   404.1    6.866      32.452
2015    5       18    12  10    4.3518   404.0    6.877      32.474
2015    5       18    12  16    4.3566   404.0    6.888      32.496
2015    5       18    12  22    4.3614   403.9    6.898      32.519
2015    5       18    12  28    4.3662   403.9    6.909      32.541
2015    5       18    12  33    4.3710   403.8    6.920      32.563
2015    5       18    12  39    4.3758   403.8    6.930      32.585
2015    5       18    12  45    4.3806   403.7    6.941      32.607
2015    5       18    12  51    4.3854   403.7    6.952      32.629
2015    5       18    12  56    4.3902   403.6    6.962      32.651
2015    5       18    13   2    4.3949   403.6    6.973      32.673
2015    5       18    13   8    4.3997   403.6    6.984      32.696
2015    5       18    13  14    4.4044   403.5    6.994      32.718
2015    5       18    13  19    4.4092   403.5    7.005      32.740
2015    5       18    13  25    4.4139   403.4    7.015      32.762
2015    5       18    13  31    4.4187   403.4    7.026      32.785
2015    5       18    13  37    4.4234   403.3    7.037      32.807
2015    5       18    13  42    4.4281   403.3    7.047      32.829
2015    5       18    13  48    4.4327   403.3    7.058      32.851
2015    5       18    13  54    4.4374   403.2    7.069      32.873
2015    5       18    14   0    4.4421   403.2    7.079      32.895
2015    5       18    14   6    4.4467   403.2    7.090      32.917
2015    5       18    14  11    4.4513   403.1    7.100      32.939
2015    5       18    14  17    4.4559   403.1    7.111      32.961
2015    5       18    14  23    4.4605   403.1    7.122      32.983
2015    5       18    14  28    4.4651   403.0    7.132      33.005
2015    5       18    14  34    4.4696   403.0    7.143      33.026
2015    5       18    14  40    4.4742   402.9    7.153      33.048
2015    5       18    14  46    4.4787   402.9    7.164      33.070
2015    5       18    14  52    4.4832   402.9    7.175      33.092
2015    5       18    14  57    4.4877   402.8    7.186      33.113
2015    5       18    15   3    4.4922   402.8    7.197      33.135
2015    5       18    15   9    4.4967   402.8    7.207      33.157
2015    5       18    15  15    4.5012   402.7    7.218      33.179
2015    5       18    15  20    4.5056   402.7    7.229      33.202
2015    5       18    15  26    4.5101   402.7    7.240      33.225
2015    5       18    15  32    4.5145   402.6    7.251      33.249
2015    5       18    15  38    4.5190   402.6    7.261      33.273
2015    5       18    15  43    4.5234   402.6    7.272      33.298
2015    5       18    15  49    4.5278   402.6    7.282      33.323
2015    5       18    15  55    4.5322   402.5    7.293      33.349
2015    5       18    16   1    4.5366   402.5    7.303      33.376
2015    5       18    16   6    4.5410   402.5    7.314      33.404
2015    5       18    16  12    4.5454   402.4    7.324      33.431
2015    5       18    16  18    4.5497   402.4    7.334      33.459
2015    5       18    16  24    4.5541   402.4    7.345      33.487
2015    5       18    16  29    4.5584   402.4    7.355      33.516
2015    5       18    16  35    4.5628   402.3    7.365      33.545
2015    5       18    16  41    4.5671   402.3    7.375      33.574
2015    5       18    16  47    4.5714   402.3    7.385      33.602
2015    5       18    16  52    4.5757   402.3    7.394      33.632
2015    5       18    16  58    4.5800   402.2    7.404      33.661
2015    5       18    17   4    4.5843   402.2    7.414      33.691
2015    5       18    17  10    4.5885   402.2    7.423      33.722
2015    5       18    17  15    4.5928   402.2    7.432      33.752
2015    5       18    17  21    4.5971   402.2    7.441      33.783
2015    5       18    17  27    4.6013   402.1    7.450      33.815
2015    5       18    17  33    4.6055   402.1    7.459      33.846
2015    5       18    17  38    4.6097   402.1    7.468      33.877
2015    5       18    17  44    4.6139   402.1    7.476      33.907
2015    5       18    17  50    4.6180   402.1    7.485      33.938
2015    5       18    17  56    4.6222   402.1    7.493      33.968
2015    5       18    18   1    4.6263   402.1    7.501      33.998
2015    5       18    18   7    4.6304   402.1    7.509      34.027
2015    5       18    18  13    4.6345   402.0    7.517      34.056
2015    5       18    18  19    4.6387   402.0    7.525      34.085
2015    5       18    18  24    4.6427   402.0    7.532      34.113
2015    5       18    18  30    4.6468   402.0    7.540      34.141
2015    5       18    18  36    4.6509   402.0    7.547      34.169
2015    5       18    18  42    4.6549   402.0    7.555      34.196
2015    5       18    18  47    4.6589   402.0    7.562      34.223
2015    5       18    18  53    4.6630   402.0    7.569      34.249
2015    5       18    18  59    4.6669   402.0    7.576      34.275
2015    5       18    19   5    4.6710   402.0    7.583      34.301
2015    5       18    19  10    4.6749   402.0    7.590      34.327
2015    5       18    19  16    4.6789   402.0    7.597      34.352
2015    5       18    19  22    4.6829   402.0    7.604      34.377
2015    5       18    19  28    4.6869   402.0    7.611      34.402
2015    5       18    19  33    4.6908   402.0    7.618      34.427
2015    5       18    19  39    4.6948   402.0    7.624      34.452
2015    5       18    19  45    4.6988   402.0    7.631      34.476
2015    5       18    19  51    4.7027   402.0    7.638      34.500
2015    5       18    19  56    4.7066   402.0    7.644      34.524
2015    5       18    20   2    4.7106   402.0    7.651      34.548
2015    5       18    20   8    4.7145   402.0    7.658      34.571
2015    5       18    20  14    4.7184   402.0    7.664      34.595
2015    5       18    20  19    4.7223   402.0    7.671      34.618
2015    5       18    20  25    4.7262   402.0    7.677      34.642
2015    5       18    20  31    4.7301   402.0    7.683      34.665
2015    5       18    20  37    4.7340   402.1    7.690      34.688
2015    5       18    20  42    4.7380   402.1    7.696      34.712
2015    5       18    20  48    4.7419   402.1    7.703      34.735
2015    5       18    20  54    4.7458   402.1    7.709      34.758
2015    5       18    21   0    4.7496   402.1    7.715      34.781
2015    5       18    21   5    4.7535   402.1    7.722      34.804
2015    5       18    21  11    4.7574   402.1    7.728      34.827
2015    5       18    21  17    4.7612   402.2    7.734      34.850
2015    5       18    21  23    4.7650   402.2    7.740      34.873
2015    5       18    21  28    4.7688   402.2    7.746      34.896
2015    5       18    21  34    4.7726   402.2    7.753      34.919
2015    5       18    21  40    4.7763   402.2    7.759      34.942
2015    5       18    21  46    4.7800   402.2    7.765      34.965
2015    5       18    21  51    4.7837   402.3    7.770      34.988
2015    5       18    21  57    4.7873   402.3    7.776      35.011
2015    5       18    22   3    4.7909   402.3    7.782      35.035
2015    5       18    22   9    4.7945   402.3    7.788      35.058
2015    5       18    22  14    4.7980   402.3    7.794      35.081
2015    5       18    22  20    4.8015   402.4    7.799      35.104
2015    5       18    22  26    4.8050   402.4    7.805      35.127
2015    5       18    22  32    4.8084   402.4    7.810      35.151
2015    5       18    22  37    4.8118   402.4    7.816      35.173
2015    5       18    22  43    4.8152   402.4    7.821      35.196
2015    5       18    22  49    4.8185   402.5    7.826      35.219
2015    5       18    22  55    4.8218   402.5    7.831      35.242
2015    5       18    23   0    4.8250   402.5    7.837      35.264
2015    5       18    23   6    4.8283   402.5    7.842      35.286
2015    5       18    23  12    4.8315   402.5    7.847      35.309
2015    5       18    23  18    4.8346   402.5    7.852      35.331
2015    5       18    23  23    4.8378   402.6    7.857      35.353
2015    5       18    23  29    4.8409   402.6    7.862      35.375
2015    5       18    23  35    4.8440   402.6    7.868      35.397
2015    5       18    23  41    4.8471   402.6    7.873      35.418
2015    5       18    23  46    4.8502   402.6    7.878      35.440
2015    5       18    23  52    4.8532   402.6    7.883      35.462
2015    5       18    23  58    4.8562   402.6    7.888      35.484
2015    5       19     0   4    4.8592   402.7    7.893      35.506
2015    5       19     0   9    4.8622   402.7    7.898      35.528
2015    5       19     0  15    4.8652   402.7    7.903      35.550
2015    5       19     0  21    4.8681   402.7    7.907      35.574
2015    5       19     0  27    4.8710   402.7    7.912      35.597
2015    5       19     0  32    4.8739   402.7    7.917      35.620
2015    5       19     0  38    4.8768   402.7    7.921      35.644
2015    5       19     0  44    4.8796   402.8    7.925      35.669
2015    5       19     0  50    4.8824   402.8    7.930      35.693
2015    5       19     0  55    4.8852   402.8    7.934      35.717
2015    5       19     1   1    4.8880   402.8    7.938      35.741
2015    5       19     1   7    4.8907   402.8    7.942      35.765
2015    5       19     1  13    4.8935   402.8    7.946      35.789
2015    5       19     1  18    4.8962   402.8    7.950      35.812
2015    5       19     1  24    4.8989   402.9    7.953      35.836
2015    5       19     1  30    4.9016   402.9    7.957      35.859
2015    5       19     1  36    4.9043   402.9    7.961      35.882
2015    5       19     1  41    4.9069   402.9    7.964      35.905
2015    5       19     1  47    4.9095   402.9    7.967      35.927
2015    5       19     1  53    4.9121   402.9    7.971      35.950
2015    5       19     1  59    4.9147   403.0    7.974      35.972
2015    5       19     2   4    4.9173   403.0    7.977      35.994
2015    5       19     2  10    4.9199   403.0    7.980      36.016
2015    5       19     2  16    4.9224   403.0    7.983      36.038
2015    5       19     2  22    4.9250   403.0    7.986      36.060
2015    5       19     2  27    4.9275   403.0    7.989      36.081
2015    5       19     2  33    4.9300   403.1    7.992      36.103
2015    5       19     2  39    4.9325   403.1    7.995      36.124
2015    5       19     2  45    4.9350   403.1    7.998      36.145
2015    5       19     2  50    4.9375   403.1    8.001      36.166
2015    5       19     2  56    4.9400   403.1    8.003      36.187
2015    5       19     3   2    4.9424   403.2    8.006      36.208
2015    5       19     3   8    4.9449   403.2    8.009      36.229
2015    5       19     3  13    4.9474   403.2    8.011      36.249
2015    5       19     3  19    4.9498   403.2    8.014      36.270
2015    5       19     3  25    4.9522   403.2    8.017      36.291
2015    5       19     3  31    4.9547   403.3    8.019      36.311
2015    5       19     3  36    4.9571   403.3    8.022      36.331
2015    5       19     3  42    4.9596   403.3    8.024      36.352
2015    5       19     3  48    4.9620   403.3    8.027      36.372
2015    5       19     3  54    4.9645   403.4    8.030      36.392
2015    5       19     3  59    4.9670   403.4    8.032      36.412
2015    5       19     4   5    4.9695   403.4    8.035      36.433
2015    5       19     4  11    4.9719   403.4    8.038      36.453
2015    5       19     4  17    4.9744   403.5    8.041      36.473
2015    5       19     4  22    4.9769   403.5    8.043      36.494
2015    5       19     4  28    4.9794   403.5    8.046      36.514
2015    5       19     4  34    4.9819   403.6    8.049      36.535
2015    5       19     4  40    4.9845   403.6    8.052      36.556
2015    5       19     4  45    4.9870   403.6    8.055      36.577
2015    5       19     4  51    4.9895   403.7    8.058      36.598
2015    5       19     4  57    4.9920   403.7    8.062      36.620
2015    5       19     5   3    4.9946   403.7    8.065      36.641
2015    5       19     5   8    4.9972   403.8    8.068      36.663
2015    5       19     5  14    4.9998   403.8    8.072      36.686
2015    5       19     5  20    5.0025   403.8    8.075      36.709
2015    5       19     5  26    5.0051   403.9    8.079      36.732
2015    5       19     5  31    5.0077   403.9    8.083      36.755
2015    5       19     5  37    5.0103   404.0    8.087      36.780
2015    5       19     5  43    5.0129   404.0    8.091      36.805
2015    5       19     5  49    5.0154   404.0    8.096      36.831
2015    5       19     5  54    5.0179   404.1    8.100      36.858
2015    5       19     6   0    5.0204   404.2    8.104      36.885
2015    5       19     6   6    5.0228   404.2    8.108      36.913
2015    5       19     6  12    5.0252   404.3    8.112      36.942
2015    5       19     6  17    5.0274   404.3    8.116      36.969
2015    5       19     6  23    5.0296   404.4    8.119      36.997
2015    5       19     6  29    5.0318   404.5    8.123      37.024
2015    5       19     6  35    5.0338   404.5    8.126      37.051
2015    5       19     6  40    5.0358   404.6    8.129      37.077
2015    5       19     6  46    5.0377   404.7    8.131      37.102
2015    5       19     6  52    5.0395   404.7    8.133      37.127
2015    5       19     6  58    5.0412   404.8    8.135      37.150
2015    5       19     7   3    5.0428   404.8    8.137      37.173
2015    5       19     7   9    5.0444   404.9    8.138      37.195
2015    5       19     7  15    5.0459   405.0    8.139      37.217
2015    5       19     7  21    5.0473   405.0    8.140      37.238
2015    5       19     7  26    5.0487   405.1    8.141      37.258
2015    5       19     7  32    5.0501   405.1    8.141      37.277
2015    5       19     7  38    5.0514   405.2    8.142      37.296
2015    5       19     7  44    5.0526   405.2    8.142      37.314
2015    5       19     7  49    5.0538   405.3    8.142      37.332
2015    5       19     7  55    5.0550   405.3    8.142      37.349
2015    5       19     8   1    5.0561   405.4    8.142      37.365
2015    5       19     8   7    5.0572   405.4    8.141      37.382
2015    5       19     8  12    5.0583   405.5    8.141      37.398
2015    5       19     8  18    5.0593   405.5    8.140      37.413
2015    5       19     8  24    5.0603   405.6    8.139      37.428
2015    5       19     8  30    5.0613   405.6    8.138      37.443
2015    5       19     8  35    5.0623   405.7    8.137      37.457
2015    5       19     8  41    5.0633   405.7    8.136      37.471
2015    5       19     8  47    5.0642   405.7    8.135      37.485
2015    5       19     8  53    5.0651   405.8    8.134      37.499
2015    5       19     8  58    5.0660   405.8    8.133      37.512
2015    5       19     9   4    5.0668   405.9    8.131      37.526
2015    5       19     9  10    5.0677   405.9    8.130      37.539
2015    5       19     9  16    5.0686   405.9    8.128      37.551
2015    5       19     9  22    5.0694   406.0    8.127      37.564
2015    5       19     9  27    5.0702   406.0    8.125      37.577
2015    5       19     9  33    5.0710   406.1    8.123      37.589
2015    5       19     9  39    5.0718   406.1    8.122      37.601
2015    5       19     9  45    5.0725   406.1    8.120      37.614
2015    5       19     9  50    5.0733   406.2    8.118      37.626
2015    5       19     9  56    5.0740   406.2    8.116      37.637
2015    5       19    10   2    5.0748   406.2    8.114      37.649
2015    5       19    10   8    5.0755   406.3    8.112      37.661
2015    5       19    10  13    5.0762   406.3    8.110      37.672
2015    5       19    10  19    5.0769   406.3    8.108      37.684
2015    5       19    10  25    5.0777   406.4    8.106      37.695
2015    5       19    10  31    5.0783   406.4    8.104      37.706
2015    5       19    10  36    5.0790   406.4    8.102      37.718
2015    5       19    10  42    5.0797   406.5    8.099      37.729
2015    5       19    10  48    5.0804   406.5    8.097      37.740
2015    5       19    10  54    5.0811   406.5    8.095      37.751
2015    5       19    10  59    5.0818   406.5    8.093      37.762
2015    5       19    11   5    5.0825   406.6    8.091      37.773
2015    5       19    11  11    5.0832   406.6    8.089      37.785
2015    5       19    11  17    5.0839   406.6    8.087      37.796
2015    5       19    11  22    5.0846   406.7    8.085      37.807
2015    5       19    11  28    5.0853   406.7    8.083      37.819
2015    5       19    11  34    5.0861   406.7    8.081      37.831
2015    5       19    11  40    5.0868   406.7    8.079      37.843
2015    5       19    11  45    5.0876   406.8    8.078      37.856
2015    5       19    11  51    5.0884   406.8    8.076      37.868
2015    5       19    11  57    5.0893   406.8    8.075      37.882
2015    5       19    12   3    5.0902   406.8    8.074      37.895
2015    5       19    12   8    5.0911   406.9    8.073      37.909
2015    5       19    12  14    5.0921   406.9    8.072      37.924
2015    5       19    12  20    5.0932   406.9    8.072      37.939
2015    5       19    12  26    5.0944   406.9    8.072      37.955
2015    5       19    12  31    5.0956   407.0    8.072      37.972
2015    5       19    12  37    5.0968   407.0    8.073      37.989
2015    5       19    12  43    5.0981   407.0    8.074      38.007
2015    5       19    12  49    5.0995   407.1    8.075      38.027
2015    5       19    12  54    5.1009   407.1    8.077      38.048
2015    5       19    13   0    5.1024   407.1    8.079      38.071
2015    5       19    13   6    5.1038   407.2    8.082      38.095
2015    5       19    13  12    5.1053   407.2    8.084      38.120
2015    5       19    13  17    5.1067   407.3    8.087      38.145
2015    5       19    13  23    5.1081   407.3    8.090      38.172
2015    5       19    13  29    5.1094   407.4    8.093      38.199
2015    5       19    13  35    5.1106   407.5    8.096      38.225
2015    5       19    13  40    5.1118   407.5    8.098      38.251
2015    5       19    13  46    5.1128   407.6    8.101      38.276
2015    5       19    13  52    5.1138   407.7    8.102      38.300
2015    5       19    13  58    5.1146   407.8    8.104      38.324
2015    5       19    14   3    5.1154   407.8    8.105      38.346
2015    5       19    14   9    5.1160   407.9    8.106      38.367
2015    5       19    14  15    5.1165   408.0    8.106      38.387
2015    5       19    14  21    5.1169   408.1    8.106      38.405
2015    5       19    14  26    5.1172   408.1    8.105      38.423
2015    5       19    14  32    5.1174   408.2    8.104      38.439
2015    5       19    14  38    5.1175   408.3    8.103      38.454
2015    5       19    14  44    5.1176   408.4    8.102      38.468
2015    5       19    14  49    5.1176   408.4    8.100      38.481
2015    5       19    14  55    5.1175   408.5    8.098      38.493
2015    5       19    15   1    5.1173   408.6    8.095      38.505
2015    5       19    15   7    5.1171   408.6    8.092      38.515
2015    5       19    15  12    5.1169   408.7    8.090      38.525
2015    5       19    15  18    5.1166   408.8    8.086      38.534
2015    5       19    15  24    5.1162   408.8    8.083      38.542
2015    5       19    15  30    5.1159   408.9    8.080      38.550
2015    5       19    15  35    5.1154   409.0    8.076      38.556
2015    5       19    15  41    5.1150   409.0    8.072      38.563
2015    5       19    15  47    5.1145   409.1    8.068      38.569
2015    5       19    15  53    5.1140   409.2    8.064      38.574
2015    5       19    15  58    5.1136   409.2    8.060      38.578
2015    5       19    16   4    5.1130   409.3    8.055      38.583
2015    5       19    16  10    5.1125   409.3    8.051      38.586
2015    5       19    16  16    5.1119   409.4    8.046      38.590
2015    5       19    16  21    5.1113   409.4    8.041      38.592
2015    5       19    16  27    5.1107   409.5    8.036      38.595
2015    5       19    16  33    5.1101   409.6    8.031      38.597
2015    5       19    16  39    5.1094   409.6    8.026      38.598
2015    5       19    16  44    5.1088   409.7    8.021      38.599
2015    5       19    16  50    5.1081   409.7    8.016      38.600
2015    5       19    16  56    5.1075   409.8    8.011      38.600
2015    5       19    17   2    5.1068   409.8    8.006      38.600
2015    5       19    17   7    5.1061   409.9    8.000      38.599
2015    5       19    17  13    5.1053   409.9    7.995      38.599
2015    5       19    17  19    5.1046   410.0    7.989      38.597
2015    5       19    17  25    5.1039   410.0    7.984      38.596
2015    5       19    17  30    5.1031   410.1    7.978      38.594
2015    5       19    17  36    5.1024   410.1    7.972      38.592
2015    5       19    17  42    5.1016   410.1    7.966      38.590
2015    5       19    17  48    5.1008   410.2    7.961      38.587
2015    5       19    17  53    5.1001   410.2    7.955      38.584
2015    5       19    17  59    5.0992   410.3    7.949      38.581
2015    5       19    18   5    5.0984   410.3    7.943      38.578
2015    5       19    18  11    5.0976   410.4    7.937      38.574
2015    5       19    18  16    5.0968   410.4    7.931      38.571
2015    5       19    18  22    5.0960   410.4    7.925      38.567
2015    5       19    18  28    5.0952   410.5    7.920      38.563
2015    5       19    18  34    5.0944   410.5    7.914      38.559
2015    5       19    18  39    5.0935   410.5    7.908      38.554
2015    5       19    18  45    5.0927   410.6    7.902      38.550
2015    5       19    18  51    5.0919   410.6    7.896      38.546
2015    5       19    18  57    5.0911   410.6    7.890      38.542
2015    5       19    19   2    5.0903   410.7    7.884      38.538
2015    5       19    19   8    5.0895   410.7    7.879      38.534
2015    5       19    19  14    5.0887   410.7    7.873      38.530
2015    5       19    19  20    5.0879   410.8    7.867      38.526
2015    5       19    19  25    5.0872   410.8    7.862      38.523
2015    5       19    19  31    5.0864   410.8    7.857      38.520
2015    5       19    19  37    5.0857   410.8    7.851      38.517
2015    5       19    19  43    5.0850   410.9    7.846      38.514
2015    5       19    19  48    5.0843   410.9    7.841      38.512
2015    5       19    19  54    5.0837   410.9    7.836      38.510
2015    5       19    20   0    5.0831   411.0    7.832      38.509
2015    5       19    20   6    5.0825   411.0    7.827      38.508
2015    5       19    20  11    5.0820   411.0    7.823      38.508
2015    5       19    20  17    5.0815   411.0    7.819      38.508
2015    5       19    20  23    5.0810   411.0    7.815      38.509
2015    5       19    20  29    5.0805   411.1    7.812      38.510
2015    5       19    20  34    5.0800   411.1    7.808      38.511
2015    5       19    20  40    5.0796   411.1    7.805      38.512
2015    5       19    20  46    5.0791   411.2    7.802      38.513
2015    5       19    20  52    5.0785   411.2    7.798      38.514
2015    5       19    20  57    5.0780   411.2    7.795      38.514
2015    5       19    21   3    5.0774   411.3    7.791      38.514
2015    5       19    21   9    5.0767   411.3    7.788      38.513
2015    5       19    21  15    5.0761   411.3    7.784      38.512
2015    5       19    21  20    5.0754   411.4    7.780      38.510
2015    5       19    21  26    5.0746   411.4    7.776      38.508
2015    5       19    21  32    5.0739   411.5    7.772      38.505
2015    5       19    21  38    5.0730   411.5    7.768      38.501
2015    5       19    21  43    5.0721   411.5    7.763      38.497
2015    5       19    21  49    5.0712   411.6    7.759      38.492
2015    5       19    21  55    5.0703   411.6    7.754      38.486
2015    5       19    22   1    5.0693   411.7    7.749      38.480
2015    5       19    22   6    5.0683   411.7    7.744      38.473
2015    5       19    22  12    5.0672   411.7    7.739      38.466
2015    5       19    22  18    5.0662   411.8    7.733      38.459
2015    5       19    22  24    5.0651   411.8    7.728      38.451
2015    5       19    22  29    5.0640   411.8    7.723      38.443
2015    5       19    22  35    5.0629   411.9    7.717      38.434
2015    5       19    22  41    5.0617   411.9    7.712      38.425
2015    5       19    22  47    5.0606   412.0    7.706      38.416
2015    5       19    22  52    5.0595   412.0    7.701      38.407
2015    5       19    22  58    5.0583   412.0    7.695      38.397
2015    5       19    23   4    5.0571   412.1    7.689      38.387
2015    5       19    23  10    5.0559   412.1    7.683      38.377
2015    5       19    23  15    5.0547   412.1    7.678      38.367
2015    5       19    23  21    5.0535   412.2    7.672      38.356
2015    5       19    23  27    5.0523   412.2    7.666      38.346
2015    5       19    23  33    5.0510   412.2    7.660      38.335
2015    5       19    23  38    5.0498   412.3    7.654      38.323
2015    5       19    23  44    5.0485   412.3    7.648      38.312
2015    5       19    23  50    5.0472   412.3    7.642      38.299
2015    5       19    23  56    5.0458   412.4    7.636      38.286
2015    5       20     0   1    5.0445   412.4    7.630      38.273
2015    5       20     0   7    5.0432   412.4    7.624      38.259
2015    5       20     0  13    5.0418   412.5    7.618      38.245
2015    5       20     0  19    5.0404   412.5    7.612      38.230
2015    5       20     0  24    5.0391   412.5    7.605      38.215
2015    5       20     0  30    5.0377   412.6    7.599      38.199
2015    5       20     0  36    5.0363   412.6    7.593      38.183
2015    5       20     0  42    5.0349   412.6    7.586      38.167
2015    5       20     0  47    5.0335   412.6    7.580      38.150
2015    5       20     0  53    5.0320   412.7    7.573      38.133
2015    5       20     0  59    5.0306   412.7    7.567      38.115
2015    5       20     1   5    5.0292   412.7    7.560      38.097
2015    5       20     1  10    5.0278   412.7    7.553      38.079
2015    5       20     1  16    5.0263   412.8    7.547      38.061
2015    5       20     1  22    5.0248   412.8    7.540      38.042
2015    5       20     1  28    5.0234   412.8    7.533      38.023
2015    5       20     1  33    5.0220   412.8    7.526      38.004
2015    5       20     1  39    5.0205   412.8    7.520      37.984
2015    5       20     1  45    5.0190   412.9    7.513      37.964
2015    5       20     1  51    5.0176   412.9    7.506      37.944
2015    5       20     1  56    5.0161   412.9    7.499      37.924
2015    5       20     2   2    5.0146   412.9    7.492      37.903
2015    5       20     2   8    5.0132   412.9    7.485      37.883
2015    5       20     2  14    5.0117   412.9    7.478      37.861
2015    5       20     2  19    5.0102   413.0    7.472      37.840
2015    5       20     2  25    5.0087   413.0    7.465      37.819
2015    5       20     2  31    5.0072   413.0    7.458      37.797
2015    5       20     2  37    5.0057   413.0    7.451      37.776
2015    5       20     2  42    5.0043   413.0    7.444      37.754
2015    5       20     2  48    5.0028   413.0    7.437      37.732
2015    5       20     2  54    5.0013   413.0    7.430      37.709
2015    5       20     3   0    4.9998   413.0    7.423      37.687
2015    5       20     3   5    4.9984   413.0    7.416      37.664
2015    5       20     3  11    4.9969   413.0    7.409      37.641
2015    5       20     3  17    4.9954   413.0    7.402      37.618
2015    5       20     3  23    4.9940   413.0    7.395      37.595
2015    5       20     3  28    4.9925   413.1    7.388      37.572
2015    5       20     3  34    4.9911   413.1    7.381      37.548
2015    5       20     3  40    4.9896   413.1    7.374      37.525
2015    5       20     3  46    4.9882   413.1    7.367      37.501
2015    5       20     3  51    4.9868   413.1    7.360      37.478
2015    5       20     3  57    4.9854   413.0    7.353      37.454
2015    5       20     4   3    4.9840   413.0    7.347      37.430
2015    5       20     4   9    4.9826   413.0    7.340      37.407
2015    5       20     4  14    4.9812   413.0    7.333      37.383
2015    5       20     4  20    4.9798   413.0    7.327      37.359
2015    5       20     4  26    4.9785   413.0    7.320      37.336
2015    5       20     4  32    4.9771   413.0    7.314      37.313
2015    5       20     4  37    4.9758   413.0    7.307      37.289
2015    5       20     4  43    4.9745   413.0    7.301      37.267
2015    5       20     4  49    4.9732   413.0    7.295      37.244
2015    5       20     4  55    4.9719   413.0    7.289      37.221
2015    5       20     5   1    4.9707   413.0    7.283      37.199
2015    5       20     5   6    4.9694   413.0    7.278      37.177
2015    5       20     5  12    4.9682   413.0    7.272      37.155
2015    5       20     5  18    4.9670   412.9    7.267      37.133
2015    5       20     5  23    4.9658   412.9    7.261      37.112
2015    5       20     5  29    4.9647   412.9    7.256      37.091
2015    5       20     5  35    4.9635   412.9    7.251      37.070
2015    5       20     5  41    4.9624   412.9    7.246      37.050
2015    5       20     5  47    4.9613   412.9    7.241      37.030
2015    5       20     5  52    4.9603   412.9    7.237      37.011
2015    5       20     5  58    4.9592   412.9    7.233      36.992
2015    5       20     6   4    4.9582   412.9    7.228      36.973
2015    5       20     6  10    4.9572   412.8    7.224      36.955
2015    5       20     6  15    4.9562   412.8    7.220      36.937
2015    5       20     6  21    4.9552   412.8    7.217      36.920
2015    5       20     6  27    4.9542   412.8    7.213      36.903
2015    5       20     6  33    4.9533   412.8    7.210      36.887
2015    5       20     6  38    4.9523   412.8    7.207      36.871
2015    5       20     6  44    4.9514   412.8    7.204      36.856
2015    5       20     6  50    4.9505   412.8    7.201      36.841
2015    5       20     6  56    4.9496   412.8    7.198      36.827
2015    5       20     7   1    4.9487   412.7    7.195      36.812
2015    5       20     7   7    4.9478   412.7    7.193      36.798
2015    5       20     7  13    4.9469   412.7    7.190      36.783
2015    5       20     7  19    4.9460   412.7    7.188      36.769
2015    5       20     7  24    4.9451   412.7    7.186      36.754
2015    5       20     7  30    4.9442   412.7    7.184      36.740
2015    5       20     7  36    4.9433   412.7    7.182      36.726
2015    5       20     7  42    4.9425   412.7    7.180      36.711
2015    5       20     7  47    4.9416   412.7    7.178      36.697
2015    5       20     7  53    4.9408   412.6    7.176      36.683
2015    5       20     7  59    4.9399   412.6    7.174      36.669
2015    5       20     8   5    4.9391   412.6    7.173      36.654
2015    5       20     8  10    4.9382   412.6    7.171      36.640
2015    5       20     8  16    4.9374   412.6    7.170      36.626
2015    5       20     8  22    4.9366   412.6    7.168      36.611
2015    5       20     8  28    4.9358   412.6    7.166      36.598
2015    5       20     8  33    4.9350   412.5    7.165      36.584
2015    5       20     8  39    4.9342   412.5    7.163      36.571
2015    5       20     8  45    4.9334   412.5    7.162      36.558
2015    5       20     8  51    4.9327   412.5    7.160      36.545
2015    5       20     8  56    4.9319   412.5    7.159      36.533
2015    5       20     9   2    4.9311   412.5    7.157      36.521
2015    5       20     9   8    4.9304   412.4    7.155      36.509
2015    5       20     9  14    4.9297   412.4    7.153      36.497
2015    5       20     9  19    4.9289   412.4    7.151      36.484
2015    5       20     9  25    4.9282   412.4    7.149      36.472
2015    5       20     9  31    4.9274   412.4    7.147      36.459
2015    5       20     9  37    4.9267   412.3    7.145      36.446
2015    5       20     9  42    4.9260   412.3    7.143      36.433
2015    5       20     9  48    4.9252   412.3    7.141      36.420
2015    5       20     9  54    4.9245   412.3    7.138      36.406
2015    5       20    10   0    4.9237   412.3    7.136      36.392
2015    5       20    10   5    4.9230   412.2    7.133      36.378
2015    5       20    10  11    4.9222   412.2    7.131      36.364
2015    5       20    10  17    4.9215   412.2    7.128      36.349
2015    5       20    10  23    4.9208   412.2    7.125      36.335
2015    5       20    10  28    4.9200   412.2    7.123      36.320
2015    5       20    10  34    4.9193   412.1    7.120      36.304
2015    5       20    10  40    4.9186   412.1    7.117      36.289
2015    5       20    10  46    4.9179   412.1    7.114      36.273
2015    5       20    10  51    4.9172   412.1    7.111      36.257
2015    5       20    10  57    4.9165   412.0    7.108      36.241
2015    5       20    11   3    4.9158   412.0    7.105      36.225
2015    5       20    11   9    4.9151   412.0    7.103      36.209
2015    5       20    11  14    4.9144   411.9    7.100      36.192
2015    5       20    11  20    4.9137   411.9    7.097      36.176
2015    5       20    11  26    4.9131   411.9    7.094      36.159
2015    5       20    11  32    4.9124   411.9    7.091      36.142
2015    5       20    11  37    4.9117   411.8    7.088      36.126
2015    5       20    11  43    4.9111   411.8    7.085      36.109
2015    5       20    11  49    4.9105   411.8    7.083      36.092
2015    5       20    11  55    4.9099   411.7    7.080      36.076
2015    5       20    12   0    4.9093   411.7    7.077      36.059
2015    5       20    12   6    4.9087   411.7    7.075      36.043
2015    5       20    12  12    4.9082   411.6    7.072      36.026
2015    5       20    12  18    4.9076   411.6    7.070      36.010
2015    5       20    12  23    4.9071   411.6    7.067      35.994
2015    5       20    12  29    4.9066   411.5    7.065      35.978
2015    5       20    12  35    4.9061   411.5    7.063      35.962
2015    5       20    12  41    4.9056   411.5    7.061      35.947
2015    5       20    12  46    4.9052   411.4    7.059      35.931
2015    5       20    12  52    4.9048   411.4    7.057      35.916
2015    5       20    12  58    4.9044   411.3    7.055      35.901
2015    5       20    13   4    4.9040   411.3    7.053      35.886
2015    5       20    13   9    4.9036   411.3    7.052      35.871
2015    5       20    13  15    4.9033   411.2    7.050      35.857
2015    5       20    13  21    4.9030   411.2    7.049      35.843
2015    5       20    13  27    4.9027   411.2    7.048      35.830
2015    5       20    13  32    4.9024   411.1    7.047      35.816
2015    5       20    13  38    4.9022   411.1    7.046      35.803
2015    5       20    13  44    4.9020   411.1    7.045      35.790
2015    5       20    13  50    4.9017   411.0    7.044      35.778
2015    5       20    13  55    4.9016   411.0    7.043      35.765
2015    5       20    14   1    4.9014   410.9    7.043      35.753
2015    5       20    14   7    4.9012   410.9    7.043      35.741
2015    5       20    14  13    4.9011   410.9    7.042      35.730
2015    5       20    14  18    4.9010   410.8    7.042      35.719
2015    5       20    14  24    4.9009   410.8    7.042      35.708
2015    5       20    14  30    4.9008   410.7    7.042      35.697
2015    5       20    14  36    4.9007   410.7    7.042      35.687
2015    5       20    14  41    4.9007   410.7    7.043      35.677
2015    5       20    14  47    4.9007   410.6    7.043      35.667
2015    5       20    14  53    4.9007   410.6    7.044      35.658
2015    5       20    14  59    4.9007   410.6    7.045      35.649
2015    5       20    15   4    4.9007   410.5    7.045      35.640
2015    5       20    15  10    4.9007   410.5    7.046      35.631
2015    5       20    15  16    4.9008   410.4    7.048      35.623
2015    5       20    15  22    4.9009   410.4    7.049      35.615
2015    5       20    15  27    4.9010   410.4    7.050      35.608
2015    5       20    15  33    4.9011   410.3    7.052      35.600
2015    5       20    15  39    4.9013   410.3    7.053      35.594
2015    5       20    15  45    4.9014   410.2    7.055      35.587
2015    5       20    15  50    4.9016   410.2    7.057      35.582
2015    5       20    15  56    4.9019   410.2    7.059      35.578
2015    5       20    16   2    4.9021   410.1    7.061      35.574
2015    5       20    16   8    4.9024   410.1    7.063      35.570
2015    5       20    16  13    4.9027   410.1    7.065      35.568
2015    5       20    16  19    4.9031   410.0    7.067      35.566
2015    5       20    16  25    4.9034   410.0    7.070      35.564
2015    5       20    16  31    4.9038   409.9    7.072      35.563
2015    5       20    16  36    4.9042   409.9    7.074      35.562
2015    5       20    16  42    4.9047   409.9    7.076      35.561
2015    5       20    16  48    4.9051   409.8    7.079      35.560
2015    5       20    16  54    4.9055   409.8    7.081      35.559
2015    5       20    16  59    4.9060   409.8    7.083      35.559
2015    5       20    17   5    4.9065   409.7    7.086      35.559
2015    5       20    17  11    4.9070   409.7    7.088      35.559
2015    5       20    17  17    4.9076   409.7    7.091      35.559
2015    5       20    17  22    4.9081   409.7    7.093      35.559
2015    5       20    17  28    4.9087   409.6    7.096      35.559
2015    5       20    17  34    4.9092   409.6    7.098      35.559
2015    5       20    17  40    4.9098   409.6    7.101      35.559
2015    5       20    17  45    4.9104   409.5    7.104      35.560
2015    5       20    17  51    4.9110   409.5    7.106      35.560
2015    5       20    17  57    4.9116   409.5    7.109      35.560
2015    5       20    18   3    4.9122   409.5    7.111      35.561
2015    5       20    18   8    4.9128   409.4    7.114      35.561
2015    5       20    18  14    4.9134   409.4    7.117      35.561
2015    5       20    18  20    4.9141   409.4    7.120      35.561
2015    5       20    18  26    4.9147   409.3    7.122      35.561
2015    5       20    18  31    4.9154   409.3    7.125      35.560
2015    5       20    18  37    4.9160   409.3    7.128      35.560
2015    5       20    18  43    4.9167   409.3    7.131      35.560
2015    5       20    18  49    4.9173   409.2    7.133      35.559
2015    5       20    18  54    4.9180   409.2    7.136      35.558
2015    5       20    19   0    4.9187   409.2    7.139      35.557
2015    5       20    19   6    4.9194   409.1    7.142      35.556
2015    5       20    19  12    4.9201   409.1    7.145      35.555
2015    5       20    19  17    4.9209   409.1    7.148      35.553
2015    5       20    19  23    4.9217   409.0    7.151      35.552
2015    5       20    19  29    4.9225   409.0    7.155      35.550
2015    5       20    19  35    4.9233   409.0    7.158      35.548
2015    5       20    19  40    4.9242   408.9    7.161      35.547
2015    5       20    19  46    4.9251   408.9    7.165      35.545
2015    5       20    19  52    4.9261   408.9    7.169      35.543
2015    5       20    19  58    4.9272   408.8    7.173      35.542
2015    5       20    20   3    4.9282   408.8    7.177      35.542
2015    5       20    20   9    4.9293   408.8    7.180      35.542
2015    5       20    20  15    4.9305   408.7    7.184      35.544
2015    5       20    20  21    4.9316   408.7    7.188      35.546
2015    5       20    20  26    4.9327   408.7    7.192      35.549
2015    5       20    20  32    4.9339   408.7    7.196      35.553
2015    5       20    20  38    4.9350   408.7    7.199      35.558
2015    5       20    20  44    4.9361   408.6    7.202      35.563
2015    5       20    20  49    4.9373   408.6    7.206      35.568
2015    5       20    20  55    4.9384   408.6    7.209      35.572
2015    5       20    21   1    4.9395   408.6    7.212      35.576
2015    5       20    21   7    4.9406   408.6    7.214      35.580
2015    5       20    21  12    4.9416   408.6    7.217      35.584
2015    5       20    21  18    4.9427   408.5    7.220      35.587
2015    5       20    21  24    4.9437   408.5    7.222      35.590
2015    5       20    21  30    4.9448   408.5    7.224      35.593
2015    5       20    21  35    4.9458   408.5    7.226      35.595
2015    5       20    21  41    4.9468   408.5    7.228      35.597
2015    5       20    21  47    4.9478   408.5    7.230      35.598
2015    5       20    21  53    4.9488   408.4    7.232      35.599
2015    5       20    21  58    4.9498   408.4    7.234      35.600
2015    5       20    22   4    4.9508   408.4    7.235      35.600
2015    5       20    22  10    4.9517   408.4    7.237      35.600
2015    5       20    22  16    4.9527   408.4    7.238      35.600
2015    5       20    22  21    4.9537   408.4    7.240      35.600
2015    5       20    22  27    4.9546   408.3    7.241      35.599
2015    5       20    22  33    4.9556   408.3    7.243      35.598
2015    5       20    22  39    4.9566   408.3    7.244      35.597
2015    5       20    22  44    4.9576   408.3    7.246      35.596
2015    5       20    22  50    4.9586   408.3    7.247      35.595
2015    5       20    22  56    4.9596   408.2    7.249      35.594
2015    5       20    23   2    4.9606   408.2    7.250      35.593
2015    5       20    23   7    4.9617   408.2    7.252      35.592
2015    5       20    23  13    4.9627   408.2    7.254      35.591
2015    5       20    23  19    4.9638   408.2    7.255      35.590
2015    5       20    23  25    4.9649   408.1    7.257      35.589
2015    5       20    23  30    4.9660   408.1    7.259      35.589
2015    5       20    23  36    4.9671   408.1    7.261      35.588
2015    5       20    23  42    4.9683   408.1    7.263      35.588
2015    5       20    23  48    4.9695   408.1    7.265      35.588
2015    5       20    23  53    4.9706   408.1    7.267      35.588
2015    5       20    23  59    4.9718   408.0    7.270      35.588
2015    5       21     0   5    4.9731   408.0    7.272      35.589
2015    5       21     0  11    4.9743   408.0    7.275      35.590
2015    5       21     0  16    4.9756   408.0    7.277      35.591
2015    5       21     0  22    4.9768   408.0    7.280      35.593
2015    5       21     0  28    4.9782   407.9    7.283      35.594
2015    5       21     0  34    4.9795   407.9    7.286      35.596
2015    5       21     0  39    4.9808   407.9    7.289      35.599
2015    5       21     0  45    4.9821   407.9    7.292      35.601
2015    5       21     0  51    4.9835   407.9    7.295      35.604
2015    5       21     0  57    4.9849   407.9    7.299      35.607
2015    5       21     1   2    4.9863   407.9    7.302      35.610
2015    5       21     1   8    4.9877   407.8    7.306      35.614
2015    5       21     1  14    4.9891   407.8    7.310      35.618
2015    5       21     1  20    4.9905   407.8    7.314      35.623
2015    5       21     1  25    4.9920   407.8    7.318      35.627
2015    5       21     1  31    4.9935   407.8    7.322      35.632
2015    5       21     1  37    4.9950   407.8    7.327      35.637
2015    5       21     1  43    4.9965   407.8    7.332      35.643
2015    5       21     1  49    4.9980   407.7    7.336      35.649
2015    5       21     1  54    4.9996   407.7    7.341      35.655
2015    5       21     2   0    5.0011   407.7    7.346      35.662
2015    5       21     2   6    5.0027   407.7    7.352      35.669
2015    5       21     2  12    5.0043   407.7    7.357      35.676
2015    5       21     2  17    5.0060   407.7    7.363      35.684
2015    5       21     2  23    5.0076   407.7    7.369      35.692
2015    5       21     2  29    5.0093   407.7    7.375      35.700
2015    5       21     2  35    5.0110   407.7    7.381      35.709
2015    5       21     2  40    5.0128   407.7    7.388      35.718
2015    5       21     2  46    5.0146   407.7    7.395      35.728
2015    5       21     2  52    5.0164   407.6    7.402      35.739
2015    5       21     2  58    5.0183   407.6    7.409      35.749
2015    5       21     3   3    5.0202   407.6    7.417      35.761
2015    5       21     3   9    5.0223   407.6    7.426      35.773
2015    5       21     3  15    5.0243   407.6    7.434      35.786
2015    5       21     3  21    5.0265   407.6    7.443      35.799
2015    5       21     3  26    5.0286   407.6    7.452      35.814
2015    5       21     3  32    5.0309   407.6    7.461      35.831
2015    5       21     3  38    5.0331   407.6    7.471      35.850
2015    5       21     3  44    5.0354   407.6    7.480      35.872
2015    5       21     3  49    5.0377   407.7    7.489      35.895
2015    5       21     3  55    5.0399   407.7    7.498      35.921
2015    5       21     4   1    5.0421   407.7    7.507      35.948
2015    5       21     4   7    5.0443   407.7    7.515      35.976
2015    5       21     4  12    5.0465   407.8    7.524      36.005
2015    5       21     4  18    5.0486   407.8    7.532      36.034
2015    5       21     4  24    5.0507   407.8    7.540      36.062
2015    5       21     4  30    5.0527   407.9    7.547      36.090
2015    5       21     4  35    5.0547   407.9    7.554      36.117
2015    5       21     4  41    5.0567   407.9    7.561      36.144
2015    5       21     4  47    5.0586   407.9    7.568      36.171
2015    5       21     4  53    5.0605   408.0    7.574      36.197
2015    5       21     4  58    5.0624   408.0    7.580      36.222
2015    5       21     5   4    5.0642   408.0    7.586      36.247
2015    5       21     5  10    5.0660   408.1    7.592      36.272
2015    5       21     5  16    5.0678   408.1    7.597      36.295
2015    5       21     5  21    5.0695   408.1    7.602      36.318
2015    5       21     5  27    5.0712   408.2    7.607      36.340
2015    5       21     5  33    5.0729   408.2    7.612      36.362
2015    5       21     5  39    5.0746   408.2    7.617      36.383
2015    5       21     5  44    5.0762   408.3    7.621      36.404
2015    5       21     5  50    5.0779   408.3    7.625      36.424
2015    5       21     5  56    5.0795   408.3    7.629      36.444
2015    5       21     6   2    5.0812   408.4    7.633      36.463
2015    5       21     6   7    5.0827   408.4    7.637      36.482
2015    5       21     6  13    5.0843   408.4    7.641      36.500
2015    5       21     6  19    5.0859   408.5    7.644      36.518
2015    5       21     6  25    5.0875   408.5    7.647      36.535
2015    5       21     6  30    5.0890   408.5    7.650      36.553
2015    5       21     6  36    5.0906   408.6    7.653      36.569
2015    5       21     6  42    5.0921   408.6    7.656      36.585
2015    5       21     6  48    5.0935   408.6    7.658      36.601
2015    5       21     6  53    5.0950   408.7    7.661      36.616
2015    5       21     6  59    5.0965   408.7    7.663      36.631
2015    5       21     7   5    5.0979   408.7    7.665      36.646
2015    5       21     7  11    5.0993   408.8    7.667      36.660
2015    5       21     7  16    5.1007   408.8    7.669      36.673
2015    5       21     7  22    5.1021   408.9    7.671      36.687
2015    5       21     7  28    5.1035   408.9    7.673      36.699
2015    5       21     7  34    5.1048   408.9    7.674      36.712
2015    5       21     7  39    5.1061   409.0    7.675      36.724
2015    5       21     7  45    5.1074   409.0    7.677      36.735
2015    5       21     7  51    5.1087   409.0    7.678      36.746
2015    5       21     7  57    5.1099   409.1    7.679      36.757
2015    5       21     8   2    5.1111   409.1    7.680      36.768
2015    5       21     8   8    5.1123   409.2    7.681      36.778
2015    5       21     8  14    5.1135   409.2    7.682      36.788
2015    5       21     8  20    5.1147   409.2    7.683      36.797
2015    5       21     8  25    5.1158   409.3    7.684      36.807
2015    5       21     8  31    5.1170   409.3    7.685      36.816
2015    5       21     8  37    5.1181   409.3    7.686      36.825
2015    5       21     8  43    5.1192   409.4    7.687      36.834
2015    5       21     8  48    5.1203   409.4    7.687      36.843
2015    5       21     8  54    5.1214   409.4    7.688      36.852
2015    5       21     9   0    5.1225   409.5    7.689      36.861
2015    5       21     9   6    5.1236   409.5    7.690      36.870
2015    5       21     9  11    5.1247   409.5    7.692      36.878
2015    5       21     9  17    5.1258   409.6    7.693      36.888
2015    5       21     9  23    5.1268   409.6    7.694      36.897
2015    5       21     9  29    5.1279   409.7    7.695      36.906
2015    5       21     9  34    5.1290   409.7    7.697      36.915
2015    5       21     9  40    5.1301   409.7    7.698      36.925
2015    5       21     9  46    5.1312   409.8    7.700      36.935
2015    5       21     9  52    5.1323   409.8    7.702      36.945
2015    5       21     9  57    5.1334   409.8    7.704      36.956
2015    5       21    10   3    5.1345   409.9    7.706      36.966
2015    5       21    10   9    5.1357   409.9    7.708      36.977
2015    5       21    10  15    5.1368   410.0    7.711      36.988
2015    5       21    10  20    5.1380   410.0    7.713      37.000
2015    5       21    10  26    5.1391   410.0    7.716      37.012
2015    5       21    10  32    5.1403   410.1    7.719      37.024
2015    5       21    10  38    5.1414   410.1    7.722      37.036
2015    5       21    10  43    5.1426   410.2    7.725      37.049
2015    5       21    10  49    5.1438   410.2    7.729      37.062
2015    5       21    10  55    5.1450   410.2    7.732      37.076
2015    5       21    11   1    5.1462   410.3    7.736      37.091
2015    5       21    11   6    5.1474   410.3    7.739      37.107
2015    5       21    11  12    5.1485   410.4    7.743      37.124
2015    5       21    11  18    5.1497   410.4    7.746      37.142
2015    5       21    11  24    5.1509   410.5    7.749      37.161
2015    5       21    11  29    5.1520   410.5    7.752      37.180
2015    5       21    11  35    5.1531   410.6    7.755      37.200
2015    5       21    11  41    5.1542   410.6    7.758      37.219
2015    5       21    11  47    5.1553   410.7    7.761      37.239
2015    5       21    11  52    5.1563   410.7    7.764      37.258
2015    5       21    11  58    5.1574   410.8    7.767      37.277
2015    5       21    12   4    5.1584   410.8    7.769      37.295
2015    5       21    12  10    5.1594   410.9    7.772      37.314
2015    5       21    12  15    5.1604   410.9    7.774      37.332
2015    5       21    12  21    5.1614   411.0    7.777      37.350
2015    5       21    12  27    5.1624   411.0    7.779      37.368
2015    5       21    12  33    5.1634   411.0    7.781      37.386
2015    5       21    12  38    5.1645   411.1    7.784      37.404
2015    5       21    12  44    5.1655   411.1    7.786      37.422
2015    5       21    12  50    5.1665   411.2    7.789      37.440
2015    5       21    12  56    5.1676   411.2    7.791      37.458
2015    5       21    13   1    5.1687   411.3    7.794      37.477
2015    5       21    13   7    5.1698   411.3    7.797      37.495
2015    5       21    13  13    5.1710   411.4    7.800      37.514
2015    5       21    13  19    5.1722   411.4    7.803      37.533
2015    5       21    13  24    5.1734   411.5    7.806      37.553
2015    5       21    13  30    5.1747   411.5    7.809      37.573
2015    5       21    13  36    5.1760   411.6    7.813      37.593
2015    5       21    13  42    5.1774   411.6    7.816      37.615
2015    5       21    13  47    5.1789   411.7    7.820      37.637
2015    5       21    13  53    5.1804   411.7    7.824      37.658
2015    5       21    13  59    5.1819   411.8    7.829      37.681
2015    5       21    14   5    5.1835   411.9    7.834      37.705
2015    5       21    14  10    5.1851   411.9    7.839      37.732
2015    5       21    14  16    5.1867   412.0    7.843      37.760
2015    5       21    14  22    5.1883   412.1    7.848      37.789
2015    5       21    14  28    5.1898   412.1    7.853      37.820
2015    5       21    14  33    5.1912   412.2    7.858      37.852
2015    5       21    14  39    5.1926   412.3    7.862      37.886
2015    5       21    14  45    5.1939   412.4    7.866      37.919
2015    5       21    14  51    5.1951   412.5    7.869      37.952
2015    5       21    14  56    5.1962   412.6    7.872      37.983
2015    5       21    15   2    5.1973   412.7    7.875      38.013
2015    5       21    15   8    5.1983   412.8    7.877      38.042
2015    5       21    15  14    5.1991   412.9    7.879      38.071
2015    5       21    15  19    5.1999   413.0    7.880      38.098
2015    5       21    15  25    5.2006   413.1    7.881      38.124
2015    5       21    15  31    5.2012   413.2    7.882      38.149
2015    5       21    15  37    5.2018   413.3    7.882      38.173
2015    5       21    15  42    5.2023   413.4    7.882      38.196
2015    5       21    15  48    5.2027   413.4    7.882      38.218
2015    5       21    15  54    5.2031   413.5    7.881      38.239
2015    5       21    16   0    5.2034   413.6    7.880      38.259
2015    5       21    16   5    5.2037   413.7    7.879      38.278
2015    5       21    16  11    5.2039   413.8    7.878      38.296
2015    5       21    16  17    5.2041   413.9    7.876      38.314
2015    5       21    16  23    5.2043   414.0    7.874      38.331
2015    5       21    16  28    5.2044   414.1    7.872      38.346
2015    5       21    16  34    5.2045   414.2    7.870      38.362
2015    5       21    16  40    5.2046   414.3    7.868      38.377
2015    5       21    16  46    5.2046   414.3    7.865      38.391
2015    5       21    16  51    5.2047   414.4    7.862      38.404
2015    5       21    16  57    5.2046   414.5    7.859      38.417
2015    5       21    17   3    5.2046   414.6    7.856      38.430
2015    5       21    17   9    5.2046   414.7    7.853      38.442
2015    5       21    17  14    5.2045   414.8    7.850      38.453
2015    5       21    17  20    5.2044   414.9    7.847      38.464
2015    5       21    17  26    5.2043   414.9    7.843      38.474
2015    5       21    17  32    5.2041   415.0    7.840      38.485
2015    5       21    17  37    5.2040   415.1    7.836      38.494
2015    5       21    17  43    5.2038   415.2    7.832      38.504
2015    5       21    17  49    5.2036   415.3    7.828      38.512
2015    5       21    17  55    5.2034   415.4    7.824      38.521
2015    5       21    18   0    5.2031   415.5    7.820      38.529
2015    5       21    18   6    5.2029   415.5    7.816      38.537
2015    5       21    18  12    5.2026   415.6    7.812      38.544
2015    5       21    18  18    5.2023   415.7    7.808      38.551
2015    5       21    18  23    5.2020   415.8    7.804      38.558
2015    5       21    18  29    5.2017   415.9    7.799      38.564
2015    5       21    18  35    5.2014   415.9    7.795      38.570
2015    5       21    18  41    5.2010   416.0    7.791      38.576
2015    5       21    18  46    5.2007   416.1    7.786      38.581
2015    5       21    18  52    5.2003   416.2    7.782      38.586
2015    5       21    18  58    5.1999   416.3    7.778      38.591
2015    5       21    19   4    5.1995   416.4    7.773      38.596
2015    5       21    19   9    5.1990   416.4    7.769      38.600
2015    5       21    19  15    5.1986   416.5    7.764      38.603
2015    5       21    19  21    5.1982   416.6    7.760      38.607
2015    5       21    19  27    5.1977   416.7    7.756      38.611
2015    5       21    19  32    5.1973   416.7    7.751      38.614
2015    5       21    19  38    5.1968   416.8    7.747      38.617
2015    5       21    19  44    5.1963   416.9    7.743      38.620
2015    5       21    19  50    5.1959   417.0    7.739      38.623
2015    5       21    19  55    5.1954   417.0    7.735      38.626
2015    5       21    20   1    5.1950   417.1    7.731      38.629
2015    5       21    20   7    5.1946   417.2    7.727      38.632
2015    5       21    20  13    5.1941   417.2    7.724      38.635
2015    5       21    20  18    5.1937   417.3    7.721      38.638
2015    5       21    20  24    5.1933   417.4    7.717      38.642
2015    5       21    20  30    5.1930   417.5    7.715      38.646
2015    5       21    20  36    5.1927   417.5    7.712      38.650
2015    5       21    20  41    5.1923   417.6    7.709      38.655
2015    5       21    20  47    5.1920   417.7    7.707      38.660
2015    5       21    20  53    5.1918   417.7    7.705      38.666
2015    5       21    20  59    5.1916   417.8    7.704      38.673
2015    5       21    21   4    5.1914   417.9    7.702      38.681
2015    5       21    21  10    5.1913   417.9    7.702      38.688
2015    5       21    21  16    5.1912   418.0    7.701      38.696
2015    5       21    21  22    5.1911   418.1    7.701      38.707
2015    5       21    21  27    5.1911   418.1    7.701      38.719
2015    5       21    21  33    5.1910   418.2    7.701      38.734
2015    5       21    21  39    5.1909   418.3    7.702      38.750
2015    5       21    21  45    5.1907   418.4    7.702      38.767
2015    5       21    21  50    5.1904   418.5    7.702      38.786
2015    5       21    21  56    5.1901   418.6    7.702      38.807
2015    5       21    22   2    5.1897   418.7    7.702      38.828
2015    5       21    22   8    5.1892   418.8    7.701      38.849
2015    5       21    22  13    5.1887   418.9    7.701      38.869
2015    5       21    22  19    5.1881   419.0    7.700      38.888
2015    5       21    22  25    5.1874   419.1    7.698      38.906
2015    5       21    22  31    5.1865   419.2    7.696      38.923
2015    5       21    22  36    5.1857   419.3    7.694      38.940
2015    5       21    22  42    5.1847   419.4    7.692      38.956
2015    5       21    22  48    5.1837   419.5    7.689      38.971
2015    5       21    22  54    5.1826   419.5    7.686      38.985
2015    5       21    23   0    5.1814   419.6    7.683      38.998
2015    5       21    23   5    5.1802   419.7    7.680      39.010
2015    5       21    23  11    5.1790   419.8    7.676      39.021
2015    5       21    23  17    5.1777   419.9    7.672      39.032
2015    5       21    23  23    5.1764   420.0    7.668      39.042
2015    5       21    23  28    5.1750   420.1    7.664      39.051
2015    5       21    23  34    5.1737   420.2    7.659      39.060
2015    5       21    23  40    5.1723   420.3    7.654      39.068
2015    5       21    23  46    5.1708   420.4    7.649      39.075
2015    5       21    23  51    5.1694   420.5    7.644      39.081
2015    5       21    23  57    5.1679   420.6    7.639      39.087
2015    5       22     0   3    5.1664   420.6    7.634      39.093
