year    month   day   hour  minute  B_enl V_enl   n_enl       T_enl
[year] [month] [day] [hour][minute] [nT]  [km/s]  [cm-3]      [kK]
2015    5       11     0   5    6.3334   571.3    5.121      68.312
2015    5       11     0  11    6.3250   571.6    5.107      68.273
2015    5       11     0  16    6.3165   571.9    5.093      68.234
2015    5       11     0  22    6.3081   572.3    5.079      68.195
2015    5       11     0  28    6.2997   572.6    5.065      68.155
2015    5       11     0  33    6.2914   572.9    5.051      68.114
2015    5       11     0  39    6.2830   573.2    5.037      68.073
2015    5       11     0  45    6.2747   573.5    5.023      68.031
2015    5       11     0  50    6.2664   573.9    5.009      67.989
2015    5       11     0  56    6.2582   574.2    4.996      67.945
2015    5       11     1   2    6.2499   574.5    4.982      67.898
2015    5       11     1   7    6.2418   574.7    4.969      67.849
2015    5       11     1  13    6.2336   575.0    4.955      67.799
2015    5       11     1  19    6.2256   575.3    4.942      67.749
2015    5       11     1  24    6.2177   575.5    4.930      67.698
2015    5       11     1  30    6.2099   575.8    4.917      67.648
2015    5       11     1  36    6.2022   576.0    4.905      67.599
2015    5       11     1  41    6.1947   576.2    4.894      67.551
2015    5       11     1  47    6.1873   576.5    4.883      67.504
2015    5       11     1  53    6.1800   576.7    4.872      67.459
2015    5       11     1  58    6.1728   576.9    4.861      67.414
2015    5       11     2   4    6.1658   577.1    4.851      67.371
2015    5       11     2  10    6.1588   577.2    4.841      67.329
2015    5       11     2  15    6.1520   577.4    4.832      67.289
2015    5       11     2  21    6.1452   577.6    4.822      67.250
2015    5       11     2  27    6.1386   577.7    4.814      67.212
2015    5       11     2  32    6.1320   577.9    4.805      67.176
2015    5       11     2  38    6.1255   578.1    4.796      67.141
2015    5       11     2  44    6.1190   578.2    4.788      67.109
2015    5       11     2  49    6.1125   578.4    4.780      67.080
2015    5       11     2  55    6.1061   578.6    4.772      67.053
2015    5       11     3   1    6.0997   578.9    4.764      67.028
2015    5       11     3   6    6.0933   579.1    4.756      67.003
2015    5       11     3  12    6.0868   579.3    4.749      66.978
2015    5       11     3  18    6.0804   579.6    4.741      66.953
2015    5       11     3  23    6.0739   579.8    4.733      66.927
2015    5       11     3  29    6.0674   580.0    4.725      66.900
2015    5       11     3  35    6.0607   580.2    4.717      66.872
2015    5       11     3  40    6.0540   580.4    4.708      66.842
2015    5       11     3  46    6.0472   580.6    4.700      66.809
2015    5       11     3  52    6.0403   580.8    4.692      66.775
2015    5       11     3  57    6.0332   581.0    4.683      66.739
2015    5       11     4   3    6.0262   581.2    4.675      66.702
2015    5       11     4   9    6.0190   581.4    4.667      66.664
2015    5       11     4  14    6.0119   581.6    4.658      66.626
2015    5       11     4  20    6.0048   581.8    4.650      66.588
2015    5       11     4  26    5.9977   581.9    4.643      66.550
2015    5       11     4  31    5.9908   582.0    4.635      66.512
2015    5       11     4  37    5.9839   582.2    4.627      66.475
2015    5       11     4  43    5.9772   582.3    4.620      66.438
2015    5       11     4  48    5.9705   582.5    4.612      66.402
2015    5       11     4  54    5.9640   582.6    4.605      66.367
2015    5       11     5   0    5.9575   582.8    4.598      66.334
2015    5       11     5   5    5.9512   583.0    4.591      66.302
2015    5       11     5  11    5.9450   583.1    4.584      66.273
2015    5       11     5  17    5.9389   583.3    4.578      66.245
2015    5       11     5  22    5.9328   583.5    4.572      66.218
2015    5       11     5  28    5.9269   583.7    4.566      66.193
2015    5       11     5  34    5.9210   583.9    4.560      66.168
2015    5       11     5  39    5.9152   584.0    4.554      66.144
2015    5       11     5  45    5.9094   584.2    4.548      66.121
2015    5       11     5  51    5.9037   584.4    4.543      66.098
2015    5       11     5  56    5.8981   584.6    4.537      66.076
2015    5       11     6   2    5.8926   584.8    4.532      66.055
2015    5       11     6   8    5.8871   585.0    4.526      66.035
2015    5       11     6  13    5.8817   585.1    4.521      66.015
2015    5       11     6  19    5.8764   585.3    4.516      65.997
2015    5       11     6  25    5.8712   585.5    4.510      65.979
2015    5       11     6  30    5.8660   585.7    4.505      65.962
2015    5       11     6  36    5.8609   585.9    4.500      65.947
2015    5       11     6  42    5.8559   586.0    4.495      65.932
2015    5       11     6  47    5.8510   586.2    4.490      65.919
2015    5       11     6  53    5.8461   586.4    4.485      65.907
2015    5       11     6  59    5.8413   586.6    4.480      65.897
2015    5       11     7   4    5.8365   586.8    4.475      65.887
2015    5       11     7  10    5.8318   586.9    4.469      65.879
2015    5       11     7  16    5.8271   587.1    4.464      65.872
2015    5       11     7  21    5.8225   587.3    4.459      65.865
2015    5       11     7  27    5.8179   587.5    4.454      65.860
2015    5       11     7  32    5.8134   587.7    4.449      65.854
2015    5       11     7  38    5.8089   587.8    4.444      65.849
2015    5       11     7  44    5.8045   588.0    4.439      65.844
2015    5       11     7  49    5.8001   588.2    4.434      65.839
2015    5       11     7  55    5.7958   588.4    4.429      65.834
2015    5       11     8   1    5.7915   588.5    4.424      65.829
2015    5       11     8   6    5.7872   588.7    4.419      65.823
2015    5       11     8  12    5.7830   588.9    4.414      65.817
2015    5       11     8  18    5.7788   589.0    4.409      65.811
2015    5       11     8  23    5.7747   589.2    4.404      65.804
2015    5       11     8  29    5.7706   589.4    4.399      65.797
2015    5       11     8  35    5.7665   589.6    4.394      65.791
2015    5       11     8  40    5.7625   589.7    4.389      65.785
2015    5       11     8  46    5.7585   589.9    4.384      65.779
2015    5       11     8  52    5.7545   590.1    4.379      65.773
2015    5       11     8  57    5.7505   590.3    4.374      65.768
2015    5       11     9   3    5.7466   590.4    4.369      65.762
2015    5       11     9   9    5.7427   590.6    4.364      65.756
2015    5       11     9  14    5.7388   590.8    4.359      65.749
2015    5       11     9  20    5.7349   591.0    4.354      65.742
2015    5       11     9  26    5.7310   591.1    4.349      65.734
2015    5       11     9  31    5.7272   591.3    4.343      65.727
2015    5       11     9  37    5.7234   591.5    4.338      65.719
2015    5       11     9  43    5.7195   591.7    4.333      65.710
2015    5       11     9  48    5.7158   591.8    4.328      65.702
2015    5       11     9  54    5.7120   592.0    4.323      65.694
2015    5       11    10   0    5.7082   592.2    4.318      65.685
2015    5       11    10   5    5.7045   592.3    4.313      65.677
2015    5       11    10  11    5.7008   592.5    4.309      65.669
2015    5       11    10  17    5.6970   592.7    4.304      65.661
2015    5       11    10  22    5.6934   592.9    4.299      65.653
2015    5       11    10  28    5.6897   593.0    4.294      65.646
2015    5       11    10  34    5.6860   593.2    4.289      65.638
2015    5       11    10  39    5.6824   593.4    4.285      65.631
2015    5       11    10  45    5.6788   593.5    4.280      65.625
2015    5       11    10  51    5.6752   593.7    4.275      65.618
2015    5       11    10  56    5.6717   593.9    4.271      65.613
2015    5       11    11   2    5.6682   594.0    4.266      65.607
2015    5       11    11   8    5.6647   594.2    4.262      65.602
2015    5       11    11  13    5.6612   594.4    4.257      65.597
2015    5       11    11  19    5.6578   594.5    4.253      65.593
2015    5       11    11  25    5.6545   594.7    4.248      65.589
2015    5       11    11  30    5.6512   594.8    4.244      65.586
2015    5       11    11  36    5.6479   595.0    4.240      65.583
2015    5       11    11  42    5.6446   595.2    4.236      65.580
2015    5       11    11  47    5.6414   595.3    4.231      65.578
2015    5       11    11  53    5.6383   595.5    4.227      65.576
2015    5       11    11  59    5.6352   595.7    4.223      65.576
2015    5       11    12   4    5.6321   595.8    4.219      65.575
2015    5       11    12  10    5.6291   596.0    4.216      65.575
2015    5       11    12  16    5.6261   596.2    4.212      65.576
2015    5       11    12  21    5.6232   596.3    4.208      65.577
2015    5       11    12  27    5.6203   596.5    4.204      65.578
2015    5       11    12  33    5.6174   596.6    4.201      65.581
2015    5       11    12  38    5.6146   596.8    4.197      65.583
2015    5       11    12  44    5.6118   597.0    4.194      65.587
2015    5       11    12  50    5.6090   597.1    4.190      65.591
2015    5       11    12  55    5.6063   597.3    4.187      65.596
2015    5       11    13   1    5.6035   597.5    4.183      65.601
2015    5       11    13   7    5.6008   597.6    4.180      65.607
2015    5       11    13  12    5.5981   597.8    4.177      65.613
2015    5       11    13  18    5.5955   598.0    4.173      65.621
2015    5       11    13  24    5.5929   598.1    4.170      65.628
2015    5       11    13  29    5.5903   598.3    4.167      65.637
2015    5       11    13  35    5.5877   598.5    4.164      65.645
2015    5       11    13  41    5.5851   598.6    4.161      65.655
2015    5       11    13  46    5.5826   598.8    4.158      65.665
2015    5       11    13  52    5.5801   598.9    4.155      65.675
2015    5       11    13  58    5.5776   599.1    4.152      65.687
2015    5       11    14   3    5.5752   599.3    4.149      65.698
2015    5       11    14   9    5.5728   599.4    4.147      65.710
2015    5       11    14  15    5.5704   599.6    4.144      65.723
2015    5       11    14  20    5.5681   599.8    4.141      65.737
2015    5       11    14  26    5.5658   599.9    4.138      65.751
2015    5       11    14  32    5.5635   600.1    4.136      65.766
2015    5       11    14  37    5.5613   600.2    4.133      65.781
2015    5       11    14  43    5.5591   600.4    4.131      65.797
2015    5       11    14  49    5.5569   600.6    4.128      65.814
2015    5       11    14  54    5.5549   600.7    4.126      65.833
2015    5       11    15   0    5.5528   600.9    4.124      65.853
2015    5       11    15   6    5.5507   601.1    4.121      65.874
2015    5       11    15  11    5.5487   601.2    4.119      65.896
2015    5       11    15  17    5.5468   601.4    4.117      65.919
2015    5       11    15  23    5.5448   601.6    4.115      65.942
2015    5       11    15  28    5.5429   601.8    4.112      65.965
2015    5       11    15  34    5.5409   601.9    4.110      65.988
2015    5       11    15  40    5.5390   602.1    4.108      66.011
2015    5       11    15  45    5.5370   602.3    4.105      66.035
2015    5       11    15  51    5.5351   602.5    4.103      66.058
2015    5       11    15  57    5.5331   602.6    4.100      66.081
2015    5       11    16   2    5.5312   602.8    4.098      66.104
2015    5       11    16   8    5.5292   603.0    4.095      66.127
2015    5       11    16  14    5.5272   603.2    4.092      66.149
2015    5       11    16  19    5.5252   603.4    4.090      66.171
2015    5       11    16  25    5.5232   603.6    4.087      66.191
2015    5       11    16  31    5.5212   603.8    4.084      66.211
2015    5       11    16  36    5.5192   603.9    4.081      66.230
2015    5       11    16  42    5.5172   604.1    4.078      66.248
2015    5       11    16  48    5.5152   604.3    4.075      66.265
2015    5       11    16  53    5.5132   604.5    4.071      66.282
2015    5       11    16  59    5.5113   604.7    4.068      66.299
2015    5       11    17   5    5.5093   604.9    4.065      66.315
2015    5       11    17  10    5.5073   605.1    4.062      66.330
2015    5       11    17  16    5.5053   605.2    4.058      66.345
2015    5       11    17  22    5.5034   605.4    4.055      66.359
2015    5       11    17  27    5.5015   605.6    4.052      66.373
2015    5       11    17  33    5.4996   605.8    4.048      66.387
2015    5       11    17  39    5.4977   606.0    4.045      66.400
2015    5       11    17  44    5.4958   606.2    4.042      66.414
2015    5       11    17  50    5.4939   606.3    4.038      66.427
2015    5       11    17  56    5.4921   606.5    4.035      66.440
2015    5       11    18   1    5.4903   606.7    4.032      66.454
2015    5       11    18   7    5.4885   606.9    4.028      66.467
2015    5       11    18  13    5.4868   607.1    4.025      66.481
2015    5       11    18  18    5.4851   607.3    4.022      66.495
2015    5       11    18  24    5.4834   607.5    4.019      66.509
2015    5       11    18  30    5.4817   607.6    4.015      66.524
2015    5       11    18  35    5.4800   607.8    4.012      66.539
2015    5       11    18  41    5.4784   608.0    4.009      66.555
2015    5       11    18  47    5.4768   608.2    4.006      66.571
2015    5       11    18  52    5.4752   608.4    4.003      66.588
2015    5       11    18  58    5.4736   608.6    4.000      66.606
2015    5       11    19   4    5.4720   608.8    3.997      66.624
2015    5       11    19   9    5.4704   609.0    3.994      66.643
2015    5       11    19  15    5.4689   609.2    3.992      66.663
2015    5       11    19  21    5.4673   609.4    3.989      66.683
2015    5       11    19  26    5.4658   609.6    3.986      66.704
2015    5       11    19  32    5.4643   609.8    3.984      66.726
2015    5       11    19  38    5.4627   610.0    3.981      66.748
2015    5       11    19  43    5.4612   610.1    3.978      66.771
2015    5       11    19  49    5.4597   610.3    3.976      66.794
2015    5       11    19  55    5.4582   610.5    3.974      66.818
2015    5       11    20   0    5.4567   610.7    3.971      66.843
2015    5       11    20   6    5.4552   610.9    3.969      66.868
2015    5       11    20  12    5.4537   611.1    3.966      66.893
2015    5       11    20  17    5.4522   611.3    3.964      66.919
2015    5       11    20  23    5.4507   611.5    3.962      66.945
2015    5       11    20  29    5.4492   611.7    3.960      66.972
2015    5       11    20  34    5.4477   611.9    3.957      66.999
2015    5       11    20  40    5.4462   612.1    3.955      67.026
2015    5       11    20  46    5.4447   612.3    3.953      67.054
2015    5       11    20  51    5.4432   612.5    3.951      67.082
2015    5       11    20  57    5.4418   612.7    3.949      67.112
2015    5       11    21   3    5.4403   612.9    3.947      67.143
2015    5       11    21   8    5.4389   613.1    3.945      67.176
2015    5       11    21  14    5.4374   613.3    3.943      67.210
2015    5       11    21  20    5.4360   613.5    3.941      67.246
2015    5       11    21  25    5.4346   613.7    3.938      67.282
2015    5       11    21  31    5.4332   613.9    3.936      67.319
2015    5       11    21  37    5.4318   614.1    3.934      67.355
2015    5       11    21  42    5.4304   614.3    3.932      67.392
2015    5       11    21  48    5.4290   614.5    3.929      67.428
2015    5       11    21  54    5.4276   614.8    3.927      67.464
2015    5       11    21  59    5.4263   615.0    3.925      67.500
2015    5       11    22   5    5.4249   615.2    3.923      67.535
2015    5       11    22  11    5.4236   615.4    3.920      67.572
2015    5       11    22  16    5.4223   615.6    3.918      67.609
2015    5       11    22  22    5.4210   615.8    3.916      67.647
2015    5       11    22  28    5.4197   616.0    3.914      67.684
2015    5       11    22  33    5.4185   616.2    3.911      67.723
2015    5       11    22  39    5.4172   616.5    3.909      67.762
2015    5       11    22  45    5.4159   616.7    3.906      67.800
2015    5       11    22  50    5.4147   616.9    3.904      67.837
2015    5       11    22  56    5.4134   617.1    3.901      67.874
2015    5       11    23   2    5.4121   617.4    3.898      67.910
2015    5       11    23   7    5.4108   617.6    3.896      67.945
2015    5       11    23  13    5.4094   617.8    3.893      67.980
2015    5       11    23  19    5.4081   618.0    3.890      68.013
2015    5       11    23  24    5.4067   618.3    3.887      68.045
2015    5       11    23  30    5.4054   618.5    3.884      68.076
2015    5       11    23  36    5.4041   618.7    3.881      68.107
2015    5       11    23  41    5.4027   619.0    3.878      68.137
2015    5       11    23  47    5.4014   619.2    3.874      68.166
2015    5       11    23  53    5.4001   619.4    3.871      68.195
2015    5       11    23  58    5.3987   619.6    3.868      68.223
2015    5       12     0   4    5.3975   619.9    3.865      68.251
2015    5       12     0  10    5.3962   620.1    3.862      68.279
2015    5       12     0  15    5.3949   620.3    3.858      68.307
2015    5       12     0  21    5.3937   620.5    3.855      68.335
2015    5       12     0  27    5.3925   620.8    3.852      68.363
2015    5       12     0  32    5.3914   621.0    3.849      68.392
2015    5       12     0  38    5.3903   621.2    3.846      68.422
2015    5       12     0  44    5.3892   621.4    3.843      68.453
2015    5       12     0  49    5.3882   621.7    3.841      68.485
2015    5       12     0  55    5.3871   621.9    3.838      68.519
2015    5       12     1   1    5.3861   622.2    3.835      68.553
2015    5       12     1   6    5.3850   622.4    3.832      68.587
2015    5       12     1  12    5.3839   622.7    3.829      68.620
2015    5       12     1  18    5.3828   622.9    3.826      68.652
2015    5       12     1  23    5.3816   623.2    3.822      68.684
2015    5       12     1  29    5.3805   623.4    3.819      68.716
2015    5       12     1  35    5.3793   623.7    3.816      68.746
2015    5       12     1  40    5.3781   624.0    3.812      68.776
2015    5       12     1  46    5.3768   624.2    3.809      68.806
2015    5       12     1  52    5.3755   624.5    3.806      68.835
2015    5       12     1  57    5.3743   624.7    3.802      68.864
2015    5       12     2   3    5.3729   625.0    3.799      68.892
2015    5       12     2   9    5.3716   625.3    3.795      68.921
2015    5       12     2  14    5.3702   625.5    3.792      68.949
2015    5       12     2  20    5.3688   625.8    3.788      68.977
2015    5       12     2  26    5.3674   626.0    3.785      69.005
2015    5       12     2  31    5.3659   626.3    3.781      69.034
2015    5       12     2  37    5.3644   626.6    3.778      69.062
2015    5       12     2  43    5.3629   626.8    3.774      69.090
2015    5       12     2  48    5.3613   627.1    3.771      69.119
2015    5       12     2  54    5.3597   627.4    3.767      69.147
2015    5       12     3   0    5.3581   627.7    3.764      69.176
2015    5       12     3   5    5.3564   627.9    3.760      69.204
2015    5       12     3  11    5.3547   628.2    3.756      69.232
2015    5       12     3  17    5.3530   628.5    3.753      69.261
2015    5       12     3  22    5.3512   628.7    3.749      69.290
2015    5       12     3  28    5.3495   629.0    3.746      69.318
2015    5       12     3  33    5.3476   629.3    3.742      69.347
2015    5       12     3  39    5.3458   629.5    3.739      69.376
2015    5       12     3  45    5.3440   629.8    3.735      69.404
2015    5       12     3  50    5.3421   630.1    3.732      69.433
2015    5       12     3  56    5.3403   630.3    3.728      69.462
2015    5       12     4   2    5.3384   630.6    3.724      69.493
2015    5       12     4   7    5.3365   630.9    3.721      69.525
2015    5       12     4  13    5.3345   631.1    3.717      69.559
2015    5       12     4  19    5.3326   631.4    3.713      69.594
2015    5       12     4  24    5.3306   631.7    3.710      69.630
2015    5       12     4  30    5.3286   632.0    3.706      69.666
2015    5       12     4  36    5.3266   632.2    3.702      69.702
2015    5       12     4  41    5.3246   632.5    3.698      69.738
2015    5       12     4  47    5.3226   632.8    3.694      69.773
2015    5       12     4  53    5.3206   633.0    3.690      69.808
2015    5       12     4  58    5.3185   633.3    3.686      69.842
2015    5       12     5   4    5.3165   633.6    3.681      69.876
2015    5       12     5  10    5.3144   633.9    3.677      69.909
2015    5       12     5  15    5.3123   634.1    3.673      69.942
2015    5       12     5  21    5.3103   634.4    3.668      69.974
2015    5       12     5  27    5.3082   634.7    3.664      70.006
2015    5       12     5  32    5.3061   634.9    3.660      70.037
2015    5       12     5  38    5.3040   635.2    3.655      70.067
2015    5       12     5  44    5.3019   635.5    3.651      70.097
2015    5       12     5  49    5.2998   635.7    3.646      70.126
2015    5       12     5  55    5.2976   636.0    3.642      70.154
2015    5       12     6   1    5.2955   636.3    3.637      70.182
2015    5       12     6   6    5.2934   636.5    3.633      70.209
2015    5       12     6  12    5.2912   636.8    3.628      70.235
2015    5       12     6  18    5.2891   637.1    3.624      70.261
2015    5       12     6  23    5.2869   637.3    3.619      70.286
2015    5       12     6  29    5.2848   637.6    3.614      70.310
2015    5       12     6  35    5.2826   637.9    3.610      70.334
2015    5       12     6  40    5.2805   638.1    3.605      70.357
2015    5       12     6  46    5.2783   638.4    3.601      70.379
2015    5       12     6  52    5.2761   638.7    3.597      70.402
2015    5       12     6  57    5.2740   638.9    3.592      70.424
2015    5       12     7   3    5.2718   639.2    3.588      70.446
2015    5       12     7   9    5.2697   639.5    3.583      70.468
2015    5       12     7  14    5.2676   639.7    3.579      70.490
2015    5       12     7  20    5.2654   640.0    3.575      70.513
2015    5       12     7  26    5.2634   640.2    3.571      70.537
2015    5       12     7  31    5.2613   640.5    3.567      70.561
2015    5       12     7  37    5.2593   640.7    3.563      70.585
2015    5       12     7  43    5.2573   641.0    3.559      70.612
2015    5       12     7  48    5.2553   641.3    3.556      70.641
2015    5       12     7  54    5.2533   641.5    3.552      70.671
2015    5       12     8   0    5.2512   641.8    3.549      70.702
2015    5       12     8   5    5.2492   642.1    3.545      70.736
2015    5       12     8  11    5.2470   642.4    3.542      70.769
2015    5       12     8  17    5.2448   642.7    3.538      70.802
2015    5       12     8  22    5.2426   643.0    3.534      70.833
2015    5       12     8  28    5.2403   643.2    3.531      70.863
2015    5       12     8  34    5.2379   643.5    3.527      70.891
2015    5       12     8  39    5.2355   643.8    3.523      70.918
2015    5       12     8  45    5.2330   644.1    3.519      70.943
2015    5       12     8  51    5.2304   644.4    3.515      70.967
2015    5       12     8  56    5.2278   644.7    3.511      70.989
2015    5       12     9   2    5.2251   645.0    3.507      71.010
2015    5       12     9   8    5.2224   645.3    3.503      71.030
2015    5       12     9  13    5.2196   645.6    3.498      71.049
2015    5       12     9  19    5.2168   645.9    3.494      71.067
2015    5       12     9  25    5.2139   646.2    3.490      71.084
2015    5       12     9  30    5.2110   646.5    3.485      71.100
2015    5       12     9  36    5.2080   646.8    3.481      71.116
2015    5       12     9  42    5.2050   647.1    3.476      71.131
2015    5       12     9  47    5.2020   647.4    3.472      71.145
2015    5       12     9  53    5.1989   647.7    3.467      71.159
2015    5       12     9  59    5.1958   648.0    3.463      71.172
2015    5       12    10   4    5.1926   648.3    3.458      71.185
2015    5       12    10  10    5.1894   648.5    3.453      71.197
2015    5       12    10  16    5.1862   648.8    3.448      71.209
2015    5       12    10  21    5.1829   649.1    3.443      71.220
2015    5       12    10  27    5.1795   649.4    3.439      71.231
2015    5       12    10  33    5.1761   649.7    3.434      71.241
2015    5       12    10  38    5.1727   650.0    3.429      71.250
2015    5       12    10  44    5.1693   650.3    3.424      71.259
2015    5       12    10  50    5.1658   650.6    3.419      71.268
2015    5       12    10  55    5.1623   650.8    3.413      71.275
2015    5       12    11   1    5.1588   651.1    3.408      71.283
2015    5       12    11   7    5.1552   651.4    3.403      71.289
2015    5       12    11  12    5.1516   651.7    3.398      71.295
2015    5       12    11  18    5.1480   651.9    3.393      71.300
2015    5       12    11  24    5.1444   652.2    3.387      71.305
2015    5       12    11  29    5.1408   652.5    3.382      71.309
2015    5       12    11  35    5.1371   652.7    3.377      71.312
2015    5       12    11  41    5.1334   653.0    3.371      71.315
2015    5       12    11  46    5.1297   653.3    3.366      71.317
2015    5       12    11  52    5.1260   653.5    3.360      71.318
2015    5       12    11  58    5.1223   653.8    3.355      71.319
2015    5       12    12   3    5.1186   654.0    3.349      71.319
2015    5       12    12   9    5.1149   654.3    3.344      71.319
2015    5       12    12  15    5.1111   654.5    3.338      71.318
2015    5       12    12  20    5.1074   654.8    3.333      71.317
2015    5       12    12  26    5.1036   655.0    3.327      71.315
2015    5       12    12  32    5.0998   655.3    3.321      71.313
2015    5       12    12  37    5.0960   655.5    3.316      71.309
2015    5       12    12  43    5.0922   655.8    3.310      71.305
2015    5       12    12  49    5.0884   656.0    3.304      71.300
2015    5       12    12  54    5.0846   656.3    3.299      71.295
2015    5       12    13   0    5.0808   656.5    3.293      71.288
2015    5       12    13   6    5.0769   656.7    3.287      71.281
2015    5       12    13  11    5.0731   657.0    3.282      71.274
2015    5       12    13  17    5.0693   657.2    3.276      71.265
2015    5       12    13  23    5.0654   657.4    3.270      71.256
2015    5       12    13  28    5.0615   657.7    3.264      71.246
2015    5       12    13  34    5.0577   657.9    3.259      71.235
2015    5       12    13  40    5.0538   658.1    3.253      71.223
2015    5       12    13  45    5.0499   658.3    3.248      71.211
2015    5       12    13  51    5.0461   658.6    3.242      71.199
2015    5       12    13  57    5.0422   658.8    3.237      71.186
2015    5       12    14   2    5.0384   659.0    3.231      71.173
2015    5       12    14   8    5.0345   659.2    3.226      71.159
2015    5       12    14  14    5.0307   659.4    3.220      71.146
2015    5       12    14  19    5.0268   659.6    3.215      71.133
2015    5       12    14  25    5.0230   659.8    3.210      71.120
2015    5       12    14  31    5.0191   660.0    3.205      71.107
2015    5       12    14  36    5.0153   660.2    3.200      71.095
2015    5       12    14  42    5.0115   660.4    3.196      71.083
2015    5       12    14  48    5.0077   660.6    3.191      71.073
2015    5       12    14  53    5.0038   660.8    3.186      71.062
2015    5       12    14  59    5.0000   661.0    3.182      71.053
2015    5       12    15   5    4.9962   661.2    3.178      71.045
2015    5       12    15  10    4.9924   661.4    3.173      71.038
2015    5       12    15  16    4.9885   661.6    3.169      71.032
2015    5       12    15  22    4.9846   661.8    3.165      71.027
2015    5       12    15  27    4.9806   662.0    3.162      71.023
2015    5       12    15  33    4.9767   662.2    3.158      71.019
2015    5       12    15  39    4.9727   662.4    3.154      71.015
2015    5       12    15  44    4.9687   662.6    3.151      71.010
2015    5       12    15  50    4.9646   662.8    3.147      71.006
2015    5       12    15  56    4.9606   663.0    3.144      71.000
2015    5       12    16   1    4.9565   663.2    3.141      70.994
2015    5       12    16   7    4.9523   663.4    3.137      70.988
2015    5       12    16  12    4.9481   663.6    3.134      70.981
2015    5       12    16  18    4.9440   663.8    3.131      70.973
2015    5       12    16  24    4.9397   664.0    3.127      70.964
2015    5       12    16  29    4.9355   664.1    3.124      70.955
2015    5       12    16  35    4.9312   664.3    3.121      70.945
2015    5       12    16  41    4.9269   664.5    3.117      70.934
2015    5       12    16  46    4.9225   664.7    3.114      70.922
2015    5       12    16  52    4.9182   664.9    3.110      70.909
2015    5       12    16  58    4.9138   665.1    3.107      70.895
2015    5       12    17   3    4.9094   665.2    3.103      70.880
2015    5       12    17   9    4.9050   665.4    3.100      70.865
2015    5       12    17  15    4.9006   665.6    3.096      70.848
2015    5       12    17  20    4.8962   665.8    3.092      70.831
2015    5       12    17  26    4.8918   665.9    3.088      70.812
2015    5       12    17  32    4.8873   666.1    3.085      70.793
2015    5       12    17  37    4.8829   666.3    3.081      70.773
2015    5       12    17  43    4.8784   666.4    3.077      70.752
2015    5       12    17  49    4.8739   666.6    3.073      70.730
2015    5       12    17  54    4.8694   666.7    3.069      70.707
2015    5       12    18   0    4.8649   666.9    3.065      70.684
2015    5       12    18   6    4.8604   667.0    3.061      70.660
2015    5       12    18  11    4.8559   667.2    3.057      70.635
2015    5       12    18  17    4.8514   667.3    3.053      70.609
2015    5       12    18  22    4.8469   667.5    3.049      70.582
2015    5       12    18  28    4.8424   667.6    3.045      70.554
2015    5       12    18  34    4.8379   667.8    3.041      70.526
2015    5       12    18  39    4.8333   667.9    3.037      70.497
2015    5       12    18  45    4.8288   668.0    3.033      70.467
2015    5       12    18  51    4.8243   668.2    3.028      70.436
2015    5       12    18  56    4.8198   668.3    3.024      70.405
2015    5       12    19   2    4.8153   668.4    3.020      70.373
2015    5       12    19   8    4.8108   668.6    3.016      70.340
2015    5       12    19  13    4.8063   668.7    3.012      70.306
2015    5       12    19  19    4.8018   668.8    3.008      70.272
2015    5       12    19  25    4.7973   669.0    3.003      70.237
2015    5       12    19  30    4.7928   669.1    2.999      70.202
2015    5       12    19  36    4.7883   669.2    2.995      70.166
2015    5       12    19  42    4.7838   669.4    2.991      70.129
2015    5       12    19  47    4.7793   669.5    2.987      70.092
2015    5       12    19  53    4.7748   669.6    2.982      70.054
2015    5       12    19  59    4.7703   669.7    2.978      70.016
2015    5       12    20   4    4.7658   669.9    2.974      69.977
2015    5       12    20  10    4.7613   670.0    2.970      69.938
2015    5       12    20  16    4.7568   670.1    2.965      69.898
2015    5       12    20  21    4.7522   670.2    2.961      69.858
2015    5       12    20  27    4.7477   670.3    2.957      69.817
2015    5       12    20  33    4.7432   670.4    2.952      69.776
2015    5       12    20  38    4.7388   670.5    2.948      69.735
2015    5       12    20  44    4.7343   670.7    2.944      69.694
2015    5       12    20  49    4.7298   670.8    2.940      69.652
2015    5       12    20  55    4.7254   670.9    2.935      69.610
2015    5       12    21   1    4.7210   671.0    2.931      69.569
2015    5       12    21   6    4.7165   671.1    2.927      69.527
2015    5       12    21  12    4.7122   671.1    2.923      69.486
2015    5       12    21  18    4.7078   671.2    2.919      69.445
2015    5       12    21  23    4.7034   671.3    2.915      69.404
2015    5       12    21  29    4.6991   671.4    2.911      69.364
2015    5       12    21  35    4.6948   671.5    2.907      69.325
2015    5       12    21  40    4.6905   671.6    2.903      69.286
2015    5       12    21  46    4.6862   671.6    2.900      69.248
2015    5       12    21  52    4.6820   671.7    2.896      69.211
2015    5       12    21  57    4.6777   671.8    2.893      69.175
2015    5       12    22   3    4.6735   671.9    2.889      69.140
2015    5       12    22   9    4.6693   671.9    2.886      69.106
2015    5       12    22  14    4.6651   672.0    2.883      69.073
2015    5       12    22  20    4.6609   672.1    2.880      69.040
2015    5       12    22  26    4.6567   672.1    2.877      69.009
2015    5       12    22  31    4.6526   672.2    2.874      68.978
2015    5       12    22  37    4.6484   672.2    2.872      68.949
2015    5       12    22  43    4.6443   672.3    2.869      68.920
2015    5       12    22  48    4.6401   672.4    2.867      68.892
2015    5       12    22  54    4.6360   672.4    2.865      68.864
2015    5       12    23   0    4.6319   672.5    2.863      68.837
2015    5       12    23   5    4.6277   672.5    2.860      68.811
2015    5       12    23  11    4.6236   672.6    2.858      68.784
2015    5       12    23  17    4.6194   672.6    2.856      68.758
2015    5       12    23  22    4.6153   672.7    2.854      68.731
2015    5       12    23  28    4.6111   672.7    2.853      68.704
2015    5       12    23  34    4.6070   672.8    2.851      68.676
2015    5       12    23  39    4.6028   672.8    2.849      68.647
2015    5       12    23  45    4.5987   672.8    2.847      68.618
2015    5       12    23  51    4.5945   672.9    2.845      68.588
2015    5       12    23  56    4.5904   672.9    2.843      68.557
2015    5       13     0   2    4.5862   673.0    2.841      68.525
2015    5       13     0   8    4.5821   673.0    2.839      68.493
2015    5       13     0  13    4.5779   673.0    2.837      68.459
2015    5       13     0  19    4.5738   673.0    2.835      68.424
2015    5       13     0  24    4.5697   673.1    2.833      68.389
2015    5       13     0  30    4.5656   673.1    2.830      68.352
2015    5       13     0  36    4.5615   673.1    2.828      68.315
2015    5       13     0  41    4.5574   673.1    2.826      68.277
2015    5       13     0  47    4.5533   673.1    2.824      68.238
2015    5       13     0  53    4.5492   673.1    2.822      68.198
2015    5       13     0  58    4.5451   673.2    2.819      68.157
2015    5       13     1   4    4.5411   673.2    2.817      68.116
2015    5       13     1  10    4.5370   673.2    2.815      68.075
2015    5       13     1  15    4.5330   673.2    2.812      68.032
2015    5       13     1  21    4.5290   673.2    2.810      67.989
2015    5       13     1  27    4.5249   673.2    2.807      67.946
2015    5       13     1  32    4.5209   673.2    2.805      67.902
2015    5       13     1  38    4.5169   673.2    2.802      67.858
2015    5       13     1  44    4.5129   673.2    2.800      67.813
2015    5       13     1  49    4.5089   673.2    2.798      67.768
2015    5       13     1  55    4.5050   673.2    2.795      67.722
2015    5       13     2   1    4.5010   673.3    2.793      67.677
2015    5       13     2   6    4.4970   673.3    2.790      67.631
2015    5       13     2  12    4.4931   673.3    2.788      67.585
2015    5       13     2  18    4.4891   673.3    2.785      67.538
2015    5       13     2  23    4.4852   673.3    2.783      67.492
2015    5       13     2  29    4.4813   673.3    2.780      67.445
2015    5       13     2  35    4.4774   673.3    2.778      67.398
2015    5       13     2  40    4.4734   673.3    2.775      67.352
2015    5       13     2  46    4.4695   673.3    2.773      67.305
2015    5       13     2  52    4.4656   673.3    2.770      67.258
2015    5       13     2  57    4.4617   673.3    2.768      67.211
2015    5       13     3   3    4.4578   673.3    2.765      67.165
2015    5       13     3   9    4.4539   673.3    2.763      67.119
2015    5       13     3  14    4.4500   673.3    2.760      67.073
2015    5       13     3  20    4.4462   673.3    2.758      67.027
2015    5       13     3  26    4.4423   673.3    2.756      66.982
2015    5       13     3  31    4.4384   673.3    2.753      66.937
2015    5       13     3  37    4.4346   673.3    2.751      66.892
2015    5       13     3  43    4.4307   673.3    2.749      66.849
2015    5       13     3  48    4.4269   673.3    2.746      66.805
2015    5       13     3  54    4.4231   673.3    2.744      66.763
2015    5       13     4   0    4.4193   673.3    2.742      66.721
2015    5       13     4   5    4.4155   673.3    2.740      66.680
2015    5       13     4  11    4.4117   673.3    2.738      66.639
2015    5       13     4  17    4.4079   673.3    2.736      66.600
2015    5       13     4  22    4.4042   673.2    2.734      66.561
2015    5       13     4  28    4.4005   673.2    2.732      66.524
2015    5       13     4  34    4.3968   673.2    2.730      66.487
2015    5       13     4  39    4.3931   673.2    2.728      66.452
2015    5       13     4  45    4.3894   673.2    2.727      66.418
2015    5       13     4  50    4.3857   673.2    2.725      66.384
2015    5       13     4  56    4.3821   673.2    2.723      66.352
2015    5       13     5   2    4.3784   673.1    2.722      66.321
2015    5       13     5   7    4.3748   673.1    2.720      66.290
2015    5       13     5  13    4.3712   673.1    2.719      66.260
2015    5       13     5  19    4.3675   673.1    2.718      66.232
2015    5       13     5  24    4.3639   673.1    2.717      66.204
2015    5       13     5  30    4.3603   673.0    2.715      66.176
2015    5       13     5  36    4.3567   673.0    2.714      66.149
2015    5       13     5  41    4.3531   673.0    2.713      66.122
2015    5       13     5  47    4.3495   673.0    2.712      66.096
2015    5       13     5  53    4.3459   672.9    2.711      66.069
2015    5       13     5  58    4.3423   672.9    2.710      66.043
2015    5       13     6   4    4.3387   672.9    2.709      66.017
2015    5       13     6  10    4.3351   672.8    2.709      65.990
2015    5       13     6  15    4.3315   672.8    2.708      65.963
2015    5       13     6  21    4.3279   672.7    2.707      65.936
2015    5       13     6  27    4.3243   672.7    2.706      65.909
2015    5       13     6  32    4.3207   672.7    2.705      65.880
2015    5       13     6  38    4.3171   672.6    2.704      65.851
2015    5       13     6  44    4.3136   672.6    2.703      65.820
2015    5       13     6  49    4.3100   672.5    2.702      65.789
2015    5       13     6  55    4.3064   672.5    2.701      65.756
2015    5       13     7   1    4.3029   672.4    2.700      65.722
2015    5       13     7   6    4.2994   672.4    2.699      65.687
2015    5       13     7  12    4.2958   672.3    2.698      65.651
2015    5       13     7  18    4.2923   672.3    2.697      65.614
2015    5       13     7  23    4.2888   672.2    2.695      65.576
2015    5       13     7  29    4.2854   672.1    2.694      65.538
2015    5       13     7  35    4.2819   672.1    2.693      65.498
2015    5       13     7  40    4.2785   672.0    2.692      65.458
2015    5       13     7  46    4.2750   671.9    2.690      65.417
2015    5       13     7  52    4.2716   671.9    2.689      65.375
2015    5       13     7  57    4.2682   671.8    2.687      65.332
2015    5       13     8   3    4.2648   671.7    2.686      65.289
2015    5       13     8   9    4.2614   671.7    2.685      65.245
2015    5       13     8  14    4.2580   671.6    2.683      65.200
2015    5       13     8  20    4.2547   671.5    2.682      65.154
2015    5       13     8  26    4.2513   671.4    2.680      65.107
2015    5       13     8  31    4.2480   671.4    2.678      65.060
2015    5       13     8  37    4.2447   671.3    2.677      65.012
2015    5       13     8  43    4.2413   671.2    2.675      64.964
2015    5       13     8  48    4.2380   671.1    2.673      64.915
2015    5       13     8  54    4.2347   671.0    2.672      64.865
2015    5       13     9   0    4.2314   671.0    2.670      64.815
2015    5       13     9   5    4.2281   670.9    2.668      64.765
2015    5       13     9  11    4.2248   670.8    2.666      64.714
2015    5       13     9  17    4.2216   670.7    2.664      64.662
2015    5       13     9  22    4.2183   670.6    2.663      64.610
2015    5       13     9  28    4.2150   670.5    2.661      64.558
2015    5       13     9  34    4.2118   670.5    2.659      64.505
2015    5       13     9  39    4.2086   670.4    2.657      64.453
2015    5       13     9  45    4.2053   670.3    2.655      64.399
2015    5       13     9  51    4.2021   670.2    2.653      64.346
2015    5       13     9  56    4.1989   670.1    2.651      64.292
2015    5       13    10   2    4.1957   670.0    2.649      64.238
2015    5       13    10   8    4.1925   669.9    2.647      64.183
2015    5       13    10  13    4.1893   669.9    2.645      64.129
2015    5       13    10  19    4.1861   669.8    2.643      64.075
2015    5       13    10  24    4.1829   669.7    2.642      64.020
2015    5       13    10  30    4.1798   669.6    2.640      63.966
2015    5       13    10  36    4.1766   669.5    2.638      63.913
2015    5       13    10  41    4.1734   669.4    2.636      63.859
2015    5       13    10  47    4.1703   669.3    2.634      63.806
2015    5       13    10  53    4.1672   669.2    2.632      63.754
2015    5       13    10  58    4.1640   669.1    2.630      63.702
2015    5       13    11   4    4.1609   669.0    2.629      63.650
2015    5       13    11  10    4.1578   668.9    2.627      63.600
2015    5       13    11  15    4.1547   668.8    2.626      63.550
2015    5       13    11  21    4.1516   668.8    2.624      63.502
2015    5       13    11  27    4.1486   668.7    2.622      63.454
2015    5       13    11  32    4.1455   668.6    2.621      63.408
2015    5       13    11  38    4.1424   668.5    2.620      63.362
2015    5       13    11  44    4.1394   668.4    2.618      63.318
2015    5       13    11  49    4.1363   668.3    2.617      63.274
2015    5       13    11  55    4.1333   668.2    2.616      63.232
2015    5       13    12   1    4.1302   668.1    2.615      63.191
2015    5       13    12   6    4.1272   668.0    2.614      63.150
2015    5       13    12  12    4.1241   667.9    2.613      63.111
2015    5       13    12  18    4.1211   667.8    2.612      63.073
2015    5       13    12  23    4.1180   667.7    2.611      63.035
2015    5       13    12  29    4.1149   667.6    2.611      62.998
2015    5       13    12  35    4.1118   667.5    2.610      62.962
2015    5       13    12  40    4.1087   667.4    2.609      62.927
2015    5       13    12  46    4.1056   667.3    2.609      62.892
2015    5       13    12  52    4.1025   667.2    2.608      62.858
2015    5       13    12  57    4.0994   667.1    2.608      62.824
2015    5       13    13   3    4.0963   667.0    2.607      62.791
2015    5       13    13   9    4.0932   666.9    2.607      62.757
2015    5       13    13  14    4.0901   666.8    2.606      62.724
2015    5       13    13  20    4.0869   666.6    2.606      62.691
2015    5       13    13  26    4.0838   666.5    2.605      62.658
2015    5       13    13  31    4.0807   666.4    2.605      62.624
2015    5       13    13  37    4.0776   666.3    2.605      62.591
2015    5       13    13  43    4.0746   666.2    2.604      62.558
2015    5       13    13  48    4.0715   666.0    2.604      62.524
2015    5       13    13  54    4.0684   665.9    2.604      62.491
2015    5       13    14   0    4.0654   665.8    2.603      62.457
2015    5       13    14   5    4.0624   665.7    2.603      62.423
2015    5       13    14  11    4.0593   665.5    2.603      62.389
2015    5       13    14  17    4.0563   665.4    2.603      62.354
2015    5       13    14  22    4.0534   665.3    2.602      62.319
2015    5       13    14  28    4.0504   665.1    2.602      62.284
2015    5       13    14  34    4.0474   665.0    2.602      62.248
2015    5       13    14  39    4.0445   664.9    2.601      62.213
2015    5       13    14  45    4.0415   664.7    2.601      62.177
2015    5       13    14  51    4.0386   664.6    2.601      62.140
2015    5       13    14  56    4.0357   664.5    2.600      62.103
2015    5       13    15   2    4.0328   664.3    2.600      62.066
2015    5       13    15   8    4.0299   664.2    2.600      62.028
2015    5       13    15  13    4.0270   664.1    2.599      61.989
2015    5       13    15  19    4.0240   663.9    2.599      61.950
2015    5       13    15  25    4.0212   663.8    2.599      61.910
2015    5       13    15  30    4.0183   663.7    2.598      61.870
2015    5       13    15  36    4.0154   663.5    2.598      61.829
2015    5       13    15  42    4.0125   663.4    2.597      61.787
2015    5       13    15  47    4.0096   663.2    2.596      61.745
2015    5       13    15  53    4.0067   663.1    2.596      61.703
2015    5       13    15  59    4.0038   662.9    2.595      61.660
2015    5       13    16   4    4.0009   662.8    2.595      61.616
2015    5       13    16  10    3.9981   662.6    2.594      61.572
2015    5       13    16  16    3.9952   662.5    2.593      61.527
2015    5       13    16  21    3.9924   662.3    2.593      61.482
2015    5       13    16  27    3.9895   662.2    2.592      61.437
2015    5       13    16  33    3.9867   662.0    2.591      61.391
2015    5       13    16  38    3.9838   661.9    2.590      61.345
2015    5       13    16  44    3.9810   661.7    2.589      61.298
2015    5       13    16  50    3.9782   661.6    2.589      61.251
2015    5       13    16  55    3.9754   661.4    2.588      61.203
2015    5       13    17   1    3.9726   661.3    2.587      61.155
2015    5       13    17   6    3.9698   661.1    2.586      61.106
2015    5       13    17  12    3.9671   661.0    2.585      61.057
2015    5       13    17  18    3.9643   660.8    2.584      61.007
2015    5       13    17  23    3.9615   660.7    2.583      60.957
2015    5       13    17  29    3.9588   660.5    2.582      60.907
2015    5       13    17  35    3.9561   660.3    2.581      60.856
2015    5       13    17  40    3.9534   660.2    2.579      60.805
2015    5       13    17  46    3.9506   660.0    2.578      60.753
2015    5       13    17  52    3.9479   659.9    2.577      60.702
2015    5       13    17  57    3.9452   659.7    2.576      60.650
2015    5       13    18   3    3.9426   659.5    2.575      60.597
2015    5       13    18   9    3.9399   659.4    2.574      60.545
2015    5       13    18  14    3.9372   659.2    2.573      60.493
2015    5       13    18  20    3.9345   659.0    2.572      60.440
2015    5       13    18  26    3.9319   658.9    2.570      60.388
2015    5       13    18  31    3.9292   658.7    2.569      60.335
2015    5       13    18  37    3.9266   658.5    2.568      60.282
2015    5       13    18  43    3.9240   658.4    2.567      60.230
2015    5       13    18  48    3.9213   658.2    2.566      60.178
2015    5       13    18  54    3.9187   658.0    2.565      60.125
2015    5       13    19   0    3.9161   657.9    2.564      60.073
2015    5       13    19   5    3.9135   657.7    2.563      60.020
2015    5       13    19  11    3.9109   657.5    2.562      59.968
2015    5       13    19  17    3.9083   657.3    2.561      59.916
2015    5       13    19  22    3.9057   657.2    2.560      59.864
2015    5       13    19  28    3.9031   657.0    2.559      59.811
2015    5       13    19  34    3.9005   656.8    2.558      59.759
2015    5       13    19  39    3.8979   656.6    2.557      59.707
2015    5       13    19  45    3.8953   656.5    2.556      59.655
2015    5       13    19  51    3.8927   656.3    2.555      59.603
2015    5       13    19  56    3.8901   656.1    2.554      59.552
2015    5       13    20   2    3.8874   655.9    2.553      59.500
2015    5       13    20   8    3.8848   655.8    2.552      59.449
2015    5       13    20  13    3.8822   655.6    2.551      59.397
2015    5       13    20  19    3.8796   655.4    2.550      59.346
2015    5       13    20  25    3.8770   655.2    2.550      59.295
2015    5       13    20  30    3.8744   655.0    2.549      59.244
2015    5       13    20  36    3.8718   654.8    2.548      59.194
2015    5       13    20  42    3.8692   654.6    2.547      59.144
2015    5       13    20  47    3.8666   654.5    2.547      59.094
2015    5       13    20  53    3.8640   654.3    2.546      59.044
2015    5       13    20  59    3.8614   654.1    2.545      58.995
2015    5       13    21   4    3.8588   653.9    2.545      58.946
2015    5       13    21  10    3.8562   653.7    2.544      58.897
2015    5       13    21  16    3.8536   653.5    2.544      58.849
2015    5       13    21  21    3.8510   653.3    2.543      58.801
2015    5       13    21  27    3.8484   653.1    2.543      58.753
2015    5       13    21  33    3.8459   653.0    2.542      58.706
2015    5       13    21  38    3.8433   652.8    2.542      58.658
2015    5       13    21  44    3.8407   652.6    2.541      58.611
2015    5       13    21  50    3.8382   652.4    2.541      58.565
2015    5       13    21  55    3.8356   652.2    2.541      58.518
2015    5       13    22   1    3.8330   652.0    2.540      58.472
2015    5       13    22   7    3.8304   651.8    2.540      58.426
2015    5       13    22  12    3.8279   651.6    2.540      58.380
2015    5       13    22  18    3.8253   651.4    2.540      58.335
2015    5       13    22  24    3.8227   651.2    2.539      58.289
2015    5       13    22  29    3.8202   651.0    2.539      58.244
2015    5       13    22  35    3.8176   650.8    2.539      58.199
2015    5       13    22  41    3.8150   650.6    2.539      58.154
2015    5       13    22  46    3.8124   650.4    2.539      58.109
2015    5       13    22  52    3.8098   650.2    2.539      58.065
2015    5       13    22  58    3.8072   650.0    2.539      58.021
2015    5       13    23   3    3.8047   649.8    2.539      57.977
2015    5       13    23   9    3.8021   649.6    2.539      57.933
2015    5       13    23  15    3.7995   649.4    2.539      57.889
2015    5       13    23  20    3.7969   649.2    2.539      57.846
2015    5       13    23  26    3.7944   649.0    2.540      57.803
2015    5       13    23  32    3.7918   648.8    2.540      57.760
2015    5       13    23  37    3.7892   648.5    2.540      57.717
2015    5       13    23  43    3.7867   648.3    2.540      57.675
2015    5       13    23  49    3.7841   648.1    2.541      57.633
2015    5       13    23  54    3.7816   647.9    2.541      57.591
2015    5       14     0   0    3.7791   647.7    2.541      57.549
2015    5       14     0   6    3.7765   647.5    2.541      57.508
2015    5       14     0  11    3.7740   647.2    2.542      57.467
2015    5       14     0  17    3.7715   647.0    2.542      57.425
2015    5       14     0  23    3.7691   646.8    2.543      57.384
2015    5       14     0  28    3.7666   646.6    2.543      57.343
2015    5       14     0  34    3.7641   646.4    2.543      57.302
2015    5       14     0  40    3.7617   646.1    2.544      57.261
2015    5       14     0  45    3.7592   645.9    2.544      57.220
2015    5       14     0  51    3.7568   645.7    2.544      57.179
2015    5       14     0  56    3.7544   645.5    2.545      57.137
2015    5       14     1   2    3.7519   645.2    2.545      57.096
2015    5       14     1   8    3.7495   645.0    2.545      57.054
2015    5       14     1  13    3.7471   644.8    2.546      57.012
2015    5       14     1  19    3.7447   644.6    2.546      56.970
2015    5       14     1  25    3.7423   644.3    2.546      56.927
2015    5       14     1  30    3.7399   644.1    2.546      56.884
2015    5       14     1  36    3.7375   643.9    2.546      56.842
2015    5       14     1  42    3.7351   643.7    2.547      56.798
2015    5       14     1  47    3.7328   643.4    2.547      56.755
2015    5       14     1  53    3.7304   643.2    2.547      56.711
2015    5       14     1  59    3.7281   643.0    2.547      56.667
2015    5       14     2   4    3.7257   642.7    2.547      56.623
2015    5       14     2  10    3.7234   642.5    2.547      56.578
2015    5       14     2  16    3.7211   642.3    2.547      56.533
2015    5       14     2  21    3.7188   642.0    2.546      56.488
2015    5       14     2  27    3.7165   641.8    2.546      56.443
2015    5       14     2  33    3.7142   641.6    2.546      56.397
2015    5       14     2  38    3.7119   641.4    2.546      56.351
2015    5       14     2  44    3.7096   641.1    2.546      56.304
2015    5       14     2  50    3.7073   640.9    2.546      56.257
2015    5       14     2  55    3.7050   640.7    2.546      56.209
2015    5       14     3   1    3.7027   640.5    2.545      56.161
2015    5       14     3   7    3.7004   640.2    2.545      56.112
2015    5       14     3  12    3.6981   640.0    2.545      56.062
2015    5       14     3  18    3.6958   639.8    2.544      56.011
2015    5       14     3  24    3.6935   639.6    2.544      55.960
2015    5       14     3  29    3.6912   639.3    2.544      55.908
2015    5       14     3  35    3.6888   639.1    2.543      55.855
2015    5       14     3  41    3.6865   638.9    2.543      55.802
2015    5       14     3  46    3.6841   638.7    2.542      55.748
2015    5       14     3  52    3.6818   638.4    2.542      55.694
2015    5       14     3  58    3.6794   638.2    2.541      55.639
2015    5       14     4   3    3.6770   638.0    2.541      55.583
2015    5       14     4   9    3.6746   637.7    2.540      55.527
2015    5       14     4  15    3.6722   637.5    2.540      55.471
2015    5       14     4  20    3.6698   637.3    2.539      55.414
2015    5       14     4  26    3.6675   637.1    2.538      55.356
2015    5       14     4  32    3.6650   636.8    2.538      55.298
2015    5       14     4  37    3.6626   636.6    2.537      55.240
2015    5       14     4  43    3.6602   636.3    2.537      55.181
2015    5       14     4  49    3.6578   636.1    2.536      55.123
2015    5       14     4  54    3.6554   635.9    2.535      55.064
2015    5       14     5   0    3.6530   635.6    2.534      55.004
2015    5       14     5   6    3.6506   635.4    2.534      54.945
2015    5       14     5  11    3.6482   635.1    2.533      54.885
2015    5       14     5  17    3.6458   634.9    2.532      54.825
2015    5       14     5  23    3.6433   634.7    2.532      54.766
2015    5       14     5  28    3.6409   634.4    2.531      54.706
2015    5       14     5  34    3.6385   634.2    2.530      54.646
2015    5       14     5  40    3.6361   633.9    2.530      54.586
2015    5       14     5  45    3.6337   633.7    2.529      54.526
2015    5       14     5  51    3.6313   633.4    2.528      54.467
2015    5       14     5  57    3.6289   633.2    2.528      54.408
2015    5       14     6   2    3.6265   632.9    2.527      54.349
2015    5       14     6   8    3.6241   632.6    2.527      54.290
2015    5       14     6  14    3.6218   632.4    2.526      54.232
2015    5       14     6  19    3.6194   632.1    2.526      54.173
2015    5       14     6  25    3.6170   631.9    2.526      54.116
2015    5       14     6  31    3.6147   631.6    2.525      54.058
2015    5       14     6  36    3.6124   631.4    2.525      54.001
2015    5       14     6  42    3.6100   631.1    2.525      53.944
2015    5       14     6  48    3.6077   630.8    2.524      53.888
2015    5       14     6  53    3.6054   630.6    2.524      53.832
2015    5       14     6  59    3.6031   630.3    2.524      53.776
2015    5       14     7   5    3.6008   630.0    2.524      53.721
2015    5       14     7  10    3.5985   629.7    2.524      53.666
2015    5       14     7  16    3.5962   629.5    2.524      53.611
2015    5       14     7  22    3.5940   629.2    2.524      53.557
2015    5       14     7  27    3.5917   628.9    2.524      53.504
2015    5       14     7  33    3.5895   628.6    2.524      53.451
2015    5       14     7  39    3.5873   628.3    2.524      53.398
2015    5       14     7  44    3.5851   628.1    2.525      53.347
2015    5       14     7  50    3.5829   627.8    2.525      53.296
2015    5       14     7  56    3.5807   627.5    2.525      53.246
2015    5       14     8   1    3.5786   627.2    2.526      53.196
2015    5       14     8   7    3.5765   626.9    2.526      53.147
2015    5       14     8  13    3.5743   626.6    2.527      53.099
2015    5       14     8  18    3.5722   626.3    2.527      53.051
2015    5       14     8  24    3.5702   626.1    2.528      53.005
2015    5       14     8  30    3.5681   625.8    2.529      52.959
2015    5       14     8  35    3.5661   625.5    2.530      52.914
2015    5       14     8  41    3.5641   625.2    2.530      52.870
2015    5       14     8  47    3.5621   624.9    2.531      52.827
2015    5       14     8  52    3.5601   624.6    2.532      52.784
2015    5       14     8  58    3.5581   624.3    2.533      52.742
2015    5       14     9   4    3.5562   624.0    2.534      52.700
2015    5       14     9   9    3.5543   623.7    2.535      52.659
2015    5       14     9  15    3.5524   623.4    2.537      52.619
2015    5       14     9  20    3.5505   623.1    2.538      52.578
2015    5       14     9  26    3.5486   622.9    2.539      52.538
2015    5       14     9  32    3.5467   622.6    2.540      52.499
2015    5       14     9  37    3.5448   622.3    2.541      52.459
2015    5       14     9  43    3.5430   622.0    2.542      52.419
2015    5       14     9  49    3.5411   621.7    2.543      52.379
2015    5       14     9  54    3.5392   621.4    2.545      52.339
2015    5       14    10   0    3.5373   621.2    2.546      52.299
2015    5       14    10   6    3.5354   620.9    2.547      52.259
2015    5       14    10  11    3.5334   620.6    2.548      52.218
2015    5       14    10  17    3.5315   620.3    2.549      52.177
2015    5       14    10  23    3.5295   620.0    2.550      52.135
2015    5       14    10  28    3.5275   619.7    2.551      52.092
2015    5       14    10  34    3.5255   619.5    2.552      52.048
2015    5       14    10  40    3.5236   619.2    2.553      52.003
2015    5       14    10  45    3.5215   618.9    2.554      51.958
2015    5       14    10  51    3.5195   618.6    2.555      51.913
2015    5       14    10  57    3.5175   618.3    2.555      51.867
2015    5       14    11   2    3.5155   618.0    2.556      51.820
2015    5       14    11   8    3.5135   617.7    2.557      51.773
2015    5       14    11  14    3.5115   617.5    2.558      51.725
2015    5       14    11  19    3.5095   617.2    2.558      51.677
2015    5       14    11  25    3.5075   616.9    2.559      51.629
2015    5       14    11  31    3.5055   616.6    2.560      51.581
2015    5       14    11  36    3.5035   616.3    2.560      51.532
2015    5       14    11  42    3.5015   616.0    2.561      51.483
2015    5       14    11  48    3.4995   615.7    2.561      51.433
2015    5       14    11  53    3.4975   615.4    2.562      51.383
2015    5       14    11  59    3.4955   615.1    2.562      51.334
2015    5       14    12   5    3.4935   614.9    2.563      51.284
2015    5       14    12  10    3.4916   614.6    2.563      51.234
2015    5       14    12  16    3.4896   614.3    2.564      51.184
2015    5       14    12  22    3.4877   614.0    2.565      51.134
2015    5       14    12  27    3.4857   613.7    2.565      51.084
2015    5       14    12  33    3.4838   613.4    2.566      51.034
2015    5       14    12  39    3.4819   613.1    2.566      50.984
2015    5       14    12  44    3.4800   612.8    2.567      50.934
2015    5       14    12  50    3.4781   612.5    2.567      50.884
2015    5       14    12  56    3.4762   612.2    2.568      50.834
2015    5       14    13   1    3.4743   611.9    2.568      50.784
2015    5       14    13   7    3.4724   611.6    2.569      50.735
2015    5       14    13  13    3.4706   611.3    2.569      50.685
2015    5       14    13  18    3.4687   611.0    2.570      50.636
2015    5       14    13  24    3.4669   610.7    2.570      50.586
2015    5       14    13  30    3.4650   610.4    2.571      50.537
2015    5       14    13  35    3.4632   610.1    2.571      50.487
2015    5       14    13  41    3.4613   609.8    2.572      50.438
2015    5       14    13  47    3.4594   609.5    2.573      50.388
2015    5       14    13  52    3.4576   609.2    2.573      50.338
2015    5       14    13  58    3.4557   608.9    2.574      50.288
2015    5       14    14   4    3.4538   608.6    2.574      50.238
2015    5       14    14   9    3.4520   608.3    2.574      50.187
2015    5       14    14  15    3.4501   608.0    2.575      50.136
2015    5       14    14  21    3.4483   607.7    2.575      50.085
2015    5       14    14  26    3.4464   607.4    2.576      50.033
2015    5       14    14  32    3.4446   607.1    2.576      49.981
2015    5       14    14  38    3.4427   606.8    2.577      49.929
2015    5       14    14  43    3.4409   606.5    2.577      49.877
2015    5       14    14  49    3.4391   606.2    2.577      49.825
2015    5       14    14  55    3.4373   605.8    2.578      49.773
2015    5       14    15   0    3.4355   605.5    2.578      49.721
2015    5       14    15   6    3.4337   605.2    2.579      49.669
2015    5       14    15  12    3.4319   604.9    2.579      49.618
2015    5       14    15  17    3.4301   604.6    2.580      49.567
2015    5       14    15  23    3.4284   604.3    2.581      49.516
2015    5       14    15  29    3.4267   603.9    2.581      49.465
2015    5       14    15  34    3.4250   603.6    2.582      49.416
2015    5       14    15  40    3.4233   603.3    2.583      49.367
2015    5       14    15  46    3.4217   603.0    2.584      49.318
2015    5       14    15  51    3.4200   602.7    2.585      49.270
2015    5       14    15  57    3.4184   602.3    2.586      49.222
2015    5       14    16   3    3.4168   602.0    2.587      49.176
2015    5       14    16   8    3.4152   601.7    2.588      49.130
2015    5       14    16  14    3.4137   601.4    2.589      49.084
2015    5       14    16  20    3.4121   601.1    2.590      49.038
2015    5       14    16  25    3.4106   600.7    2.592      48.993
2015    5       14    16  31    3.4091   600.4    2.593      48.949
2015    5       14    16  37    3.4076   600.1    2.594      48.905
2015    5       14    16  42    3.4060   599.8    2.596      48.861
2015    5       14    16  48    3.4045   599.5    2.597      48.817
2015    5       14    16  54    3.4030   599.1    2.599      48.773
2015    5       14    16  59    3.4015   598.8    2.600      48.730
2015    5       14    17   5    3.4000   598.5    2.602      48.686
2015    5       14    17  11    3.3985   598.2    2.604      48.643
2015    5       14    17  16    3.3970   597.8    2.605      48.599
2015    5       14    17  22    3.3955   597.5    2.607      48.556
2015    5       14    17  28    3.3941   597.2    2.609      48.513
2015    5       14    17  33    3.3926   596.8    2.610      48.470
2015    5       14    17  39    3.3912   596.5    2.612      48.426
2015    5       14    17  45    3.3897   596.2    2.614      48.384
2015    5       14    17  50    3.3883   595.8    2.616      48.341
2015    5       14    17  56    3.3869   595.5    2.618      48.298
2015    5       14    18   2    3.3855   595.2    2.619      48.256
2015    5       14    18   7    3.3841   594.8    2.621      48.214
2015    5       14    18  13    3.3828   594.5    2.623      48.172
2015    5       14    18  19    3.3815   594.2    2.625      48.130
2015    5       14    18  24    3.3801   593.8    2.627      48.089
2015    5       14    18  30    3.3788   593.5    2.629      48.047
2015    5       14    18  35    3.3775   593.2    2.631      48.006
2015    5       14    18  41    3.3762   592.8    2.633      47.965
2015    5       14    18  47    3.3749   592.5    2.635      47.925
2015    5       14    18  52    3.3737   592.2    2.637      47.884
2015    5       14    18  58    3.3723   591.8    2.639      47.843
2015    5       14    19   4    3.3710   591.5    2.641      47.803
2015    5       14    19   9    3.3698   591.2    2.643      47.762
2015    5       14    19  15    3.3685   590.8    2.645      47.721
2015    5       14    19  21    3.3672   590.5    2.647      47.681
2015    5       14    19  26    3.3659   590.2    2.649      47.640
2015    5       14    19  32    3.3645   589.8    2.651      47.599
2015    5       14    19  38    3.3632   589.5    2.653      47.559
2015    5       14    19  43    3.3619   589.2    2.655      47.518
2015    5       14    19  49    3.3606   588.8    2.657      47.477
2015    5       14    19  55    3.3593   588.5    2.659      47.435
2015    5       14    20   0    3.3580   588.2    2.661      47.394
2015    5       14    20   6    3.3567   587.8    2.663      47.353
2015    5       14    20  12    3.3554   587.5    2.665      47.312
2015    5       14    20  17    3.3541   587.2    2.667      47.271
2015    5       14    20  23    3.3528   586.8    2.669      47.230
2015    5       14    20  29    3.3515   586.5    2.670      47.188
2015    5       14    20  34    3.3502   586.2    2.672      47.147
2015    5       14    20  40    3.3489   585.8    2.674      47.106
2015    5       14    20  46    3.3476   585.5    2.676      47.065
2015    5       14    20  51    3.3464   585.2    2.678      47.024
2015    5       14    20  57    3.3451   584.8    2.680      46.983
2015    5       14    21   3    3.3439   584.5    2.682      46.942
2015    5       14    21   8    3.3426   584.2    2.684      46.901
2015    5       14    21  14    3.3414   583.8    2.686      46.860
2015    5       14    21  20    3.3401   583.5    2.688      46.820
2015    5       14    21  25    3.3389   583.1    2.690      46.779
2015    5       14    21  31    3.3377   582.8    2.692      46.739
2015    5       14    21  37    3.3365   582.5    2.694      46.699
2015    5       14    21  42    3.3353   582.1    2.696      46.659
2015    5       14    21  48    3.3342   581.8    2.698      46.620
2015    5       14    21  54    3.3330   581.4    2.700      46.580
2015    5       14    21  59    3.3319   581.1    2.702      46.541
2015    5       14    22   5    3.3308   580.8    2.704      46.502
2015    5       14    22  11    3.3296   580.4    2.707      46.463
2015    5       14    22  16    3.3285   580.1    2.709      46.425
2015    5       14    22  22    3.3275   579.7    2.711      46.386
2015    5       14    22  28    3.3264   579.4    2.713      46.348
2015    5       14    22  33    3.3254   579.1    2.715      46.310
2015    5       14    22  39    3.3243   578.7    2.717      46.272
2015    5       14    22  45    3.3233   578.4    2.719      46.234
2015    5       14    22  50    3.3223   578.1    2.722      46.196
2015    5       14    22  56    3.3213   577.7    2.724      46.159
2015    5       14    23   2    3.3204   577.4    2.726      46.122
2015    5       14    23   7    3.3194   577.0    2.728      46.084
2015    5       14    23  13    3.3185   576.7    2.730      46.047
2015    5       14    23  19    3.3175   576.4    2.733      46.011
2015    5       14    23  24    3.3166   576.0    2.735      45.974
2015    5       14    23  30    3.3157   575.7    2.737      45.937
2015    5       14    23  36    3.3148   575.4    2.739      45.900
2015    5       14    23  41    3.3140   575.0    2.741      45.864
2015    5       14    23  47    3.3131   574.7    2.744      45.827
2015    5       14    23  53    3.3122   574.4    2.746      45.791
2015    5       14    23  58    3.3114   574.0    2.748      45.755
2015    5       15     0   4    3.3106   573.7    2.750      45.718
2015    5       15     0  10    3.3097   573.4    2.752      45.682
2015    5       15     0  15    3.3089   573.1    2.755      45.646
2015    5       15     0  21    3.3081   572.7    2.757      45.609
2015    5       15     0  27    3.3073   572.4    2.759      45.573
2015    5       15     0  32    3.3065   572.1    2.761      45.537
2015    5       15     0  38    3.3058   571.7    2.763      45.501
2015    5       15     0  44    3.3050   571.4    2.765      45.464
2015    5       15     0  49    3.3042   571.1    2.768      45.428
2015    5       15     0  55    3.3035   570.8    2.770      45.391
2015    5       15     1   1    3.3027   570.4    2.772      45.355
2015    5       15     1   6    3.3020   570.1    2.774      45.318
2015    5       15     1  12    3.3013   569.8    2.776      45.281
2015    5       15     1  18    3.3006   569.5    2.778      45.244
2015    5       15     1  23    3.2999   569.1    2.780      45.207
2015    5       15     1  29    3.2992   568.8    2.782      45.169
2015    5       15     1  35    3.2985   568.5    2.785      45.132
2015    5       15     1  40    3.2978   568.2    2.787      45.094
2015    5       15     1  46    3.2971   567.8    2.789      45.055
2015    5       15     1  52    3.2964   567.5    2.791      45.017
2015    5       15     1  57    3.2957   567.2    2.793      44.978
2015    5       15     2   3    3.2950   566.9    2.795      44.938
2015    5       15     2   9    3.2943   566.5    2.797      44.899
2015    5       15     2  14    3.2937   566.2    2.799      44.859
2015    5       15     2  20    3.2930   565.9    2.801      44.819
2015    5       15     2  26    3.2923   565.5    2.803      44.778
2015    5       15     2  31    3.2917   565.2    2.805      44.737
2015    5       15     2  37    3.2911   564.9    2.807      44.696
2015    5       15     2  43    3.2904   564.5    2.809      44.655
2015    5       15     2  48    3.2898   564.2    2.811      44.614
2015    5       15     2  54    3.2892   563.9    2.813      44.572
2015    5       15     3   0    3.2886   563.5    2.815      44.530
2015    5       15     3   5    3.2880   563.2    2.817      44.488
2015    5       15     3  11    3.2875   562.9    2.819      44.447
2015    5       15     3  17    3.2869   562.5    2.821      44.405
2015    5       15     3  22    3.2864   562.2    2.824      44.363
2015    5       15     3  28    3.2858   561.8    2.826      44.321
2015    5       15     3  34    3.2853   561.5    2.828      44.279
2015    5       15     3  39    3.2848   561.2    2.830      44.237
2015    5       15     3  45    3.2843   560.8    2.832      44.196
2015    5       15     3  51    3.2838   560.5    2.835      44.154
2015    5       15     3  56    3.2833   560.2    2.837      44.113
2015    5       15     4   2    3.2828   559.8    2.839      44.072
2015    5       15     4   8    3.2824   559.5    2.842      44.031
2015    5       15     4  13    3.2819   559.2    2.844      43.990
2015    5       15     4  19    3.2815   558.9    2.846      43.950
2015    5       15     4  25    3.2811   558.5    2.849      43.910
2015    5       15     4  30    3.2807   558.2    2.851      43.871
2015    5       15     4  36    3.2803   557.9    2.854      43.832
2015    5       15     4  42    3.2799   557.5    2.856      43.793
2015    5       15     4  47    3.2795   557.2    2.859      43.754
2015    5       15     4  53    3.2792   556.9    2.861      43.716
2015    5       15     4  58    3.2788   556.6    2.864      43.678
2015    5       15     5   4    3.2784   556.3    2.867      43.641
2015    5       15     5  10    3.2781   555.9    2.869      43.604
2015    5       15     5  15    3.2777   555.6    2.872      43.567
2015    5       15     5  21    3.2774   555.3    2.875      43.531
2015    5       15     5  27    3.2770   555.0    2.877      43.495
2015    5       15     5  32    3.2767   554.7    2.880      43.459
2015    5       15     5  38    3.2763   554.4    2.883      43.423
2015    5       15     5  44    3.2759   554.0    2.886      43.388
2015    5       15     5  49    3.2756   553.7    2.888      43.353
2015    5       15     5  55    3.2752   553.4    2.891      43.318
2015    5       15     6   1    3.2748   553.1    2.894      43.283
2015    5       15     6   6    3.2744   552.8    2.897      43.248
2015    5       15     6  12    3.2740   552.5    2.900      43.213
2015    5       15     6  18    3.2735   552.2    2.902      43.178
2015    5       15     6  23    3.2731   551.9    2.905      43.143
2015    5       15     6  29    3.2727   551.6    2.908      43.108
2015    5       15     6  35    3.2722   551.3    2.911      43.073
2015    5       15     6  40    3.2718   551.0    2.913      43.038
2015    5       15     6  46    3.2713   550.7    2.916      43.003
2015    5       15     6  52    3.2708   550.3    2.919      42.968
2015    5       15     6  57    3.2704   550.0    2.921      42.933
2015    5       15     7   3    3.2699   549.7    2.924      42.898
2015    5       15     7   9    3.2694   549.4    2.926      42.862
2015    5       15     7  14    3.2689   549.1    2.929      42.827
2015    5       15     7  20    3.2685   548.8    2.932      42.791
2015    5       15     7  26    3.2680   548.5    2.934      42.755
2015    5       15     7  31    3.2675   548.2    2.937      42.719
2015    5       15     7  37    3.2670   547.9    2.939      42.683
2015    5       15     7  43    3.2665   547.6    2.941      42.647
2015    5       15     7  48    3.2661   547.3    2.944      42.611
2015    5       15     7  54    3.2656   547.0    2.946      42.574
2015    5       15     8   0    3.2651   546.7    2.949      42.538
2015    5       15     8   5    3.2646   546.4    2.951      42.501
2015    5       15     8  11    3.2641   546.1    2.953      42.464
2015    5       15     8  17    3.2637   545.7    2.955      42.427
2015    5       15     8  22    3.2632   545.4    2.958      42.390
2015    5       15     8  28    3.2627   545.1    2.960      42.353
2015    5       15     8  34    3.2623   544.8    2.962      42.316
2015    5       15     8  39    3.2618   544.5    2.964      42.278
2015    5       15     8  45    3.2614   544.2    2.967      42.241
2015    5       15     8  51    3.2609   543.9    2.969      42.203
2015    5       15     8  56    3.2605   543.6    2.971      42.166
2015    5       15     9   2    3.2600   543.3    2.973      42.128
2015    5       15     9   8    3.2596   543.0    2.975      42.090
2015    5       15     9  13    3.2592   542.7    2.977      42.053
2015    5       15     9  19    3.2588   542.4    2.980      42.015
2015    5       15     9  25    3.2584   542.1    2.982      41.977
2015    5       15     9  30    3.2580   541.8    2.984      41.940
2015    5       15     9  36    3.2575   541.5    2.986      41.902
2015    5       15     9  42    3.2572   541.2    2.988      41.864
2015    5       15     9  47    3.2568   540.9    2.991      41.827
2015    5       15     9  53    3.2564   540.6    2.993      41.789
2015    5       15     9  59    3.2560   540.3    2.995      41.752
2015    5       15    10   4    3.2557   540.0    2.997      41.715
2015    5       15    10  10    3.2553   539.7    3.000      41.678
2015    5       15    10  16    3.2550   539.4    3.002      41.642
2015    5       15    10  21    3.2547   539.1    3.005      41.605
2015    5       15    10  27    3.2544   538.8    3.007      41.569
2015    5       15    10  33    3.2540   538.5    3.010      41.533
2015    5       15    10  38    3.2538   538.1    3.012      41.498
2015    5       15    10  44    3.2535   537.8    3.015      41.462
2015    5       15    10  50    3.2532   537.5    3.018      41.427
2015    5       15    10  55    3.2529   537.2    3.020      41.393
2015    5       15    11   1    3.2527   536.9    3.023      41.358
2015    5       15    11   7    3.2524   536.6    3.026      41.324
2015    5       15    11  12    3.2522   536.3    3.029      41.290
2015    5       15    11  18    3.2520   536.0    3.032      41.256
2015    5       15    11  24    3.2518   535.7    3.035      41.223
2015    5       15    11  29    3.2516   535.5    3.038      41.189
2015    5       15    11  35    3.2514   535.2    3.041      41.156
2015    5       15    11  41    3.2512   534.9    3.044      41.123
2015    5       15    11  46    3.2510   534.6    3.047      41.090
2015    5       15    11  52    3.2508   534.3    3.050      41.056
2015    5       15    11  58    3.2506   534.0    3.053      41.023
2015    5       15    12   3    3.2504   533.7    3.056      40.990
2015    5       15    12   9    3.2503   533.4    3.059      40.957
2015    5       15    12  15    3.2501   533.1    3.062      40.924
2015    5       15    12  20    3.2499   532.8    3.065      40.891
2015    5       15    12  26    3.2497   532.5    3.068      40.857
2015    5       15    12  32    3.2495   532.2    3.071      40.823
2015    5       15    12  37    3.2493   531.9    3.074      40.789
2015    5       15    12  43    3.2491   531.6    3.077      40.755
2015    5       15    12  49    3.2489   531.3    3.080      40.721
2015    5       15    12  54    3.2487   531.0    3.083      40.686
2015    5       15    13   0    3.2485   530.7    3.086      40.651
2015    5       15    13   6    3.2483   530.4    3.089      40.616
2015    5       15    13  11    3.2481   530.1    3.092      40.580
2015    5       15    13  17    3.2479   529.9    3.095      40.544
2015    5       15    13  23    3.2476   529.6    3.098      40.508
2015    5       15    13  28    3.2474   529.3    3.100      40.472
2015    5       15    13  34    3.2472   529.0    3.103      40.436
2015    5       15    13  40    3.2470   528.7    3.106      40.400
2015    5       15    13  45    3.2468   528.4    3.108      40.363
2015    5       15    13  51    3.2466   528.1    3.111      40.327
2015    5       15    13  57    3.2463   527.8    3.114      40.290
2015    5       15    14   2    3.2461   527.5    3.116      40.253
2015    5       15    14   8    3.2459   527.2    3.119      40.216
2015    5       15    14  14    3.2457   526.9    3.122      40.179
2015    5       15    14  19    3.2455   526.6    3.124      40.142
2015    5       15    14  25    3.2454   526.3    3.127      40.105
2015    5       15    14  30    3.2452   526.0    3.129      40.068
2015    5       15    14  36    3.2450   525.7    3.132      40.032
2015    5       15    14  42    3.2448   525.4    3.135      39.995
2015    5       15    14  47    3.2447   525.1    3.137      39.958
2015    5       15    14  53    3.2445   524.9    3.140      39.922
2015    5       15    14  59    3.2444   524.6    3.143      39.886
2015    5       15    15   4    3.2442   524.3    3.145      39.850
2015    5       15    15  10    3.2441   524.0    3.148      39.814
2015    5       15    15  16    3.2439   523.7    3.150      39.778
2015    5       15    15  21    3.2438   523.4    3.153      39.743
2015    5       15    15  27    3.2437   523.1    3.156      39.708
2015    5       15    15  33    3.2436   522.8    3.159      39.673
2015    5       15    15  38    3.2435   522.5    3.161      39.639
2015    5       15    15  44    3.2434   522.2    3.164      39.605
2015    5       15    15  50    3.2433   521.9    3.167      39.571
2015    5       15    15  55    3.2432   521.6    3.170      39.537
2015    5       15    16   1    3.2431   521.3    3.173      39.504
2015    5       15    16   7    3.2431   521.1    3.176      39.471
2015    5       15    16  12    3.2430   520.8    3.179      39.439
2015    5       15    16  18    3.2429   520.5    3.182      39.407
2015    5       15    16  24    3.2428   520.2    3.185      39.375
2015    5       15    16  29    3.2427   519.9    3.188      39.343
2015    5       15    16  35    3.2426   519.6    3.191      39.312
2015    5       15    16  41    3.2425   519.3    3.194      39.281
2015    5       15    16  46    3.2424   519.0    3.197      39.249
2015    5       15    16  52    3.2422   518.7    3.200      39.219
2015    5       15    16  58    3.2421   518.5    3.204      39.188
2015    5       15    17   3    3.2420   518.2    3.207      39.157
2015    5       15    17   9    3.2418   517.9    3.210      39.126
2015    5       15    17  15    3.2416   517.6    3.213      39.095
2015    5       15    17  20    3.2415   517.3    3.216      39.065
2015    5       15    17  26    3.2413   517.0    3.219      39.034
2015    5       15    17  32    3.2412   516.7    3.222      39.003
2015    5       15    17  37    3.2410   516.4    3.226      38.972
2015    5       15    17  43    3.2408   516.2    3.229      38.941
2015    5       15    17  49    3.2406   515.9    3.232      38.910
2015    5       15    17  54    3.2405   515.6    3.235      38.879
2015    5       15    18   0    3.2403   515.3    3.238      38.847
2015    5       15    18   6    3.2401   515.0    3.241      38.816
2015    5       15    18  11    3.2399   514.7    3.244      38.785
2015    5       15    18  17    3.2397   514.4    3.247      38.753
2015    5       15    18  23    3.2395   514.1    3.250      38.721
2015    5       15    18  28    3.2393   513.9    3.253      38.690
2015    5       15    18  34    3.2392   513.6    3.256      38.658
2015    5       15    18  40    3.2390   513.3    3.259      38.626
2015    5       15    18  45    3.2388   513.0    3.262      38.594
2015    5       15    18  51    3.2386   512.7    3.264      38.562
2015    5       15    18  57    3.2384   512.4    3.267      38.530
2015    5       15    19   2    3.2382   512.1    3.270      38.498
2015    5       15    19   8    3.2381   511.9    3.273      38.465
2015    5       15    19  14    3.2379   511.6    3.276      38.433
2015    5       15    19  19    3.2377   511.3    3.279      38.401
2015    5       15    19  25    3.2375   511.0    3.282      38.368
2015    5       15    19  31    3.2374   510.7    3.284      38.336
2015    5       15    19  36    3.2372   510.4    3.287      38.303
2015    5       15    19  42    3.2370   510.1    3.290      38.271
2015    5       15    19  48    3.2369   509.9    3.293      38.238
2015    5       15    19  53    3.2367   509.6    3.296      38.205
2015    5       15    19  59    3.2366   509.3    3.298      38.173
2015    5       15    20   5    3.2364   509.0    3.301      38.140
2015    5       15    20  10    3.2363   508.7    3.304      38.108
2015    5       15    20  16    3.2362   508.4    3.307      38.075
2015    5       15    20  22    3.2360   508.2    3.310      38.042
2015    5       15    20  27    3.2359   507.9    3.313      38.010
2015    5       15    20  33    3.2358   507.6    3.315      37.978
2015    5       15    20  39    3.2357   507.3    3.318      37.946
2015    5       15    20  44    3.2355   507.0    3.321      37.913
2015    5       15    20  50    3.2355   506.7    3.324      37.881
2015    5       15    20  56    3.2353   506.5    3.327      37.849
2015    5       15    21   1    3.2353   506.2    3.330      37.818
2015    5       15    21   7    3.2352   505.9    3.333      37.786
2015    5       15    21  13    3.2351   505.6    3.336      37.755
2015    5       15    21  18    3.2350   505.3    3.339      37.724
2015    5       15    21  24    3.2350   505.0    3.342      37.693
2015    5       15    21  30    3.2349   504.8    3.345      37.662
2015    5       15    21  35    3.2349   504.5    3.348      37.631
2015    5       15    21  41    3.2348   504.2    3.351      37.601
2015    5       15    21  47    3.2348   503.9    3.354      37.570
2015    5       15    21  52    3.2348   503.6    3.357      37.540
2015    5       15    21  58    3.2347   503.4    3.361      37.510
2015    5       15    22   4    3.2347   503.1    3.364      37.481
2015    5       15    22   9    3.2347   502.8    3.367      37.451
2015    5       15    22  15    3.2347   502.5    3.370      37.422
2015    5       15    22  21    3.2347   502.2    3.373      37.392
2015    5       15    22  26    3.2347   502.0    3.377      37.363
2015    5       15    22  32    3.2347   501.7    3.380      37.334
2015    5       15    22  38    3.2347   501.4    3.383      37.305
2015    5       15    22  43    3.2347   501.1    3.386      37.276
2015    5       15    22  49    3.2347   500.8    3.389      37.246
2015    5       15    22  55    3.2347   500.6    3.393      37.217
2015    5       15    23   0    3.2347   500.3    3.396      37.188
2015    5       15    23   6    3.2347   500.0    3.399      37.159
2015    5       15    23  12    3.2347   499.7    3.402      37.130
2015    5       15    23  17    3.2347   499.4    3.406      37.101
2015    5       15    23  23    3.2347   499.2    3.409      37.071
2015    5       15    23  28    3.2347   498.9    3.412      37.042
2015    5       15    23  34    3.2347   498.6    3.415      37.013
2015    5       15    23  40    3.2347   498.3    3.418      36.983
2015    5       15    23  45    3.2347   498.1    3.421      36.953
2015    5       15    23  51    3.2347   497.8    3.424      36.924
2015    5       15    23  57    3.2347   497.5    3.427      36.894
2015    5       16     0   2    3.2348   497.2    3.431      36.864
2015    5       16     0   8    3.2348   496.9    3.434      36.834
2015    5       16     0  14    3.2348   496.7    3.437      36.804
2015    5       16     0  19    3.2348   496.4    3.440      36.774
2015    5       16     0  25    3.2348   496.1    3.443      36.743
2015    5       16     0  31    3.2348   495.8    3.446      36.713
2015    5       16     0  36    3.2349   495.6    3.449      36.683
2015    5       16     0  42    3.2349   495.3    3.452      36.652
2015    5       16     0  48    3.2349   495.0    3.455      36.622
2015    5       16     0  53    3.2350   494.7    3.458      36.592
2015    5       16     0  59    3.2350   494.5    3.461      36.561
2015    5       16     1   5    3.2351   494.2    3.464      36.531
2015    5       16     1  10    3.2351   493.9    3.467      36.500
2015    5       16     1  16    3.2352   493.6    3.470      36.470
2015    5       16     1  22    3.2353   493.4    3.473      36.440
2015    5       16     1  27    3.2353   493.1    3.476      36.410
2015    5       16     1  33    3.2354   492.8    3.479      36.379
2015    5       16     1  39    3.2355   492.5    3.482      36.349
2015    5       16     1  44    3.2356   492.3    3.486      36.319
2015    5       16     1  50    3.2357   492.0    3.489      36.289
2015    5       16     1  56    3.2358   491.7    3.492      36.259
2015    5       16     2   1    3.2359   491.4    3.495      36.229
2015    5       16     2   7    3.2360   491.2    3.498      36.200
2015    5       16     2  13    3.2362   490.9    3.502      36.170
2015    5       16     2  18    3.2363   490.6    3.505      36.141
2015    5       16     2  24    3.2364   490.3    3.508      36.111
2015    5       16     2  30    3.2366   490.1    3.512      36.082
2015    5       16     2  35    3.2367   489.8    3.515      36.053
2015    5       16     2  41    3.2369   489.5    3.518      36.024
2015    5       16     2  47    3.2370   489.3    3.522      35.995
2015    5       16     2  52    3.2372   489.0    3.525      35.966
2015    5       16     2  58    3.2374   488.7    3.529      35.937
2015    5       16     3   4    3.2376   488.4    3.532      35.909
2015    5       16     3   9    3.2377   488.2    3.536      35.880
2015    5       16     3  15    3.2379   487.9    3.540      35.852
2015    5       16     3  21    3.2381   487.6    3.543      35.824
2015    5       16     3  26    3.2383   487.4    3.547      35.796
2015    5       16     3  32    3.2385   487.1    3.550      35.768
2015    5       16     3  38    3.2387   486.8    3.554      35.740
2015    5       16     3  43    3.2389   486.6    3.558      35.712
2015    5       16     3  49    3.2391   486.3    3.562      35.684
2015    5       16     3  55    3.2393   486.0    3.565      35.657
2015    5       16     4   0    3.2395   485.8    3.569      35.630
2015    5       16     4   6    3.2397   485.5    3.573      35.602
2015    5       16     4  12    3.2400   485.2    3.577      35.575
2015    5       16     4  17    3.2402   484.9    3.580      35.548
2015    5       16     4  23    3.2404   484.7    3.584      35.521
2015    5       16     4  29    3.2407   484.4    3.588      35.495
2015    5       16     4  34    3.2409   484.1    3.592      35.468
2015    5       16     4  40    3.2411   483.9    3.596      35.441
2015    5       16     4  46    3.2414   483.6    3.600      35.415
2015    5       16     4  51    3.2416   483.3    3.604      35.388
2015    5       16     4  57    3.2419   483.1    3.608      35.362
2015    5       16     5   3    3.2421   482.8    3.611      35.336
2015    5       16     5   8    3.2424   482.6    3.615      35.309
2015    5       16     5  14    3.2426   482.3    3.619      35.283
2015    5       16     5  20    3.2429   482.0    3.623      35.257
2015    5       16     5  25    3.2432   481.8    3.627      35.231
2015    5       16     5  31    3.2434   481.5    3.631      35.205
2015    5       16     5  37    3.2437   481.2    3.635      35.178
2015    5       16     5  42    3.2439   481.0    3.639      35.152
2015    5       16     5  48    3.2442   480.7    3.642      35.126
2015    5       16     5  54    3.2445   480.4    3.646      35.099
2015    5       16     5  59    3.2447   480.2    3.650      35.073
2015    5       16     6   5    3.2450   479.9    3.654      35.047
2015    5       16     6  11    3.2452   479.7    3.658      35.020
2015    5       16     6  16    3.2455   479.4    3.662      34.993
2015    5       16     6  22    3.2457   479.1    3.665      34.967
2015    5       16     6  28    3.2460   478.9    3.669      34.940
2015    5       16     6  33    3.2463   478.6    3.673      34.913
2015    5       16     6  39    3.2465   478.3    3.676      34.886
2015    5       16     6  45    3.2468   478.1    3.680      34.858
2015    5       16     6  50    3.2470   477.8    3.684      34.831
2015    5       16     6  56    3.2473   477.5    3.687      34.804
2015    5       16     7   2    3.2476   477.3    3.691      34.776
2015    5       16     7   7    3.2478   477.0    3.695      34.748
2015    5       16     7  13    3.2481   476.7    3.698      34.721
2015    5       16     7  19    3.2484   476.5    3.702      34.693
2015    5       16     7  24    3.2487   476.2    3.706      34.665
2015    5       16     7  30    3.2490   475.9    3.709      34.637
2015    5       16     7  36    3.2493   475.7    3.713      34.609
2015    5       16     7  41    3.2496   475.4    3.716      34.581
2015    5       16     7  47    3.2499   475.2    3.720      34.553
2015    5       16     7  53    3.2502   474.9    3.723      34.525
2015    5       16     7  58    3.2505   474.6    3.727      34.496
2015    5       16     8   4    3.2508   474.4    3.731      34.468
2015    5       16     8  10    3.2511   474.1    3.734      34.440
2015    5       16     8  15    3.2515   473.8    3.738      34.412
2015    5       16     8  21    3.2518   473.6    3.741      34.383
2015    5       16     8  27    3.2522   473.3    3.745      34.355
2015    5       16     8  32    3.2525   473.0    3.748      34.327
2015    5       16     8  38    3.2529   472.8    3.752      34.299
2015    5       16     8  44    3.2533   472.5    3.756      34.271
2015    5       16     8  49    3.2537   472.2    3.759      34.243
2015    5       16     8  55    3.2541   472.0    3.763      34.215
2015    5       16     9   1    3.2545   471.7    3.767      34.187
2015    5       16     9   6    3.2549   471.4    3.771      34.159
2015    5       16     9  12    3.2553   471.2    3.774      34.131
2015    5       16     9  18    3.2558   470.9    3.778      34.103
2015    5       16     9  23    3.2562   470.6    3.782      34.076
2015    5       16     9  29    3.2567   470.4    3.786      34.048
2015    5       16     9  35    3.2572   470.1    3.790      34.021
2015    5       16     9  40    3.2577   469.8    3.794      33.994
2015    5       16     9  46    3.2582   469.6    3.798      33.967
2015    5       16     9  52    3.2587   469.3    3.802      33.940
2015    5       16     9  57    3.2592   469.0    3.806      33.913
2015    5       16    10   3    3.2597   468.8    3.810      33.886
2015    5       16    10   9    3.2602   468.5    3.814      33.859
2015    5       16    10  14    3.2608   468.2    3.818      33.833
2015    5       16    10  20    3.2613   468.0    3.822      33.806
2015    5       16    10  26    3.2619   467.7    3.826      33.780
2015    5       16    10  31    3.2625   467.5    3.830      33.754
2015    5       16    10  37    3.2631   467.2    3.835      33.728
2015    5       16    10  43    3.2637   466.9    3.839      33.702
2015    5       16    10  48    3.2643   466.7    3.843      33.676
2015    5       16    10  54    3.2649   466.4    3.848      33.650
2015    5       16    10  59    3.2655   466.1    3.852      33.625
2015    5       16    11   5    3.2662   465.9    3.857      33.600
2015    5       16    11  11    3.2668   465.6    3.861      33.574
2015    5       16    11  16    3.2675   465.4    3.866      33.549
2015    5       16    11  22    3.2681   465.1    3.870      33.525
2015    5       16    11  28    3.2688   464.8    3.875      33.500
2015    5       16    11  33    3.2695   464.6    3.879      33.475
2015    5       16    11  39    3.2702   464.3    3.884      33.451
2015    5       16    11  45    3.2709   464.1    3.889      33.426
2015    5       16    11  50    3.2717   463.8    3.893      33.402
2015    5       16    11  56    3.2724   463.6    3.898      33.378
2015    5       16    12   2    3.2731   463.3    3.903      33.354
2015    5       16    12   7    3.2739   463.0    3.908      33.331
2015    5       16    12  13    3.2746   462.8    3.913      33.307
2015    5       16    12  19    3.2754   462.5    3.917      33.284
2015    5       16    12  24    3.2761   462.3    3.922      33.260
2015    5       16    12  30    3.2769   462.0    3.927      33.237
2015    5       16    12  36    3.2777   461.8    3.932      33.214
2015    5       16    12  41    3.2785   461.5    3.937      33.191
2015    5       16    12  47    3.2793   461.2    3.942      33.168
2015    5       16    12  53    3.2801   461.0    3.947      33.145
2015    5       16    12  58    3.2809   460.7    3.952      33.123
2015    5       16    13   4    3.2818   460.5    3.957      33.100
2015    5       16    13  10    3.2826   460.2    3.962      33.078
2015    5       16    13  15    3.2834   460.0    3.967      33.055
2015    5       16    13  21    3.2843   459.7    3.972      33.033
2015    5       16    13  27    3.2851   459.5    3.977      33.010
2015    5       16    13  32    3.2859   459.2    3.982      32.988
2015    5       16    13  38    3.2868   459.0    3.987      32.966
2015    5       16    13  44    3.2876   458.7    3.992      32.943
2015    5       16    13  49    3.2885   458.5    3.997      32.921
2015    5       16    13  55    3.2894   458.2    4.002      32.899
2015    5       16    14   1    3.2902   458.0    4.007      32.876
2015    5       16    14   6    3.2911   457.7    4.012      32.854
2015    5       16    14  12    3.2920   457.5    4.017      32.832
2015    5       16    14  18    3.2929   457.2    4.022      32.809
2015    5       16    14  23    3.2937   457.0    4.027      32.787
2015    5       16    14  29    3.2946   456.7    4.032      32.764
2015    5       16    14  35    3.2955   456.5    4.037      32.741
2015    5       16    14  40    3.2963   456.2    4.042      32.719
2015    5       16    14  46    3.2972   456.0    4.047      32.696
2015    5       16    14  52    3.2981   455.7    4.052      32.673
2015    5       16    14  57    3.2990   455.5    4.057      32.650
2015    5       16    15   3    3.2999   455.2    4.061      32.626
2015    5       16    15   9    3.3007   455.0    4.066      32.603
2015    5       16    15  14    3.3016   454.7    4.071      32.579
2015    5       16    15  20    3.3025   454.5    4.076      32.556
2015    5       16    15  26    3.3033   454.2    4.080      32.532
2015    5       16    15  31    3.3042   454.0    4.085      32.508
2015    5       16    15  37    3.3051   453.7    4.090      32.484
2015    5       16    15  43    3.3060   453.5    4.095      32.459
2015    5       16    15  48    3.3068   453.2    4.099      32.435
2015    5       16    15  54    3.3077   453.0    4.104      32.411
2015    5       16    16   0    3.3086   452.7    4.108      32.386
2015    5       16    16   5    3.3095   452.5    4.113      32.361
2015    5       16    16  11    3.3104   452.2    4.118      32.336
2015    5       16    16  17    3.3113   452.0    4.122      32.312
2015    5       16    16  22    3.3122   451.7    4.127      32.286
2015    5       16    16  28    3.3131   451.4    4.131      32.261
2015    5       16    16  34    3.3141   451.2    4.136      32.236
2015    5       16    16  39    3.3150   450.9    4.141      32.211
2015    5       16    16  45    3.3159   450.7    4.145      32.186
2015    5       16    16  51    3.3169   450.4    4.150      32.160
2015    5       16    16  56    3.3178   450.2    4.155      32.135
2015    5       16    17   2    3.3188   449.9    4.160      32.110
2015    5       16    17   8    3.3198   449.7    4.164      32.085
2015    5       16    17  13    3.3208   449.4    4.169      32.059
2015    5       16    17  19    3.3218   449.2    4.174      32.034
2015    5       16    17  25    3.3228   448.9    4.179      32.009
2015    5       16    17  30    3.3238   448.7    4.184      31.985
2015    5       16    17  36    3.3249   448.4    4.189      31.960
2015    5       16    17  42    3.3260   448.2    4.194      31.935
2015    5       16    17  47    3.3270   447.9    4.199      31.911
2015    5       16    17  53    3.3281   447.7    4.204      31.886
2015    5       16    17  59    3.3292   447.4    4.210      31.862
2015    5       16    18   4    3.3303   447.2    4.215      31.838
2015    5       16    18  10    3.3315   446.9    4.220      31.815
2015    5       16    18  16    3.3326   446.6    4.226      31.791
2015    5       16    18  21    3.3338   446.4    4.232      31.768
2015    5       16    18  27    3.3350   446.1    4.237      31.745
2015    5       16    18  33    3.3362   445.9    4.243      31.722
2015    5       16    18  38    3.3374   445.6    4.249      31.700
2015    5       16    18  44    3.3387   445.4    4.255      31.678
2015    5       16    18  50    3.3399   445.1    4.261      31.656
2015    5       16    18  55    3.3412   444.9    4.267      31.634
2015    5       16    19   1    3.3425   444.6    4.273      31.613
2015    5       16    19   7    3.3438   444.4    4.279      31.592
2015    5       16    19  12    3.3451   444.1    4.285      31.571
2015    5       16    19  18    3.3464   443.9    4.292      31.550
2015    5       16    19  24    3.3478   443.7    4.298      31.530
2015    5       16    19  29    3.3491   443.4    4.305      31.510
2015    5       16    19  35    3.3505   443.2    4.311      31.491
2015    5       16    19  41    3.3519   442.9    4.318      31.471
2015    5       16    19  46    3.3533   442.7    4.325      31.452
2015    5       16    19  52    3.3548   442.4    4.331      31.433
2015    5       16    19  58    3.3562   442.2    4.338      31.414
2015    5       16    20   3    3.3577   441.9    4.345      31.396
2015    5       16    20   9    3.3591   441.7    4.352      31.378
2015    5       16    20  15    3.3606   441.4    4.359      31.360
2015    5       16    20  20    3.3621   441.2    4.366      31.342
2015    5       16    20  26    3.3636   440.9    4.373      31.325
2015    5       16    20  32    3.3651   440.7    4.380      31.307
2015    5       16    20  37    3.3667   440.5    4.387      31.290
2015    5       16    20  43    3.3682   440.2    4.395      31.273
2015    5       16    20  49    3.3698   440.0    4.402      31.257
2015    5       16    20  54    3.3714   439.7    4.409      31.240
2015    5       16    21   0    3.3729   439.5    4.416      31.224
2015    5       16    21   6    3.3746   439.2    4.424      31.208
2015    5       16    21  11    3.3762   439.0    4.431      31.192
2015    5       16    21  17    3.3778   438.8    4.438      31.176
2015    5       16    21  23    3.3794   438.5    4.446      31.160
2015    5       16    21  28    3.3811   438.3    4.453      31.145
2015    5       16    21  34    3.3827   438.1    4.461      31.129
2015    5       16    21  40    3.3844   437.8    4.468      31.114
2015    5       16    21  45    3.3861   437.6    4.475      31.099
2015    5       16    21  51    3.3877   437.3    4.483      31.083
2015    5       16    21  56    3.3894   437.1    4.490      31.068
2015    5       16    22   2    3.3911   436.9    4.498      31.053
2015    5       16    22   8    3.3928   436.6    4.505      31.038
2015    5       16    22  13    3.3946   436.4    4.512      31.023
2015    5       16    22  19    3.3963   436.2    4.520      31.009
2015    5       16    22  25    3.3980   435.9    4.527      30.994
2015    5       16    22  30    3.3997   435.7    4.534      30.979
2015    5       16    22  36    3.4015   435.5    4.542      30.964
2015    5       16    22  42    3.4032   435.2    4.549      30.949
2015    5       16    22  47    3.4049   435.0    4.556      30.934
2015    5       16    22  53    3.4067   434.8    4.564      30.919
2015    5       16    22  59    3.4084   434.6    4.571      30.904
2015    5       16    23   4    3.4102   434.3    4.578      30.889
2015    5       16    23  10    3.4120   434.1    4.585      30.873
2015    5       16    23  16    3.4137   433.9    4.593      30.858
2015    5       16    23  21    3.4155   433.6    4.600      30.843
2015    5       16    23  27    3.4173   433.4    4.607      30.827
2015    5       16    23  33    3.4191   433.2    4.614      30.812
2015    5       16    23  38    3.4209   432.9    4.621      30.796
2015    5       16    23  44    3.4227   432.7    4.628      30.780
2015    5       16    23  50    3.4245   432.5    4.635      30.765
2015    5       16    23  55    3.4263   432.3    4.642      30.749
2015    5       17     0   1    3.4281   432.0    4.649      30.733
2015    5       17     0   7    3.4300   431.8    4.657      30.717
2015    5       17     0  12    3.4318   431.6    4.664      30.701
2015    5       17     0  18    3.4337   431.4    4.671      30.684
2015    5       17     0  24    3.4356   431.1    4.678      30.668
2015    5       17     0  29    3.4375   430.9    4.685      30.652
2015    5       17     0  35    3.4394   430.7    4.692      30.636
2015    5       17     0  41    3.4413   430.5    4.699      30.619
2015    5       17     0  46    3.4432   430.2    4.706      30.603
2015    5       17     0  52    3.4451   430.0    4.713      30.586
2015    5       17     0  58    3.4471   429.8    4.720      30.570
2015    5       17     1   3    3.4490   429.5    4.728      30.554
2015    5       17     1   9    3.4510   429.3    4.735      30.537
2015    5       17     1  15    3.4530   429.1    4.742      30.521
2015    5       17     1  20    3.4550   428.9    4.749      30.505
2015    5       17     1  26    3.4571   428.7    4.757      30.488
2015    5       17     1  32    3.4591   428.4    4.764      30.472
2015    5       17     1  37    3.4612   428.2    4.771      30.456
2015    5       17     1  43    3.4633   428.0    4.779      30.440
2015    5       17     1  49    3.4654   427.8    4.786      30.424
2015    5       17     1  54    3.4676   427.5    4.794      30.409
2015    5       17     2   0    3.4697   427.3    4.802      30.393
2015    5       17     2   6    3.4719   427.1    4.809      30.378
2015    5       17     2  11    3.4741   426.9    4.817      30.362
2015    5       17     2  17    3.4763   426.6    4.825      30.347
2015    5       17     2  23    3.4785   426.4    4.833      30.332
2015    5       17     2  28    3.4808   426.2    4.841      30.317
2015    5       17     2  34    3.4830   426.0    4.849      30.303
2015    5       17     2  40    3.4853   425.8    4.857      30.288
2015    5       17     2  45    3.4877   425.6    4.865      30.274
2015    5       17     2  51    3.4900   425.3    4.874      30.260
2015    5       17     2  57    3.4924   425.1    4.882      30.247
2015    5       17     3   2    3.4947   424.9    4.890      30.233
2015    5       17     3   8    3.4971   424.7    4.899      30.220
2015    5       17     3  14    3.4996   424.5    4.907      30.206
2015    5       17     3  19    3.5020   424.3    4.916      30.194
2015    5       17     3  25    3.5044   424.0    4.924      30.181
2015    5       17     3  31    3.5069   423.8    4.933      30.168
2015    5       17     3  36    3.5094   423.6    4.942      30.156
2015    5       17     3  42    3.5119   423.4    4.951      30.144
2015    5       17     3  48    3.5145   423.2    4.960      30.132
2015    5       17     3  53    3.5170   423.0    4.969      30.121
2015    5       17     3  59    3.5196   422.8    4.978      30.109
2015    5       17     4   5    3.5221   422.6    4.987      30.098
2015    5       17     4  10    3.5247   422.4    4.996      30.087
2015    5       17     4  16    3.5274   422.1    5.005      30.076
2015    5       17     4  22    3.5300   421.9    5.014      30.065
2015    5       17     4  27    3.5326   421.7    5.024      30.055
2015    5       17     4  33    3.5353   421.5    5.033      30.044
2015    5       17     4  39    3.5379   421.3    5.042      30.034
2015    5       17     4  44    3.5406   421.1    5.052      30.024
2015    5       17     4  50    3.5434   420.9    5.061      30.015
2015    5       17     4  56    3.5461   420.7    5.071      30.005
2015    5       17     5   1    3.5488   420.5    5.080      29.995
2015    5       17     5   7    3.5516   420.3    5.090      29.986
2015    5       17     5  13    3.5543   420.1    5.099      29.977
2015    5       17     5  18    3.5571   419.9    5.109      29.968
2015    5       17     5  24    3.5599   419.7    5.118      29.959
2015    5       17     5  30    3.5627   419.5    5.128      29.950
2015    5       17     5  35    3.5655   419.3    5.138      29.942
2015    5       17     5  41    3.5683   419.1    5.147      29.933
2015    5       17     5  47    3.5711   418.9    5.157      29.925
2015    5       17     5  52    3.5740   418.7    5.167      29.917
2015    5       17     5  58    3.5769   418.5    5.177      29.909
2015    5       17     6   4    3.5798   418.3    5.187      29.901
2015    5       17     6   9    3.5827   418.1    5.196      29.893
2015    5       17     6  15    3.5856   417.9    5.206      29.885
2015    5       17     6  21    3.5885   417.7    5.216      29.878
2015    5       17     6  26    3.5914   417.5    5.226      29.870
2015    5       17     6  32    3.5944   417.3    5.236      29.863
2015    5       17     6  38    3.5974   417.1    5.246      29.856
2015    5       17     6  43    3.6003   416.9    5.256      29.849
2015    5       17     6  49    3.6033   416.7    5.266      29.842
2015    5       17     6  55    3.6063   416.5    5.276      29.835
2015    5       17     7   0    3.6094   416.4    5.286      29.828
2015    5       17     7   6    3.6124   416.2    5.296      29.821
2015    5       17     7  12    3.6155   416.0    5.306      29.814
2015    5       17     7  17    3.6185   415.8    5.316      29.808
2015    5       17     7  23    3.6216   415.6    5.326      29.802
2015    5       17     7  29    3.6247   415.4    5.336      29.795
2015    5       17     7  34    3.6278   415.2    5.346      29.789
2015    5       17     7  40    3.6310   415.0    5.356      29.783
2015    5       17     7  46    3.6341   414.8    5.367      29.777
2015    5       17     7  51    3.6373   414.6    5.377      29.771
2015    5       17     7  57    3.6405   414.5    5.387      29.765
2015    5       17     8   3    3.6437   414.3    5.397      29.760
2015    5       17     8   8    3.6469   414.1    5.408      29.755
2015    5       17     8  14    3.6501   413.9    5.418      29.749
2015    5       17     8  20    3.6534   413.7    5.429      29.744
2015    5       17     8  25    3.6567   413.5    5.439      29.739
2015    5       17     8  31    3.6600   413.3    5.450      29.734
2015    5       17     8  37    3.6633   413.2    5.460      29.729
2015    5       17     8  42    3.6666   413.0    5.471      29.725
2015    5       17     8  48    3.6700   412.8    5.481      29.721
2015    5       17     8  54    3.6734   412.6    5.492      29.716
2015    5       17     8  59    3.6768   412.4    5.503      29.712
2015    5       17     9   5    3.6802   412.3    5.513      29.709
2015    5       17     9  11    3.6837   412.1    5.524      29.705
2015    5       17     9  16    3.6871   411.9    5.535      29.702
2015    5       17     9  22    3.6906   411.7    5.546      29.698
2015    5       17     9  27    3.6941   411.6    5.557      29.695
2015    5       17     9  33    3.6976   411.4    5.568      29.693
2015    5       17     9  39    3.7012   411.2    5.579      29.690
2015    5       17     9  44    3.7048   411.0    5.590      29.688
2015    5       17     9  50    3.7084   410.9    5.602      29.686
2015    5       17     9  56    3.7120   410.7    5.613      29.684
2015    5       17    10   1    3.7156   410.5    5.624      29.683
2015    5       17    10   7    3.7193   410.3    5.636      29.681
2015    5       17    10  13    3.7230   410.2    5.647      29.680
2015    5       17    10  18    3.7266   410.0    5.658      29.679
2015    5       17    10  24    3.7304   409.8    5.670      29.679
2015    5       17    10  30    3.7341   409.7    5.681      29.678
2015    5       17    10  35    3.7378   409.5    5.693      29.678
2015    5       17    10  41    3.7416   409.4    5.705      29.678
2015    5       17    10  47    3.7454   409.2    5.716      29.678
2015    5       17    10  52    3.7492   409.0    5.728      29.679
2015    5       17    10  58    3.7530   408.9    5.740      29.680
2015    5       17    11   4    3.7568   408.7    5.752      29.680
2015    5       17    11   9    3.7607   408.6    5.763      29.681
2015    5       17    11  15    3.7645   408.4    5.775      29.683
2015    5       17    11  21    3.7684   408.2    5.787      29.684
2015    5       17    11  26    3.7723   408.1    5.799      29.686
2015    5       17    11  32    3.7762   407.9    5.811      29.688
2015    5       17    11  38    3.7801   407.8    5.823      29.690
2015    5       17    11  43    3.7841   407.6    5.835      29.692
2015    5       17    11  49    3.7880   407.5    5.847      29.695
2015    5       17    11  55    3.7920   407.3    5.859      29.698
2015    5       17    12   0    3.7959   407.2    5.871      29.700
2015    5       17    12   6    3.7999   407.0    5.883      29.703
2015    5       17    12  12    3.8040   406.9    5.896      29.707
2015    5       17    12  17    3.8080   406.7    5.908      29.710
2015    5       17    12  23    3.8120   406.6    5.920      29.714
2015    5       17    12  29    3.8161   406.5    5.932      29.718
2015    5       17    12  34    3.8202   406.3    5.944      29.722
2015    5       17    12  40    3.8243   406.2    5.957      29.727
2015    5       17    12  46    3.8284   406.0    5.969      29.731
2015    5       17    12  51    3.8325   405.9    5.981      29.736
2015    5       17    12  57    3.8367   405.7    5.993      29.741
2015    5       17    13   3    3.8408   405.6    6.006      29.746
2015    5       17    13   8    3.8450   405.5    6.018      29.752
2015    5       17    13  14    3.8492   405.3    6.030      29.758
2015    5       17    13  20    3.8534   405.2    6.043      29.764
2015    5       17    13  25    3.8577   405.1    6.055      29.770
2015    5       17    13  31    3.8619   404.9    6.067      29.777
2015    5       17    13  37    3.8662   404.8    6.079      29.784
2015    5       17    13  42    3.8704   404.7    6.092      29.791
2015    5       17    13  48    3.8747   404.5    6.104      29.798
2015    5       17    13  54    3.8790   404.4    6.116      29.806
2015    5       17    13  59    3.8834   404.3    6.129      29.814
2015    5       17    14   5    3.8877   404.1    6.141      29.822
2015    5       17    14  11    3.8921   404.0    6.153      29.831
2015    5       17    14  16    3.8965   403.9    6.166      29.840
2015    5       17    14  22    3.9009   403.7    6.178      29.849
2015    5       17    14  28    3.9053   403.6    6.190      29.858
2015    5       17    14  33    3.9097   403.5    6.203      29.867
2015    5       17    14  39    3.9141   403.4    6.215      29.877
2015    5       17    14  45    3.9186   403.2    6.228      29.887
2015    5       17    14  50    3.9231   403.1    6.240      29.897
2015    5       17    14  56    3.9276   403.0    6.252      29.908
2015    5       17    15   2    3.9321   402.9    6.265      29.918
2015    5       17    15   7    3.9366   402.7    6.277      29.929
2015    5       17    15  13    3.9412   402.6    6.290      29.940
2015    5       17    15  19    3.9457   402.5    6.302      29.952
2015    5       17    15  24    3.9503   402.4    6.314      29.963
2015    5       17    15  30    3.9549   402.2    6.327      29.975
2015    5       17    15  36    3.9595   402.1    6.339      29.987
2015    5       17    15  41    3.9642   402.0    6.352      29.999
2015    5       17    15  47    3.9688   401.9    6.364      30.011
2015    5       17    15  53    3.9735   401.8    6.377      30.024
2015    5       17    15  58    3.9782   401.7    6.389      30.037
2015    5       17    16   4    3.9829   401.5    6.402      30.050
2015    5       17    16  10    3.9876   401.4    6.415      30.063
2015    5       17    16  15    3.9924   401.3    6.427      30.076
2015    5       17    16  21    3.9972   401.2    6.440      30.090
2015    5       17    16  27    4.0020   401.1    6.453      30.104
2015    5       17    16  32    4.0068   401.0    6.465      30.117
2015    5       17    16  38    4.0116   400.9    6.478      30.132
2015    5       17    16  44    4.0164   400.7    6.491      30.146
2015    5       17    16  49    4.0213   400.6    6.504      30.160
2015    5       17    16  55    4.0262   400.5    6.517      30.175
2015    5       17    17   1    4.0311   400.4    6.530      30.190
2015    5       17    17   6    4.0360   400.3    6.543      30.205
2015    5       17    17  12    4.0409   400.2    6.556      30.220
2015    5       17    17  18    4.0459   400.1    6.569      30.236
2015    5       17    17  23    4.0508   400.0    6.582      30.251
2015    5       17    17  29    4.0558   399.9    6.595      30.267
2015    5       17    17  35    4.0608   399.8    6.608      30.283
2015    5       17    17  40    4.0658   399.7    6.621      30.299
2015    5       17    17  46    4.0708   399.6    6.635      30.315
2015    5       17    17  52    4.0758   399.5    6.648      30.332
2015    5       17    17  57    4.0809   399.4    6.661      30.348
2015    5       17    18   3    4.0859   399.3    6.675      30.365
2015    5       17    18   9    4.0910   399.2    6.688      30.381
2015    5       17    18  14    4.0960   399.1    6.701      30.398
2015    5       17    18  20    4.1011   399.0    6.715      30.416
2015    5       17    18  26    4.1062   398.9    6.728      30.433
2015    5       17    18  31    4.1113   398.8    6.742      30.450
2015    5       17    18  37    4.1164   398.8    6.756      30.468
2015    5       17    18  43    4.1216   398.7    6.769      30.485
2015    5       17    18  48    4.1267   398.6    6.783      30.503
2015    5       17    18  54    4.1319   398.5    6.797      30.521
2015    5       17    19   0    4.1370   398.4    6.810      30.538
2015    5       17    19   5    4.1422   398.3    6.824      30.557
2015    5       17    19  11    4.1474   398.2    6.838      30.575
2015    5       17    19  17    4.1527   398.1    6.852      30.594
2015    5       17    19  22    4.1579   398.1    6.866      30.612
2015    5       17    19  28    4.1632   398.0    6.881      30.631
2015    5       17    19  34    4.1685   397.9    6.895      30.650
2015    5       17    19  39    4.1739   397.8    6.909      30.669
2015    5       17    19  45    4.1792   397.7    6.924      30.689
2015    5       17    19  51    4.1846   397.7    6.938      30.709
2015    5       17    19  56    4.1900   397.6    6.953      30.730
2015    5       17    20   2    4.1955   397.5    6.967      30.752
2015    5       17    20   8    4.2009   397.4    6.982      30.774
2015    5       17    20  13    4.2063   397.4    6.996      30.798
2015    5       17    20  19    4.2118   397.3    7.011      30.822
2015    5       17    20  25    4.2173   397.2    7.025      30.848
2015    5       17    20  30    4.2227   397.2    7.039      30.875
2015    5       17    20  36    4.2282   397.1    7.053      30.902
2015    5       17    20  41    4.2337   397.1    7.067      30.930
2015    5       17    20  47    4.2391   397.0    7.080      30.958
2015    5       17    20  53    4.2446   396.9    7.094      30.987
2015    5       17    20  58    4.2500   396.9    7.107      31.017
2015    5       17    21   4    4.2555   396.8    7.121      31.046
2015    5       17    21  10    4.2609   396.8    7.134      31.076
2015    5       17    21  15    4.2664   396.7    7.147      31.105
2015    5       17    21  21    4.2718   396.7    7.160      31.135
2015    5       17    21  27    4.2772   396.6    7.173      31.165
2015    5       17    21  32    4.2827   396.5    7.185      31.195
2015    5       17    21  38    4.2881   396.5    7.198      31.225
2015    5       17    21  44    4.2935   396.4    7.210      31.255
2015    5       17    21  49    4.2989   396.4    7.222      31.284
2015    5       17    21  55    4.3043   396.3    7.235      31.314
2015    5       17    22   1    4.3097   396.3    7.247      31.343
2015    5       17    22   6    4.3150   396.2    7.258      31.373
2015    5       17    22  12    4.3204   396.2    7.270      31.402
2015    5       17    22  18    4.3258   396.2    7.282      31.431
2015    5       17    22  23    4.3311   396.1    7.293      31.460
2015    5       17    22  29    4.3364   396.1    7.305      31.489
2015    5       17    22  35    4.3418   396.0    7.316      31.518
2015    5       17    22  40    4.3471   396.0    7.328      31.546
2015    5       17    22  46    4.3524   395.9    7.339      31.575
2015    5       17    22  52    4.3577   395.9    7.350      31.603
2015    5       17    22  57    4.3630   395.8    7.361      31.631
2015    5       17    23   3    4.3683   395.8    7.372      31.660
2015    5       17    23   9    4.3736   395.8    7.383      31.688
2015    5       17    23  14    4.3789   395.7    7.393      31.715
2015    5       17    23  20    4.3842   395.7    7.404      31.743
2015    5       17    23  26    4.3894   395.6    7.415      31.771
2015    5       17    23  31    4.3947   395.6    7.425      31.798
2015    5       17    23  37    4.3999   395.6    7.436      31.826
2015    5       17    23  43    4.4052   395.5    7.446      31.853
2015    5       17    23  48    4.4104   395.5    7.457      31.880
2015    5       17    23  54    4.4157   395.5    7.467      31.907
2015    5       18     0   0    4.4209   395.4    7.478      31.934
2015    5       18     0   5    4.4261   395.4    7.488      31.960
2015    5       18     0  11    4.4313   395.3    7.498      31.987
2015    5       18     0  17    4.4365   395.3    7.508      32.013
2015    5       18     0  22    4.4417   395.3    7.519      32.039
2015    5       18     0  28    4.4470   395.2    7.529      32.065
2015    5       18     0  34    4.4521   395.2    7.539      32.091
2015    5       18     0  39    4.4573   395.2    7.549      32.117
2015    5       18     0  45    4.4625   395.1    7.559      32.143
2015    5       18     0  51    4.4677   395.1    7.569      32.168
2015    5       18     0  56    4.4729   395.1    7.579      32.194
2015    5       18     1   2    4.4781   395.0    7.589      32.219
2015    5       18     1   8    4.4832   395.0    7.599      32.245
2015    5       18     1  13    4.4884   395.0    7.609      32.270
2015    5       18     1  19    4.4936   394.9    7.619      32.295
2015    5       18     1  25    4.4988   394.9    7.630      32.321
2015    5       18     1  30    4.5039   394.9    7.640      32.346
2015    5       18     1  36    4.5091   394.8    7.650      32.372
2015    5       18     1  42    4.5143   394.8    7.660      32.397
2015    5       18     1  47    4.5194   394.8    7.670      32.422
2015    5       18     1  53    4.5246   394.8    7.681      32.448
2015    5       18     1  59    4.5298   394.7    7.691      32.474
2015    5       18     2   4    4.5349   394.7    7.701      32.499
2015    5       18     2  10    4.5401   394.7    7.712      32.525
2015    5       18     2  16    4.5453   394.7    7.722      32.551
2015    5       18     2  21    4.5505   394.6    7.733      32.577
2015    5       18     2  27    4.5557   394.6    7.744      32.603
2015    5       18     2  33    4.5609   394.6    7.755      32.630
2015    5       18     2  38    4.5661   394.6    7.766      32.656
2015    5       18     2  44    4.5714   394.5    7.777      32.683
2015    5       18     2  50    4.5766   394.5    7.788      32.709
2015    5       18     2  55    4.5819   394.5    7.800      32.736
2015    5       18     3   1    4.5872   394.5    7.812      32.764
2015    5       18     3   7    4.5926   394.4    7.824      32.792
2015    5       18     3  12    4.5979   394.4    7.836      32.820
2015    5       18     3  18    4.6033   394.4    7.848      32.849
2015    5       18     3  24    4.6087   394.4    7.861      32.879
2015    5       18     3  29    4.6141   394.4    7.873      32.909
2015    5       18     3  35    4.6196   394.4    7.886      32.941
2015    5       18     3  41    4.6250   394.4    7.898      32.973
2015    5       18     3  46    4.6305   394.4    7.911      33.007
2015    5       18     3  52    4.6359   394.3    7.924      33.042
2015    5       18     3  58    4.6414   394.3    7.937      33.078
2015    5       18     4   3    4.6469   394.3    7.950      33.115
2015    5       18     4   9    4.6523   394.3    7.962      33.154
2015    5       18     4  15    4.6577   394.3    7.975      33.194
2015    5       18     4  20    4.6631   394.4    7.987      33.236
2015    5       18     4  26    4.6685   394.4    7.999      33.279
2015    5       18     4  32    4.6738   394.4    8.011      33.323
2015    5       18     4  37    4.6791   394.4    8.023      33.367
2015    5       18     4  43    4.6843   394.4    8.035      33.412
2015    5       18     4  49    4.6895   394.4    8.046      33.457
2015    5       18     4  54    4.6947   394.4    8.057      33.502
2015    5       18     5   0    4.6997   394.4    8.067      33.546
2015    5       18     5   6    4.7048   394.5    8.078      33.590
2015    5       18     5  11    4.7098   394.5    8.088      33.633
2015    5       18     5  17    4.7147   394.5    8.097      33.676
2015    5       18     5  23    4.7196   394.5    8.107      33.718
2015    5       18     5  28    4.7244   394.5    8.116      33.760
2015    5       18     5  34    4.7292   394.5    8.125      33.801
2015    5       18     5  40    4.7340   394.6    8.133      33.842
2015    5       18     5  45    4.7387   394.6    8.142      33.882
2015    5       18     5  51    4.7433   394.6    8.150      33.921
2015    5       18     5  57    4.7480   394.6    8.158      33.960
2015    5       18     6   2    4.7525   394.6    8.165      33.998
2015    5       18     6   8    4.7571   394.7    8.173      34.036
2015    5       18     6  14    4.7616   394.7    8.180      34.073
2015    5       18     6  19    4.7661   394.7    8.187      34.109
2015    5       18     6  25    4.7705   394.7    8.194      34.145
2015    5       18     6  31    4.7749   394.8    8.200      34.181
2015    5       18     6  36    4.7793   394.8    8.207      34.216
2015    5       18     6  42    4.7836   394.8    8.213      34.250
2015    5       18     6  48    4.7879   394.8    8.219      34.284
2015    5       18     6  53    4.7922   394.9    8.225      34.318
2015    5       18     6  59    4.7964   394.9    8.231      34.351
2015    5       18     7   5    4.8006   394.9    8.237      34.384
2015    5       18     7  10    4.8048   394.9    8.242      34.416
2015    5       18     7  16    4.8090   395.0    8.248      34.448
2015    5       18     7  22    4.8131   395.0    8.253      34.480
2015    5       18     7  27    4.8172   395.0    8.258      34.511
2015    5       18     7  33    4.8213   395.0    8.263      34.541
2015    5       18     7  39    4.8253   395.1    8.268      34.571
2015    5       18     7  44    4.8294   395.1    8.273      34.601
2015    5       18     7  50    4.8334   395.1    8.277      34.631
2015    5       18     7  56    4.8374   395.1    8.282      34.660
2015    5       18     8   1    4.8414   395.2    8.287      34.689
2015    5       18     8   7    4.8453   395.2    8.291      34.718
2015    5       18     8  13    4.8493   395.2    8.295      34.746
2015    5       18     8  18    4.8532   395.2    8.300      34.774
2015    5       18     8  24    4.8571   395.3    8.304      34.802
2015    5       18     8  30    4.8610   395.3    8.308      34.829
2015    5       18     8  35    4.8648   395.3    8.312      34.857
2015    5       18     8  41    4.8687   395.4    8.317      34.884
2015    5       18     8  46    4.8726   395.4    8.321      34.911
2015    5       18     8  52    4.8764   395.4    8.325      34.938
2015    5       18     8  58    4.8802   395.4    8.329      34.965
2015    5       18     9   3    4.8840   395.5    8.333      34.991
2015    5       18     9   9    4.8878   395.5    8.337      35.018
2015    5       18     9  15    4.8916   395.5    8.341      35.044
2015    5       18     9  20    4.8954   395.6    8.345      35.070
2015    5       18     9  26    4.8992   395.6    8.349      35.097
2015    5       18     9  32    4.9030   395.6    8.353      35.123
2015    5       18     9  37    4.9067   395.6    8.357      35.149
2015    5       18     9  43    4.9105   395.7    8.361      35.175
2015    5       18     9  49    4.9143   395.7    8.365      35.201
2015    5       18     9  54    4.9181   395.7    8.369      35.227
2015    5       18    10   0    4.9218   395.8    8.374      35.253
2015    5       18    10   6    4.9256   395.8    8.378      35.279
2015    5       18    10  11    4.9293   395.8    8.382      35.305
2015    5       18    10  17    4.9330   395.8    8.387      35.331
2015    5       18    10  23    4.9368   395.9    8.391      35.358
2015    5       18    10  28    4.9405   395.9    8.396      35.384
2015    5       18    10  34    4.9442   395.9    8.401      35.410
2015    5       18    10  40    4.9480   396.0    8.405      35.437
2015    5       18    10  45    4.9517   396.0    8.410      35.463
2015    5       18    10  51    4.9554   396.0    8.415      35.490
2015    5       18    10  57    4.9592   396.1    8.421      35.517
2015    5       18    11   2    4.9629   396.1    8.426      35.544
2015    5       18    11   8    4.9666   396.1    8.432      35.571
2015    5       18    11  14    4.9704   396.2    8.438      35.599
2015    5       18    11  19    4.9741   396.2    8.444      35.627
2015    5       18    11  25    4.9779   396.2    8.450      35.656
2015    5       18    11  31    4.9815   396.3    8.456      35.686
2015    5       18    11  36    4.9852   396.3    8.462      35.717
2015    5       18    11  42    4.9888   396.4    8.468      35.749
2015    5       18    11  48    4.9924   396.4    8.474      35.782
2015    5       18    11  53    4.9959   396.5    8.480      35.817
2015    5       18    11  59    4.9995   396.5    8.486      35.852
2015    5       18    12   5    5.0029   396.5    8.491      35.887
2015    5       18    12  10    5.0063   396.6    8.497      35.923
2015    5       18    12  16    5.0096   396.6    8.502      35.958
2015    5       18    12  22    5.0129   396.7    8.507      35.993
2015    5       18    12  27    5.0160   396.7    8.512      36.028
2015    5       18    12  33    5.0192   396.8    8.517      36.063
2015    5       18    12  39    5.0223   396.8    8.521      36.097
2015    5       18    12  44    5.0253   396.9    8.526      36.132
2015    5       18    12  50    5.0283   396.9    8.530      36.166
2015    5       18    12  56    5.0312   397.0    8.534      36.199
2015    5       18    13   1    5.0340   397.1    8.538      36.232
2015    5       18    13   7    5.0369   397.1    8.541      36.265
2015    5       18    13  13    5.0396   397.2    8.545      36.298
2015    5       18    13  18    5.0423   397.2    8.548      36.330
2015    5       18    13  24    5.0450   397.3    8.551      36.362
2015    5       18    13  30    5.0477   397.3    8.554      36.394
2015    5       18    13  35    5.0502   397.4    8.557      36.426
2015    5       18    13  41    5.0528   397.4    8.559      36.457
2015    5       18    13  47    5.0553   397.5    8.561      36.487
2015    5       18    13  52    5.0578   397.5    8.564      36.518
2015    5       18    13  58    5.0602   397.6    8.566      36.547
2015    5       18    14   4    5.0626   397.6    8.567      36.577
2015    5       18    14   9    5.0650   397.7    8.569      36.606
2015    5       18    14  15    5.0673   397.8    8.571      36.635
2015    5       18    14  21    5.0696   397.8    8.572      36.663
2015    5       18    14  26    5.0719   397.9    8.574      36.692
2015    5       18    14  32    5.0741   397.9    8.575      36.719
2015    5       18    14  38    5.0763   398.0    8.576      36.747
2015    5       18    14  43    5.0785   398.0    8.577      36.774
2015    5       18    14  49    5.0807   398.1    8.578      36.800
2015    5       18    14  55    5.0828   398.1    8.579      36.827
2015    5       18    15   0    5.0849   398.2    8.579      36.853
2015    5       18    15   6    5.0870   398.2    8.580      36.878
2015    5       18    15  12    5.0891   398.3    8.581      36.904
2015    5       18    15  17    5.0911   398.4    8.581      36.929
2015    5       18    15  23    5.0932   398.4    8.582      36.954
2015    5       18    15  29    5.0952   398.5    8.582      36.979
2015    5       18    15  34    5.0972   398.5    8.583      37.003
2015    5       18    15  40    5.0992   398.6    8.583      37.027
2015    5       18    15  46    5.1012   398.6    8.583      37.051
2015    5       18    15  51    5.1032   398.7    8.584      37.075
2015    5       18    15  57    5.1052   398.7    8.584      37.099
2015    5       18    16   3    5.1072   398.8    8.584      37.123
2015    5       18    16   8    5.1092   398.9    8.585      37.146
2015    5       18    16  14    5.1112   398.9    8.585      37.169
2015    5       18    16  20    5.1132   399.0    8.586      37.193
2015    5       18    16  25    5.1152   399.0    8.586      37.216
2015    5       18    16  31    5.1172   399.1    8.587      37.239
2015    5       18    16  37    5.1193   399.1    8.587      37.262
2015    5       18    16  42    5.1213   399.2    8.588      37.285
2015    5       18    16  48    5.1234   399.3    8.589      37.308
2015    5       18    16  54    5.1255   399.3    8.590      37.331
2015    5       18    16  59    5.1276   399.4    8.591      37.354
2015    5       18    17   5    5.1297   399.4    8.592      37.377
2015    5       18    17  11    5.1319   399.5    8.594      37.400
2015    5       18    17  16    5.1341   399.6    8.595      37.423
2015    5       18    17  22    5.1363   399.6    8.597      37.446
2015    5       18    17  28    5.1385   399.7    8.598      37.471
2015    5       18    17  33    5.1407   399.7    8.600      37.496
2015    5       18    17  39    5.1428   399.8    8.602      37.522
2015    5       18    17  45    5.1449   399.9    8.603      37.549
2015    5       18    17  50    5.1470   400.0    8.605      37.577
2015    5       18    17  56    5.1490   400.0    8.606      37.606
2015    5       18    18   2    5.1511   400.1    8.608      37.636
2015    5       18    18   7    5.1530   400.2    8.609      37.666
2015    5       18    18  13    5.1549   400.3    8.610      37.696
2015    5       18    18  19    5.1568   400.4    8.611      37.725
2015    5       18    18  24    5.1586   400.4    8.612      37.755
2015    5       18    18  30    5.1603   400.5    8.612      37.784
2015    5       18    18  36    5.1620   400.6    8.613      37.812
2015    5       18    18  41    5.1636   400.7    8.613      37.841
2015    5       18    18  47    5.1651   400.7    8.613      37.869
2015    5       18    18  53    5.1666   400.8    8.613      37.897
2015    5       18    18  58    5.1681   400.9    8.613      37.924
2015    5       18    19   4    5.1695   401.0    8.613      37.951
2015    5       18    19  10    5.1708   401.1    8.612      37.977
2015    5       18    19  15    5.1721   401.1    8.612      38.004
2015    5       18    19  21    5.1734   401.2    8.611      38.030
2015    5       18    19  27    5.1746   401.3    8.611      38.055
2015    5       18    19  32    5.1758   401.4    8.610      38.081
2015    5       18    19  38    5.1769   401.4    8.609      38.105
2015    5       18    19  44    5.1780   401.5    8.608      38.130
2015    5       18    19  49    5.1790   401.6    8.607      38.154
2015    5       18    19  55    5.1800   401.7    8.606      38.178
2015    5       18    20   1    5.1810   401.7    8.605      38.202
2015    5       18    20   6    5.1819   401.8    8.603      38.226
2015    5       18    20  12    5.1828   401.9    8.602      38.249
2015    5       18    20  17    5.1837   402.0    8.600      38.272
2015    5       18    20  23    5.1845   402.0    8.599      38.294
2015    5       18    20  29    5.1853   402.1    8.597      38.316
2015    5       18    20  34    5.1861   402.2    8.595      38.338
2015    5       18    20  40    5.1868   402.3    8.594      38.360
2015    5       18    20  46    5.1875   402.3    8.592      38.381
2015    5       18    20  51    5.1881   402.4    8.590      38.402
2015    5       18    20  57    5.1888   402.5    8.588      38.423
2015    5       18    21   3    5.1894   402.6    8.586      38.443
2015    5       18    21   8    5.1899   402.6    8.583      38.463
2015    5       18    21  14    5.1905   402.7    8.581      38.483
2015    5       18    21  20    5.1910   402.8    8.579      38.503
2015    5       18    21  25    5.1914   402.9    8.576      38.522
2015    5       18    21  31    5.1919   402.9    8.574      38.541
2015    5       18    21  37    5.1923   403.0    8.571      38.559
2015    5       18    21  42    5.1927   403.1    8.568      38.577
2015    5       18    21  48    5.1930   403.2    8.565      38.595
2015    5       18    21  54    5.1933   403.2    8.563      38.613
2015    5       18    21  59    5.1936   403.3    8.560      38.630
2015    5       18    22   5    5.1939   403.4    8.557      38.647
2015    5       18    22  11    5.1941   403.5    8.553      38.663
2015    5       18    22  16    5.1943   403.5    8.550      38.680
2015    5       18    22  22    5.1945   403.6    8.547      38.696
2015    5       18    22  28    5.1946   403.7    8.544      38.712
2015    5       18    22  33    5.1947   403.8    8.540      38.727
2015    5       18    22  39    5.1948   403.8    8.537      38.742
2015    5       18    22  45    5.1948   403.9    8.533      38.757
2015    5       18    22  50    5.1948   404.0    8.529      38.771
2015    5       18    22  56    5.1948   404.1    8.526      38.785
2015    5       18    23   2    5.1948   404.1    8.522      38.799
2015    5       18    23   7    5.1948   404.2    8.518      38.813
2015    5       18    23  13    5.1947   404.3    8.514      38.826
2015    5       18    23  19    5.1946   404.4    8.510      38.839
2015    5       18    23  24    5.1944   404.5    8.506      38.852
2015    5       18    23  30    5.1943   404.5    8.502      38.864
2015    5       18    23  36    5.1941   404.6    8.498      38.876
2015    5       18    23  41    5.1940   404.7    8.494      38.888
2015    5       18    23  47    5.1938   404.8    8.490      38.900
2015    5       18    23  53    5.1936   404.9    8.486      38.911
2015    5       18    23  58    5.1934   404.9    8.483      38.923
2015    5       19     0   4    5.1932   405.0    8.479      38.934
2015    5       19     0  10    5.1930   405.1    8.475      38.946
2015    5       19     0  15    5.1928   405.2    8.471      38.957
2015    5       19     0  21    5.1926   405.2    8.468      38.967
2015    5       19     0  27    5.1924   405.3    8.464      38.978
2015    5       19     0  32    5.1922   405.4    8.461      38.989
2015    5       19     0  38    5.1920   405.5    8.458      39.000
2015    5       19     0  44    5.1917   405.6    8.455      39.012
2015    5       19     0  49    5.1914   405.6    8.451      39.025
2015    5       19     0  55    5.1911   405.7    8.448      39.038
2015    5       19     1   1    5.1908   405.8    8.445      39.053
2015    5       19     1   6    5.1903   405.9    8.441      39.069
2015    5       19     1  12    5.1899   406.0    8.438      39.085
2015    5       19     1  18    5.1894   406.1    8.434      39.101
2015    5       19     1  23    5.1888   406.2    8.430      39.118
2015    5       19     1  29    5.1882   406.3    8.426      39.134
2015    5       19     1  35    5.1875   406.4    8.422      39.149
2015    5       19     1  40    5.1867   406.4    8.418      39.165
2015    5       19     1  46    5.1859   406.5    8.413      39.180
2015    5       19     1  52    5.1850   406.6    8.408      39.194
2015    5       19     1  57    5.1841   406.7    8.403      39.208
2015    5       19     2   3    5.1830   406.8    8.398      39.222
2015    5       19     2   9    5.1820   406.9    8.393      39.235
2015    5       19     2  14    5.1809   407.0    8.387      39.248
2015    5       19     2  20    5.1798   407.1    8.381      39.260
2015    5       19     2  26    5.1786   407.2    8.376      39.272
2015    5       19     2  31    5.1774   407.2    8.370      39.282
2015    5       19     2  37    5.1761   407.3    8.363      39.293
2015    5       19     2  43    5.1749   407.4    8.357      39.303
2015    5       19     2  48    5.1735   407.5    8.351      39.313
2015    5       19     2  54    5.1722   407.6    8.344      39.322
2015    5       19     3   0    5.1708   407.7    8.337      39.330
2015    5       19     3   5    5.1694   407.7    8.330      39.339
2015    5       19     3  11    5.1680   407.8    8.323      39.346
2015    5       19     3  17    5.1665   407.9    8.316      39.353
2015    5       19     3  22    5.1650   408.0    8.309      39.360
2015    5       19     3  28    5.1635   408.1    8.302      39.366
2015    5       19     3  34    5.1620   408.1    8.294      39.372
2015    5       19     3  39    5.1604   408.2    8.287      39.377
2015    5       19     3  45    5.1588   408.3    8.279      39.382
2015    5       19     3  51    5.1571   408.4    8.271      39.386
2015    5       19     3  56    5.1554   408.5    8.263      39.389
2015    5       19     4   2    5.1537   408.5    8.255      39.392
2015    5       19     4   8    5.1519   408.6    8.247      39.394
2015    5       19     4  13    5.1501   408.7    8.238      39.396
2015    5       19     4  19    5.1483   408.8    8.230      39.397
2015    5       19     4  25    5.1464   408.8    8.221      39.398
2015    5       19     4  30    5.1445   408.9    8.213      39.397
2015    5       19     4  36    5.1426   409.0    8.204      39.396
2015    5       19     4  42    5.1406   409.1    8.195      39.394
2015    5       19     4  47    5.1386   409.1    8.186      39.392
2015    5       19     4  53    5.1365   409.2    8.177      39.389
2015    5       19     4  59    5.1344   409.3    8.167      39.385
2015    5       19     5   4    5.1322   409.4    8.158      39.380
2015    5       19     5  10    5.1301   409.4    8.148      39.375
2015    5       19     5  16    5.1278   409.5    8.139      39.369
2015    5       19     5  21    5.1256   409.6    8.129      39.363
2015    5       19     5  27    5.1232   409.6    8.119      39.356
2015    5       19     5  33    5.1209   409.7    8.109      39.348
2015    5       19     5  38    5.1185   409.8    8.099      39.340
2015    5       19     5  44    5.1161   409.8    8.089      39.331
2015    5       19     5  50    5.1136   409.9    8.079      39.322
2015    5       19     5  55    5.1110   409.9    8.069      39.313
2015    5       19     6   1    5.1085   410.0    8.058      39.304
2015    5       19     6   7    5.1059   410.1    8.048      39.294
2015    5       19     6  12    5.1033   410.1    8.037      39.284
2015    5       19     6  18    5.1006   410.2    8.027      39.274
2015    5       19     6  24    5.0979   410.2    8.016      39.263
2015    5       19     6  29    5.0952   410.3    8.005      39.252
2015    5       19     6  35    5.0924   410.4    7.994      39.240
2015    5       19     6  41    5.0896   410.4    7.983      39.227
2015    5       19     6  46    5.0867   410.5    7.972      39.214
2015    5       19     6  52    5.0838   410.6    7.961      39.201
2015    5       19     6  58    5.0808   410.6    7.950      39.186
2015    5       19     7   3    5.0779   410.7    7.938      39.171
2015    5       19     7   9    5.0749   410.7    7.927      39.156
2015    5       19     7  14    5.0718   410.8    7.915      39.139
2015    5       19     7  20    5.0687   410.8    7.904      39.123
2015    5       19     7  26    5.0656   410.9    7.892      39.105
2015    5       19     7  31    5.0625   410.9    7.881      39.087
2015    5       19     7  37    5.0593   411.0    7.869      39.069
2015    5       19     7  43    5.0561   411.0    7.858      39.050
2015    5       19     7  48    5.0529   411.1    7.846      39.031
2015    5       19     7  54    5.0496   411.1    7.834      39.011
2015    5       19     8   0    5.0463   411.2    7.823      38.990
2015    5       19     8   5    5.0430   411.2    7.811      38.969
2015    5       19     8  11    5.0396   411.2    7.799      38.948
2015    5       19     8  17    5.0362   411.3    7.788      38.926
2015    5       19     8  22    5.0329   411.3    7.776      38.904
2015    5       19     8  28    5.0295   411.3    7.764      38.881
2015    5       19     8  34    5.0261   411.4    7.753      38.858
2015    5       19     8  39    5.0226   411.4    7.741      38.834
2015    5       19     8  45    5.0192   411.4    7.729      38.811
2015    5       19     8  51    5.0158   411.5    7.718      38.787
2015    5       19     8  56    5.0123   411.5    7.706      38.762
2015    5       19     9   2    5.0089   411.5    7.694      38.738
2015    5       19     9   8    5.0054   411.6    7.683      38.713
2015    5       19     9  13    5.0019   411.6    7.671      38.688
2015    5       19     9  19    4.9985   411.6    7.660      38.663
2015    5       19     9  25    4.9950   411.6    7.648      38.638
2015    5       19     9  30    4.9915   411.7    7.636      38.613
2015    5       19     9  36    4.9879   411.7    7.625      38.587
2015    5       19     9  42    4.9844   411.7    7.613      38.561
2015    5       19     9  47    4.9809   411.7    7.602      38.536
2015    5       19     9  53    4.9774   411.8    7.590      38.510
2015    5       19     9  59    4.9739   411.8    7.578      38.483
2015    5       19    10   4    4.9704   411.8    7.567      38.457
2015    5       19    10  10    4.9669   411.8    7.555      38.431
2015    5       19    10  16    4.9634   411.9    7.543      38.404
2015    5       19    10  21    4.9599   411.9    7.531      38.377
2015    5       19    10  27    4.9564   411.9    7.519      38.350
2015    5       19    10  33    4.9529   411.9    7.508      38.323
2015    5       19    10  38    4.9493   411.9    7.496      38.295
2015    5       19    10  44    4.9458   412.0    7.484      38.268
2015    5       19    10  50    4.9422   412.0    7.472      38.240
2015    5       19    10  55    4.9386   412.0    7.460      38.211
2015    5       19    11   1    4.9350   412.0    7.448      38.183
2015    5       19    11   7    4.9314   412.0    7.436      38.154
2015    5       19    11  12    4.9278   412.0    7.424      38.124
2015    5       19    11  18    4.9241   412.1    7.412      38.095
2015    5       19    11  24    4.9204   412.1    7.399      38.065
2015    5       19    11  29    4.9167   412.1    7.387      38.034
2015    5       19    11  35    4.9129   412.1    7.375      38.003
2015    5       19    11  41    4.9092   412.1    7.363      37.972
2015    5       19    11  46    4.9054   412.1    7.350      37.940
2015    5       19    11  52    4.9016   412.1    7.338      37.907
2015    5       19    11  58    4.8977   412.1    7.326      37.875
2015    5       19    12   3    4.8939   412.1    7.313      37.842
2015    5       19    12   9    4.8900   412.1    7.301      37.808
2015    5       19    12  15    4.8861   412.1    7.289      37.773
2015    5       19    12  20    4.8821   412.1    7.276      37.738
2015    5       19    12  26    4.8782   412.1    7.264      37.703
2015    5       19    12  32    4.8742   412.1    7.252      37.666
2015    5       19    12  37    4.8702   412.1    7.240      37.630
2015    5       19    12  43    4.8662   412.1    7.228      37.592
2015    5       19    12  49    4.8621   412.0    7.216      37.554
2015    5       19    12  54    4.8581   412.0    7.204      37.515
2015    5       19    13   0    4.8540   412.0    7.192      37.476
2015    5       19    13   6    4.8500   412.0    7.181      37.437
2015    5       19    13  11    4.8460   411.9    7.169      37.397
2015    5       19    13  17    4.8419   411.9    7.158      37.357
2015    5       19    13  23    4.8379   411.9    7.147      37.316
2015    5       19    13  28    4.8339   411.8    7.136      37.275
2015    5       19    13  34    4.8299   411.8    7.126      37.234
2015    5       19    13  40    4.8259   411.8    7.115      37.193
2015    5       19    13  45    4.8220   411.7    7.105      37.152
2015    5       19    13  51    4.8180   411.7    7.095      37.110
2015    5       19    13  57    4.8141   411.7    7.085      37.069
2015    5       19    14   2    4.8102   411.6    7.075      37.027
2015    5       19    14   8    4.8064   411.6    7.065      36.985
2015    5       19    14  14    4.8025   411.6    7.056      36.942
2015    5       19    14  19    4.7987   411.5    7.047      36.900
2015    5       19    14  25    4.7948   411.5    7.038      36.857
2015    5       19    14  31    4.7910   411.4    7.029      36.814
2015    5       19    14  36    4.7871   411.4    7.020      36.770
2015    5       19    14  42    4.7833   411.3    7.012      36.726
2015    5       19    14  48    4.7795   411.3    7.003      36.683
2015    5       19    14  53    4.7756   411.2    6.995      36.639
2015    5       19    14  59    4.7718   411.2    6.987      36.595
2015    5       19    15   5    4.7679   411.1    6.979      36.552
2015    5       19    15  10    4.7641   411.1    6.971      36.508
2015    5       19    15  16    4.7603   411.0    6.963      36.465
2015    5       19    15  22    4.7565   411.0    6.955      36.421
2015    5       19    15  27    4.7526   410.9    6.947      36.379
2015    5       19    15  33    4.7488   410.8    6.939      36.336
2015    5       19    15  39    4.7451   410.8    6.932      36.294
2015    5       19    15  44    4.7413   410.7    6.924      36.252
2015    5       19    15  50    4.7376   410.6    6.916      36.211
2015    5       19    15  56    4.7339   410.6    6.908      36.169
2015    5       19    16   1    4.7302   410.5    6.901      36.128
2015    5       19    16   7    4.7265   410.4    6.893      36.087
2015    5       19    16  13    4.7229   410.4    6.885      36.046
2015    5       19    16  18    4.7192   410.3    6.878      36.005
2015    5       19    16  24    4.7156   410.2    6.870      35.963
2015    5       19    16  30    4.7120   410.2    6.862      35.922
2015    5       19    16  35    4.7085   410.1    6.855      35.881
2015    5       19    16  41    4.7049   410.0    6.847      35.840
2015    5       19    16  47    4.7013   409.9    6.840      35.800
2015    5       19    16  52    4.6978   409.9    6.832      35.759
2015    5       19    16  58    4.6943   409.8    6.825      35.718
2015    5       19    17   4    4.6909   409.7    6.817      35.677
2015    5       19    17   9    4.6874   409.7    6.810      35.637
2015    5       19    17  15    4.6840   409.6    6.802      35.596
2015    5       19    17  21    4.6806   409.5    6.795      35.555
2015    5       19    17  26    4.6772   409.4    6.788      35.515
2015    5       19    17  32    4.6738   409.4    6.780      35.474
2015    5       19    17  38    4.6705   409.3    6.773      35.434
2015    5       19    17  43    4.6671   409.2    6.765      35.394
2015    5       19    17  49    4.6638   409.1    6.758      35.353
2015    5       19    17  55    4.6605   409.1    6.751      35.313
2015    5       19    18   0    4.6572   409.0    6.743      35.273
2015    5       19    18   6    4.6539   408.9    6.736      35.233
2015    5       19    18  12    4.6506   408.8    6.729      35.193
2015    5       19    18  17    4.6474   408.8    6.722      35.152
2015    5       19    18  23    4.6441   408.7    6.714      35.112
2015    5       19    18  28    4.6409   408.6    6.707      35.072
2015    5       19    18  34    4.6377   408.5    6.700      35.032
2015    5       19    18  40    4.6345   408.4    6.693      34.992
2015    5       19    18  45    4.6312   408.4    6.686      34.952
2015    5       19    18  51    4.6280   408.3    6.679      34.912
2015    5       19    18  57    4.6248   408.2    6.672      34.873
2015    5       19    19   2    4.6216   408.1    6.664      34.833
2015    5       19    19   8    4.6185   408.0    6.657      34.793
2015    5       19    19  14    4.6153   407.9    6.650      34.754
2015    5       19    19  19    4.6121   407.9    6.644      34.714
2015    5       19    19  25    4.6090   407.8    6.637      34.675
2015    5       19    19  31    4.6059   407.7    6.630      34.636
2015    5       19    19  36    4.6028   407.6    6.623      34.596
2015    5       19    19  42    4.5996   407.5    6.616      34.557
2015    5       19    19  48    4.5965   407.4    6.610      34.517
2015    5       19    19  53    4.5935   407.3    6.603      34.478
2015    5       19    19  59    4.5904   407.2    6.597      34.438
2015    5       19    20   5    4.5874   407.1    6.591      34.398
2015    5       19    20  10    4.5843   407.0    6.585      34.358
2015    5       19    20  16    4.5813   406.9    6.579      34.317
2015    5       19    20  22    4.5784   406.7    6.573      34.276
2015    5       19    20  27    4.5754   406.6    6.567      34.235
2015    5       19    20  33    4.5725   406.5    6.562      34.193
2015    5       19    20  39    4.5696   406.4    6.557      34.151
2015    5       19    20  44    4.5667   406.3    6.552      34.109
2015    5       19    20  50    4.5639   406.2    6.547      34.068
2015    5       19    20  56    4.5611   406.1    6.542      34.025
2015    5       19    21   1    4.5583   405.9    6.538      33.984
2015    5       19    21   7    4.5556   405.8    6.534      33.942
2015    5       19    21  13    4.5530   405.7    6.530      33.901
2015    5       19    21  18    4.5503   405.6    6.527      33.859
2015    5       19    21  24    4.5477   405.5    6.524      33.819
2015    5       19    21  30    4.5452   405.4    6.521      33.778
2015    5       19    21  35    4.5427   405.3    6.518      33.738
2015    5       19    21  41    4.5403   405.1    6.515      33.699
2015    5       19    21  47    4.5378   405.0    6.513      33.660
2015    5       19    21  52    4.5354   404.9    6.511      33.621
2015    5       19    21  58    4.5330   404.8    6.509      33.583
2015    5       19    22   4    4.5307   404.7    6.507      33.545
2015    5       19    22   9    4.5283   404.6    6.506      33.508
2015    5       19    22  15    4.5260   404.4    6.504      33.472
2015    5       19    22  21    4.5237   404.3    6.503      33.436
2015    5       19    22  26    4.5214   404.2    6.502      33.401
2015    5       19    22  32    4.5191   404.1    6.501      33.367
2015    5       19    22  38    4.5169   404.0    6.500      33.334
2015    5       19    22  43    4.5146   403.9    6.499      33.302
2015    5       19    22  49    4.5124   403.7    6.498      33.271
2015    5       19    22  55    4.5101   403.6    6.497      33.240
2015    5       19    23   0    4.5079   403.5    6.496      33.210
2015    5       19    23   6    4.5057   403.4    6.495      33.181
2015    5       19    23  12    4.5036   403.3    6.494      33.152
2015    5       19    23  17    4.5014   403.2    6.493      33.123
2015    5       19    23  23    4.4993   403.0    6.493      33.095
2015    5       19    23  29    4.4972   402.9    6.492      33.066
2015    5       19    23  34    4.4950   402.8    6.491      33.038
2015    5       19    23  40    4.4930   402.7    6.491      33.010
2015    5       19    23  46    4.4909   402.6    6.490      32.982
2015    5       19    23  51    4.4888   402.5    6.489      32.954
2015    5       19    23  57    4.4868   402.3    6.489      32.926
2015    5       20     0   3    4.4847   402.2    6.488      32.898
2015    5       20     0   8    4.4827   402.1    6.487      32.871
2015    5       20     0  14    4.4807   402.0    6.487      32.843
2015    5       20     0  20    4.4787   401.9    6.486      32.815
2015    5       20     0  25    4.4768   401.8    6.486      32.788
2015    5       20     0  31    4.4748   401.6    6.485      32.760
2015    5       20     0  37    4.4729   401.5    6.485      32.732
2015    5       20     0  42    4.4710   401.4    6.485      32.704
2015    5       20     0  48    4.4691   401.3    6.484      32.677
2015    5       20     0  54    4.4672   401.2    6.484      32.649
2015    5       20     0  59    4.4654   401.1    6.483      32.621
2015    5       20     1   5    4.4635   400.9    6.483      32.594
2015    5       20     1  11    4.4617   400.8    6.483      32.566
2015    5       20     1  16    4.4599   400.7    6.482      32.539
2015    5       20     1  22    4.4581   400.6    6.482      32.511
2015    5       20     1  28    4.4563   400.5    6.481      32.484
2015    5       20     1  33    4.4546   400.3    6.481      32.456
2015    5       20     1  39    4.4529   400.2    6.481      32.429
2015    5       20     1  45    4.4512   400.1    6.480      32.402
2015    5       20     1  50    4.4495   400.0    6.480      32.374
2015    5       20     1  56    4.4478   399.9    6.479      32.347
2015    5       20     2   2    4.4462   399.8    6.479      32.320
2015    5       20     2   7    4.4445   399.6    6.479      32.292
2015    5       20     2  13    4.4429   399.5    6.478      32.265
2015    5       20     2  19    4.4413   399.4    6.477      32.238
2015    5       20     2  24    4.4398   399.3    6.477      32.211
2015    5       20     2  30    4.4382   399.1    6.476      32.184
2015    5       20     2  36    4.4367   399.0    6.476      32.157
2015    5       20     2  41    4.4352   398.9    6.475      32.130
2015    5       20     2  47    4.4338   398.8    6.475      32.103
2015    5       20     2  53    4.4323   398.6    6.474      32.077
2015    5       20     2  58    4.4309   398.5    6.473      32.050
2015    5       20     3   4    4.4295   398.4    6.472      32.024
2015    5       20     3  10    4.4282   398.3    6.472      31.998
2015    5       20     3  15    4.4268   398.1    6.471      31.971
2015    5       20     3  21    4.4256   398.0    6.470      31.945
2015    5       20     3  27    4.4243   397.9    6.469      31.919
2015    5       20     3  32    4.4230   397.7    6.469      31.892
2015    5       20     3  38    4.4218   397.6    6.468      31.866
2015    5       20     3  44    4.4206   397.5    6.467      31.840
2015    5       20     3  49    4.4194   397.4    6.466      31.814
2015    5       20     3  55    4.4183   397.2    6.465      31.787
2015    5       20     4   1    4.4171   397.1    6.464      31.761
2015    5       20     4   6    4.4160   397.0    6.463      31.734
2015    5       20     4  12    4.4149   396.8    6.463      31.707
2015    5       20     4  18    4.4138   396.7    6.462      31.681
2015    5       20     4  23    4.4127   396.6    6.461      31.654
2015    5       20     4  29    4.4116   396.4    6.460      31.628
2015    5       20     4  35    4.4105   396.3    6.459      31.601
2015    5       20     4  40    4.4094   396.2    6.458      31.574
2015    5       20     4  46    4.4084   396.0    6.457      31.547
2015    5       20     4  52    4.4073   395.9    6.456      31.521
2015    5       20     4  57    4.4063   395.8    6.455      31.494
2015    5       20     5   3    4.4052   395.6    6.455      31.467
2015    5       20     5   8    4.4042   395.5    6.454      31.441
2015    5       20     5  14    4.4032   395.4    6.453      31.414
2015    5       20     5  20    4.4021   395.3    6.452      31.388
2015    5       20     5  25    4.4011   395.1    6.452      31.361
2015    5       20     5  31    4.4001   395.0    6.451      31.335
2015    5       20     5  37    4.3991   394.9    6.450      31.308
2015    5       20     5  42    4.3981   394.7    6.450      31.282
2015    5       20     5  48    4.3971   394.6    6.449      31.256
2015    5       20     5  54    4.3961   394.5    6.448      31.230
2015    5       20     5  59    4.3951   394.3    6.448      31.204
2015    5       20     6   5    4.3942   394.2    6.447      31.177
2015    5       20     6  11    4.3932   394.1    6.447      31.152
2015    5       20     6  16    4.3922   393.9    6.446      31.126
2015    5       20     6  22    4.3913   393.8    6.446      31.100
2015    5       20     6  28    4.3903   393.7    6.445      31.074
2015    5       20     6  33    4.3894   393.5    6.445      31.048
2015    5       20     6  39    4.3884   393.4    6.445      31.023
2015    5       20     6  45    4.3875   393.3    6.444      30.997
2015    5       20     6  50    4.3865   393.1    6.444      30.972
2015    5       20     6  56    4.3856   393.0    6.444      30.946
2015    5       20     7   2    4.3847   392.9    6.444      30.921
2015    5       20     7   7    4.3838   392.7    6.444      30.895
2015    5       20     7  13    4.3828   392.6    6.443      30.870
2015    5       20     7  19    4.3819   392.5    6.443      30.845
2015    5       20     7  24    4.3810   392.3    6.443      30.820
2015    5       20     7  30    4.3801   392.2    6.443      30.794
2015    5       20     7  36    4.3792   392.1    6.443      30.769
2015    5       20     7  41    4.3784   392.0    6.443      30.744
2015    5       20     7  47    4.3775   391.8    6.443      30.719
2015    5       20     7  53    4.3766   391.7    6.443      30.694
2015    5       20     7  58    4.3757   391.6    6.443      30.669
2015    5       20     8   4    4.3749   391.4    6.444      30.644
2015    5       20     8  10    4.3740   391.3    6.444      30.619
2015    5       20     8  15    4.3732   391.2    6.444      30.594
2015    5       20     8  21    4.3723   391.0    6.444      30.569
2015    5       20     8  27    4.3715   390.9    6.445      30.544
2015    5       20     8  32    4.3707   390.8    6.445      30.519
2015    5       20     8  38    4.3699   390.6    6.445      30.494
2015    5       20     8  44    4.3691   390.5    6.446      30.470
2015    5       20     8  49    4.3683   390.4    6.446      30.445
2015    5       20     8  55    4.3675   390.2    6.447      30.421
2015    5       20     9   1    4.3668   390.1    6.447      30.396
2015    5       20     9   6    4.3661   389.9    6.448      30.372
2015    5       20     9  12    4.3653   389.8    6.448      30.348
2015    5       20     9  18    4.3646   389.7    6.449      30.324
2015    5       20     9  23    4.3639   389.5    6.450      30.300
2015    5       20     9  29    4.3633   389.4    6.451      30.276
2015    5       20     9  35    4.3627   389.3    6.452      30.253
2015    5       20     9  40    4.3620   389.1    6.453      30.230
2015    5       20     9  46    4.3614   389.0    6.454      30.207
2015    5       20     9  52    4.3609   388.8    6.455      30.184
2015    5       20     9  57    4.3604   388.7    6.456      30.162
2015    5       20    10   3    4.3599   388.6    6.457      30.139
2015    5       20    10   9    4.3594   388.4    6.459      30.117
2015    5       20    10  14    4.3590   388.3    6.460      30.096
2015    5       20    10  20    4.3586   388.1    6.461      30.075
2015    5       20    10  26    4.3582   388.0    6.463      30.053
2015    5       20    10  31    4.3579   387.8    6.465      30.033
2015    5       20    10  37    4.3576   387.7    6.466      30.013
2015    5       20    10  43    4.3573   387.6    6.468      29.993
2015    5       20    10  48    4.3571   387.4    6.470      29.973
2015    5       20    10  54    4.3569   387.3    6.472      29.954
2015    5       20    11   0    4.3567   387.1    6.474      29.935
2015    5       20    11   5    4.3566   387.0    6.476      29.916
2015    5       20    11  11    4.3565   386.8    6.478      29.897
2015    5       20    11  17    4.3565   386.7    6.480      29.878
2015    5       20    11  22    4.3565   386.6    6.482      29.860
2015    5       20    11  28    4.3565   386.4    6.485      29.842
2015    5       20    11  34    4.3565   386.3    6.487      29.823
2015    5       20    11  39    4.3565   386.1    6.489      29.805
2015    5       20    11  45    4.3566   386.0    6.492      29.787
2015    5       20    11  51    4.3566   385.8    6.494      29.769
2015    5       20    11  56    4.3567   385.7    6.497      29.751
2015    5       20    12   2    4.3567   385.5    6.499      29.733
2015    5       20    12   8    4.3568   385.4    6.502      29.715
2015    5       20    12  13    4.3568   385.3    6.504      29.697
2015    5       20    12  19    4.3569   385.1    6.506      29.678
2015    5       20    12  25    4.3569   385.0    6.509      29.660
2015    5       20    12  30    4.3570   384.8    6.511      29.642
2015    5       20    12  36    4.3570   384.7    6.514      29.623
2015    5       20    12  42    4.3571   384.5    6.516      29.605
2015    5       20    12  47    4.3571   384.4    6.518      29.587
2015    5       20    12  53    4.3571   384.2    6.521      29.568
2015    5       20    12  59    4.3572   384.1    6.523      29.549
2015    5       20    13   4    4.3572   383.9    6.525      29.530
2015    5       20    13  10    4.3573   383.8    6.528      29.512
2015    5       20    13  16    4.3573   383.6    6.530      29.493
2015    5       20    13  21    4.3574   383.5    6.532      29.474
2015    5       20    13  27    4.3574   383.3    6.534      29.454
2015    5       20    13  33    4.3575   383.1    6.536      29.435
2015    5       20    13  38    4.3576   383.0    6.538      29.416
2015    5       20    13  44    4.3577   382.8    6.540      29.397
2015    5       20    13  50    4.3578   382.7    6.542      29.378
2015    5       20    13  55    4.3579   382.5    6.544      29.359
2015    5       20    14   1    4.3580   382.4    6.546      29.340
2015    5       20    14   7    4.3581   382.2    6.548      29.320
2015    5       20    14  12    4.3583   382.1    6.550      29.301
2015    5       20    14  18    4.3584   381.9    6.552      29.282
2015    5       20    14  24    4.3586   381.8    6.554      29.263
2015    5       20    14  29    4.3588   381.6    6.556      29.244
2015    5       20    14  35    4.3590   381.4    6.558      29.224
2015    5       20    14  41    4.3592   381.3    6.560      29.205
2015    5       20    14  46    4.3594   381.1    6.562      29.186
2015    5       20    14  52    4.3597   381.0    6.564      29.166
2015    5       20    14  58    4.3599   380.8    6.565      29.147
2015    5       20    15   3    4.3602   380.7    6.567      29.128
2015    5       20    15   9    4.3605   380.5    6.569      29.108
2015    5       20    15  15    4.3608   380.3    6.571      29.089
2015    5       20    15  20    4.3611   380.2    6.573      29.070
2015    5       20    15  26    4.3614   380.0    6.575      29.050
2015    5       20    15  32    4.3617   379.9    6.576      29.030
2015    5       20    15  37    4.3621   379.7    6.578      29.011
2015    5       20    15  43    4.3624   379.6    6.580      28.991
2015    5       20    15  49    4.3628   379.4    6.582      28.972
2015    5       20    15  54    4.3632   379.2    6.584      28.952
2015    5       20    16   0    4.3636   379.1    6.586      28.932
2015    5       20    16   5    4.3640   378.9    6.588      28.913
2015    5       20    16  11    4.3645   378.8    6.590      28.893
2015    5       20    16  17    4.3649   378.6    6.592      28.873
2015    5       20    16  22    4.3654   378.4    6.594      28.854
2015    5       20    16  28    4.3659   378.3    6.596      28.834
2015    5       20    16  34    4.3664   378.1    6.598      28.814
2015    5       20    16  39    4.3670   377.9    6.600      28.795
2015    5       20    16  45    4.3675   377.8    6.603      28.775
2015    5       20    16  51    4.3681   377.6    6.605      28.756
2015    5       20    16  56    4.3688   377.5    6.608      28.736
2015    5       20    17   2    4.3694   377.3    6.610      28.717
2015    5       20    17   8    4.3701   377.1    6.613      28.698
2015    5       20    17  13    4.3708   377.0    6.616      28.679
2015    5       20    17  19    4.3716   376.8    6.619      28.660
2015    5       20    17  25    4.3723   376.6    6.622      28.641
2015    5       20    17  30    4.3731   376.5    6.626      28.622
2015    5       20    17  36    4.3740   376.3    6.629      28.604
2015    5       20    17  42    4.3749   376.1    6.633      28.586
2015    5       20    17  47    4.3758   376.0    6.637      28.568
2015    5       20    17  53    4.3768   375.8    6.641      28.550
2015    5       20    17  59    4.3778   375.6    6.645      28.533
2015    5       20    18   4    4.3789   375.5    6.650      28.516
2015    5       20    18  10    4.3800   375.3    6.654      28.499
2015    5       20    18  16    4.3811   375.1    6.659      28.483
2015    5       20    18  21    4.3823   375.0    6.664      28.467
2015    5       20    18  27    4.3836   374.8    6.670      28.451
2015    5       20    18  33    4.3849   374.6    6.675      28.435
2015    5       20    18  38    4.3862   374.5    6.681      28.420
2015    5       20    18  44    4.3876   374.3    6.687      28.405
2015    5       20    18  50    4.3890   374.1    6.694      28.391
2015    5       20    18  55    4.3905   374.0    6.700      28.377
2015    5       20    19   1    4.3920   373.8    6.707      28.363
2015    5       20    19   7    4.3936   373.7    6.714      28.349
2015    5       20    19  12    4.3952   373.5    6.721      28.337
2015    5       20    19  18    4.3969   373.3    6.729      28.324
2015    5       20    19  24    4.3986   373.2    6.737      28.312
2015    5       20    19  29    4.4004   373.0    6.745      28.300
2015    5       20    19  35    4.4023   372.8    6.754      28.289
2015    5       20    19  41    4.4041   372.6    6.762      28.279
2015    5       20    19  46    4.4061   372.5    6.771      28.269
2015    5       20    19  52    4.4081   372.3    6.781      28.259
2015    5       20    19  58    4.4102   372.1    6.790      28.250
2015    5       20    20   3    4.4123   372.0    6.800      28.242
2015    5       20    20   9    4.4146   371.8    6.810      28.234
2015    5       20    20  15    4.4168   371.6    6.821      28.227
2015    5       20    20  20    4.4192   371.5    6.831      28.221
2015    5       20    20  26    4.4215   371.3    6.842      28.215
2015    5       20    20  32    4.4241   371.1    6.854      28.210
2015    5       20    20  37    4.4266   370.9    6.865      28.206
2015    5       20    20  43    4.4293   370.8    6.877      28.203
2015    5       20    20  49    4.4321   370.6    6.889      28.200
2015    5       20    20  54    4.4349   370.5    6.902      28.198
2015    5       20    21   0    4.4378   370.3    6.914      28.197
2015    5       20    21   6    4.4407   370.1    6.927      28.196
2015    5       20    21  11    4.4437   370.0    6.941      28.196
2015    5       20    21  17    4.4467   369.8    6.954      28.197
2015    5       20    21  23    4.4497   369.7    6.968      28.200
2015    5       20    21  28    4.4528   369.5    6.981      28.204
2015    5       20    21  34    4.4558   369.4    6.995      28.209
2015    5       20    21  40    4.4589   369.2    7.008      28.216
2015    5       20    21  45    4.4619   369.1    7.022      28.224
2015    5       20    21  51    4.4650   368.9    7.035      28.233
2015    5       20    21  57    4.4681   368.8    7.048      28.243
2015    5       20    22   2    4.4712   368.6    7.061      28.254
2015    5       20    22   8    4.4742   368.5    7.073      28.265
2015    5       20    22  14    4.4774   368.4    7.086      28.276
2015    5       20    22  19    4.4804   368.2    7.098      28.287
2015    5       20    22  25    4.4835   368.1    7.110      28.298
2015    5       20    22  31    4.4866   367.9    7.123      28.309
2015    5       20    22  36    4.4897   367.8    7.135      28.319
2015    5       20    22  42    4.4928   367.7    7.146      28.329
2015    5       20    22  48    4.4959   367.5    7.158      28.339
2015    5       20    22  53    4.4989   367.4    7.170      28.349
2015    5       20    22  59    4.5021   367.3    7.181      28.358
2015    5       20    23   5    4.5052   367.1    7.192      28.367
2015    5       20    23  10    4.5083   367.0    7.204      28.376
2015    5       20    23  16    4.5114   366.9    7.215      28.384
2015    5       20    23  22    4.5145   366.7    7.226      28.392
2015    5       20    23  27    4.5177   366.6    7.237      28.400
2015    5       20    23  33    4.5209   366.5    7.248      28.407
2015    5       20    23  39    4.5240   366.3    7.259      28.415
2015    5       20    23  44    4.5272   366.2    7.270      28.422
2015    5       20    23  50    4.5304   366.1    7.280      28.428
2015    5       20    23  56    4.5336   365.9    7.291      28.435
2015    5       21     0   1    4.5367   365.8    7.302      28.441
