year    month   day   hour  minute  B_enl V_enl   n_enl       T_enl
[year] [month] [day] [hour][minute] [nT]  [km/s]  [cm-3]      [kK]
2015    5       25     0   5    6.2403   444.0    8.974      49.313
2015    5       25     0  11    6.2382   444.3    8.955      49.334
2015    5       25     0  17    6.2358   444.7    8.936      49.354
2015    5       25     0  23    6.2332   445.0    8.917      49.373
2015    5       25     0  29    6.2304   445.4    8.897      49.390
2015    5       25     0  35    6.2275   445.7    8.877      49.405
2015    5       25     0  41    6.2244   446.1    8.856      49.417
2015    5       25     0  47    6.2211   446.5    8.836      49.430
2015    5       25     0  53    6.2177   446.8    8.814      49.440
2015    5       25     1   0    6.2142   447.2    8.793      49.450
2015    5       25     1   6    6.2106   447.5    8.771      49.458
2015    5       25     1  12    6.2069   447.9    8.749      49.465
2015    5       25     1  18    6.2031   448.3    8.726      49.473
2015    5       25     1  24    6.1991   448.7    8.703      49.483
2015    5       25     1  30    6.1948   449.0    8.678      49.487
2015    5       25     1  36    6.1902   449.4    8.653      49.483
2015    5       25     1  42    6.1853   449.7    8.627      49.474
2015    5       25     1  48    6.1803   450.0    8.601      49.461
2015    5       25     1  54    6.1751   450.4    8.574      49.445
2015    5       25     2   0    6.1698   450.7    8.548      49.426
2015    5       25     2   6    6.1645   450.9    8.523      49.402
2015    5       25     2  13    6.1593   451.2    8.498      49.378
2015    5       25     2  19    6.1543   451.5    8.475      49.359
2015    5       25     2  25    6.1496   451.7    8.452      49.346
2015    5       25     2  31    6.1452   452.0    8.431      49.336
2015    5       25     2  37    6.1409   452.3    8.410      49.329
2015    5       25     2  43    6.1369   452.6    8.390      49.325
2015    5       25     2  49    6.1331   452.9    8.371      49.323
2015    5       25     2  55    6.1296   453.2    8.353      49.321
2015    5       25     3   1    6.1262   453.5    8.336      49.320
2015    5       25     3   7    6.1229   453.7    8.319      49.319
2015    5       25     3  13    6.1198   454.0    8.302      49.316
2015    5       25     3  19    6.1167   454.2    8.286      49.313
2015    5       25     3  25    6.1137   454.4    8.271      49.311
2015    5       25     3  32    6.1107   454.6    8.256      49.309
2015    5       25     3  38    6.1076   454.9    8.240      49.308
2015    5       25     3  44    6.1044   455.1    8.225      49.308
2015    5       25     3  50    6.1013   455.3    8.210      49.311
2015    5       25     3  56    6.0981   455.6    8.196      49.318
2015    5       25     4   2    6.0949   455.9    8.181      49.328
2015    5       25     4   8    6.0917   456.1    8.166      49.340
2015    5       25     4  14    6.0885   456.4    8.152      49.353
2015    5       25     4  20    6.0853   456.7    8.138      49.368
2015    5       25     4  26    6.0821   457.0    8.124      49.383
2015    5       25     4  32    6.0790   457.3    8.110      49.398
2015    5       25     4  38    6.0758   457.6    8.096      49.412
2015    5       25     4  44    6.0726   457.8    8.082      49.424
2015    5       25     4  51    6.0694   458.1    8.069      49.434
2015    5       25     4  57    6.0662   458.3    8.055      49.443
2015    5       25     5   3    6.0629   458.6    8.041      49.451
2015    5       25     5   9    6.0596   458.8    8.028      49.459
2015    5       25     5  15    6.0563   459.1    8.014      49.467
2015    5       25     5  21    6.0530   459.4    8.000      49.477
2015    5       25     5  27    6.0495   459.6    7.987      49.488
2015    5       25     5  33    6.0461   459.9    7.973      49.500
2015    5       25     5  39    6.0427   460.2    7.959      49.513
2015    5       25     5  45    6.0392   460.5    7.946      49.526
2015    5       25     5  51    6.0357   460.8    7.932      49.541
2015    5       25     5  57    6.0321   461.1    7.919      49.556
2015    5       25     6   3    6.0286   461.4    7.905      49.571
2015    5       25     6  10    6.0250   461.6    7.892      49.587
2015    5       25     6  16    6.0213   461.9    7.879      49.605
2015    5       25     6  22    6.0177   462.3    7.866      49.622
2015    5       25     6  28    6.0140   462.6    7.853      49.639
2015    5       25     6  34    6.0102   462.9    7.839      49.656
2015    5       25     6  40    6.0063   463.2    7.826      49.672
2015    5       25     6  46    6.0024   463.5    7.812      49.686
2015    5       25     6  52    5.9984   463.8    7.799      49.700
2015    5       25     6  58    5.9944   464.1    7.785      49.711
2015    5       25     7   4    5.9902   464.4    7.771      49.722
2015    5       25     7  10    5.9860   464.6    7.757      49.732
2015    5       25     7  16    5.9818   464.9    7.743      49.740
2015    5       25     7  22    5.9775   465.2    7.729      49.748
2015    5       25     7  29    5.9731   465.5    7.714      49.754
2015    5       25     7  35    5.9686   465.8    7.699      49.760
2015    5       25     7  41    5.9639   466.1    7.684      49.766
2015    5       25     7  47    5.9591   466.4    7.669      49.771
2015    5       25     7  53    5.9542   466.7    7.653      49.774
2015    5       25     7  59    5.9492   467.0    7.638      49.777
2015    5       25     8   5    5.9441   467.3    7.622      49.777
2015    5       25     8  11    5.9390   467.6    7.606      49.775
2015    5       25     8  17    5.9338   467.8    7.591      49.771
2015    5       25     8  23    5.9287   468.1    7.575      49.764
2015    5       25     8  29    5.9236   468.3    7.560      49.757
2015    5       25     8  35    5.9186   468.6    7.545      49.750
2015    5       25     8  41    5.9137   468.8    7.530      49.742
2015    5       25     8  48    5.9089   469.0    7.516      49.731
2015    5       25     8  54    5.9043   469.2    7.502      49.720
2015    5       25     9   0    5.8999   469.4    7.488      49.708
2015    5       25     9   6    5.8956   469.6    7.475      49.698
2015    5       25     9  12    5.8916   469.8    7.462      49.690
2015    5       25     9  18    5.8876   469.9    7.450      49.683
2015    5       25     9  24    5.8838   470.1    7.438      49.678
2015    5       25     9  30    5.8801   470.3    7.426      49.676
2015    5       25     9  36    5.8765   470.6    7.415      49.679
2015    5       25     9  42    5.8730   470.8    7.403      49.687
2015    5       25     9  48    5.8696   471.1    7.393      49.699
2015    5       25     9  54    5.8663   471.3    7.382      49.712
2015    5       25    10   0    5.8630   471.6    7.371      49.728
2015    5       25    10   7    5.8597   471.9    7.361      49.746
2015    5       25    10  13    5.8565   472.1    7.350      49.764
2015    5       25    10  19    5.8533   472.4    7.339      49.780
2015    5       25    10  25    5.8500   472.7    7.328      49.794
2015    5       25    10  31    5.8467   473.0    7.317      49.806
2015    5       25    10  37    5.8432   473.2    7.306      49.817
2015    5       25    10  43    5.8397   473.5    7.295      49.827
2015    5       25    10  49    5.8361   473.7    7.283      49.836
2015    5       25    10  55    5.8323   474.0    7.271      49.844
2015    5       25    11   1    5.8285   474.2    7.260      49.852
2015    5       25    11   7    5.8246   474.5    7.248      49.859
2015    5       25    11  13    5.8206   474.8    7.236      49.866
2015    5       25    11  19    5.8166   475.0    7.223      49.872
2015    5       25    11  26    5.8125   475.3    7.211      49.879
2015    5       25    11  32    5.8084   475.5    7.199      49.884
2015    5       25    11  38    5.8044   475.8    7.187      49.889
2015    5       25    11  44    5.8004   476.0    7.175      49.893
2015    5       25    11  50    5.7965   476.3    7.164      49.897
2015    5       25    11  56    5.7925   476.5    7.152      49.901
2015    5       25    12   2    5.7886   476.7    7.140      49.905
2015    5       25    12   8    5.7847   477.0    7.129      49.909
2015    5       25    12  14    5.7809   477.2    7.117      49.913
2015    5       25    12  20    5.7771   477.4    7.106      49.917
2015    5       25    12  26    5.7733   477.7    7.095      49.922
2015    5       25    12  32    5.7696   477.9    7.084      49.928
2015    5       25    12  38    5.7659   478.2    7.073      49.936
2015    5       25    12  45    5.7621   478.4    7.062      49.944
2015    5       25    12  51    5.7584   478.7    7.051      49.953
2015    5       25    12  57    5.7548   478.9    7.040      49.962
2015    5       25    13   3    5.7511   479.2    7.030      49.973
2015    5       25    13   9    5.7474   479.5    7.019      49.983
2015    5       25    13  15    5.7438   479.7    7.009      49.994
2015    5       25    13  21    5.7401   480.0    6.998      50.003
2015    5       25    13  27    5.7364   480.2    6.988      50.013
2015    5       25    13  33    5.7326   480.5    6.977      50.022
2015    5       25    13  39    5.7289   480.7    6.967      50.030
2015    5       25    13  45    5.7251   481.0    6.956      50.038
2015    5       25    13  51    5.7214   481.2    6.946      50.046
2015    5       25    13  57    5.7176   481.5    6.935      50.053
2015    5       25    14   4    5.7138   481.7    6.924      50.060
2015    5       25    14  10    5.7100   482.0    6.914      50.066
2015    5       25    14  16    5.7062   482.2    6.903      50.072
2015    5       25    14  22    5.7025   482.4    6.893      50.078
2015    5       25    14  28    5.6987   482.7    6.883      50.084
2015    5       25    14  34    5.6950   482.9    6.872      50.089
2015    5       25    14  40    5.6913   483.1    6.862      50.095
2015    5       25    14  46    5.6875   483.4    6.852      50.100
2015    5       25    14  52    5.6838   483.6    6.841      50.105
2015    5       25    14  58    5.6802   483.8    6.831      50.110
2015    5       25    15   4    5.6765   484.1    6.821      50.115
2015    5       25    15  10    5.6729   484.3    6.811      50.120
2015    5       25    15  16    5.6693   484.5    6.801      50.125
2015    5       25    15  23    5.6657   484.8    6.791      50.130
2015    5       25    15  29    5.6621   485.0    6.781      50.136
2015    5       25    15  35    5.6585   485.2    6.771      50.141
2015    5       25    15  41    5.6550   485.4    6.761      50.146
2015    5       25    15  47    5.6515   485.7    6.751      50.152
2015    5       25    15  53    5.6480   485.9    6.742      50.157
2015    5       25    15  59    5.6446   486.1    6.732      50.163
2015    5       25    16   5    5.6411   486.3    6.722      50.169
2015    5       25    16  11    5.6377   486.6    6.713      50.174
2015    5       25    16  17    5.6343   486.8    6.703      50.180
2015    5       25    16  23    5.6309   487.0    6.694      50.185
2015    5       25    16  29    5.6275   487.2    6.684      50.191
2015    5       25    16  35    5.6242   487.5    6.675      50.197
2015    5       25    16  42    5.6208   487.7    6.666      50.202
2015    5       25    16  48    5.6174   487.9    6.656      50.208
2015    5       25    16  54    5.6141   488.1    6.647      50.213
2015    5       25    17   0    5.6108   488.3    6.638      50.219
2015    5       25    17   6    5.6075   488.5    6.628      50.224
2015    5       25    17  12    5.6041   488.8    6.619      50.230
2015    5       25    17  18    5.6008   489.0    6.610      50.235
2015    5       25    17  24    5.5975   489.2    6.601      50.240
2015    5       25    17  30    5.5941   489.4    6.591      50.246
2015    5       25    17  36    5.5908   489.6    6.582      50.251
2015    5       25    17  42    5.5875   489.8    6.573      50.257
2015    5       25    17  48    5.5842   490.1    6.564      50.263
2015    5       25    17  54    5.5809   490.3    6.555      50.268
2015    5       25    18   1    5.5776   490.5    6.546      50.274
2015    5       25    18   7    5.5742   490.7    6.537      50.279
2015    5       25    18  13    5.5709   490.9    6.528      50.285
2015    5       25    18  19    5.5676   491.1    6.519      50.290
2015    5       25    18  25    5.5643   491.3    6.510      50.296
2015    5       25    18  31    5.5610   491.6    6.501      50.301
2015    5       25    18  37    5.5577   491.8    6.492      50.307
2015    5       25    18  43    5.5544   492.0    6.483      50.313
2015    5       25    18  49    5.5511   492.2    6.475      50.319
2015    5       25    18  55    5.5479   492.4    6.466      50.324
2015    5       25    19   1    5.5446   492.6    6.457      50.330
2015    5       25    19   7    5.5413   492.8    6.448      50.336
2015    5       25    19  13    5.5381   493.0    6.440      50.342
2015    5       25    19  20    5.5348   493.2    6.431      50.348
2015    5       25    19  26    5.5316   493.4    6.422      50.353
2015    5       25    19  32    5.5284   493.7    6.414      50.359
2015    5       25    19  38    5.5251   493.9    6.405      50.365
2015    5       25    19  44    5.5219   494.1    6.397      50.371
2015    5       25    19  50    5.5187   494.3    6.388      50.376
2015    5       25    19  56    5.5155   494.5    6.380      50.382
2015    5       25    20   2    5.5123   494.7    6.372      50.388
2015    5       25    20   8    5.5091   494.9    6.363      50.394
2015    5       25    20  14    5.5059   495.1    6.355      50.400
2015    5       25    20  20    5.5028   495.3    6.347      50.406
2015    5       25    20  26    5.4996   495.5    6.338      50.412
2015    5       25    20  32    5.4964   495.7    6.330      50.418
2015    5       25    20  39    5.4933   495.9    6.322      50.424
2015    5       25    20  45    5.4902   496.1    6.314      50.431
2015    5       25    20  51    5.4870   496.3    6.306      50.437
2015    5       25    20  57    5.4839   496.5    6.298      50.443
2015    5       25    21   3    5.4808   496.7    6.290      50.450
2015    5       25    21   9    5.4778   496.9    6.283      50.456
2015    5       25    21  15    5.4747   497.1    6.275      50.463
2015    5       25    21  21    5.4716   497.3    6.267      50.469
2015    5       25    21  27    5.4686   497.5    6.260      50.476
2015    5       25    21  33    5.4655   497.7    6.252      50.483
2015    5       25    21  39    5.4625   497.9    6.244      50.490
2015    5       25    21  45    5.4595   498.1    6.237      50.496
2015    5       25    21  51    5.4565   498.3    6.230      50.503
2015    5       25    21  58    5.4535   498.5    6.222      50.510
2015    5       25    22   4    5.4505   498.7    6.215      50.517
2015    5       25    22  10    5.4475   498.9    6.207      50.524
2015    5       25    22  16    5.4446   499.1    6.200      50.531
2015    5       25    22  22    5.4416   499.3    6.193      50.537
2015    5       25    22  28    5.4386   499.5    6.185      50.544
2015    5       25    22  34    5.4357   499.7    6.178      50.550
2015    5       25    22  40    5.4328   499.9    6.171      50.557
2015    5       25    22  46    5.4299   500.0    6.164      50.563
2015    5       25    22  52    5.4269   500.2    6.156      50.570
2015    5       25    22  58    5.4240   500.4    6.149      50.576
2015    5       25    23   4    5.4211   500.6    6.142      50.582
2015    5       25    23  10    5.4182   500.8    6.135      50.588
2015    5       25    23  17    5.4154   501.0    6.128      50.594
2015    5       25    23  23    5.4125   501.2    6.120      50.600
2015    5       25    23  29    5.4096   501.4    6.113      50.606
2015    5       25    23  35    5.4067   501.6    6.106      50.612
2015    5       25    23  41    5.4039   501.7    6.099      50.618
2015    5       25    23  47    5.4010   501.9    6.092      50.624
2015    5       25    23  53    5.3982   502.1    6.085      50.630
2015    5       25    23  59    5.3953   502.3    6.078      50.636
2015    5       26     0   5    5.3925   502.5    6.070      50.642
2015    5       26     0  11    5.3896   502.7    6.063      50.647
2015    5       26     0  17    5.3868   502.9    6.056      50.653
2015    5       26     0  23    5.3840   503.1    6.049      50.659
2015    5       26     0  29    5.3812   503.2    6.042      50.665
2015    5       26     0  36    5.3784   503.4    6.035      50.671
2015    5       26     0  42    5.3756   503.6    6.028      50.677
2015    5       26     0  48    5.3728   503.8    6.021      50.682
2015    5       26     0  54    5.3700   504.0    6.014      50.688
2015    5       26     1   0    5.3672   504.2    6.007      50.694
2015    5       26     1   6    5.3645   504.3    6.000      50.700
2015    5       26     1  12    5.3617   504.5    5.994      50.706
2015    5       26     1  18    5.3590   504.7    5.987      50.712
2015    5       26     1  24    5.3562   504.9    5.980      50.718
2015    5       26     1  30    5.3535   505.1    5.973      50.725
2015    5       26     1  36    5.3507   505.2    5.966      50.731
2015    5       26     1  42    5.3480   505.4    5.960      50.737
2015    5       26     1  48    5.3453   505.6    5.953      50.743
2015    5       26     1  55    5.3426   505.8    5.946      50.750
2015    5       26     2   1    5.3399   506.0    5.940      50.756
2015    5       26     2   7    5.3372   506.1    5.933      50.763
2015    5       26     2  13    5.3345   506.3    5.927      50.769
2015    5       26     2  19    5.3319   506.5    5.920      50.776
2015    5       26     2  25    5.3292   506.7    5.914      50.782
2015    5       26     2  31    5.3266   506.8    5.907      50.789
2015    5       26     2  37    5.3239   507.0    5.901      50.795
2015    5       26     2  43    5.3213   507.2    5.894      50.802
2015    5       26     2  49    5.3187   507.4    5.888      50.809
2015    5       26     2  55    5.3160   507.5    5.882      50.815
2015    5       26     3   1    5.3134   507.7    5.875      50.822
2015    5       26     3   7    5.3108   507.9    5.869      50.829
2015    5       26     3  14    5.3083   508.1    5.863      50.836
2015    5       26     3  20    5.3057   508.2    5.857      50.842
2015    5       26     3  26    5.3031   508.4    5.851      50.849
2015    5       26     3  32    5.3006   508.6    5.845      50.856
2015    5       26     3  38    5.2980   508.7    5.839      50.863
2015    5       26     3  44    5.2955   508.9    5.832      50.869
2015    5       26     3  50    5.2930   509.1    5.826      50.876
2015    5       26     3  56    5.2904   509.3    5.820      50.883
2015    5       26     4   2    5.2880   509.4    5.815      50.890
2015    5       26     4   8    5.2855   509.6    5.809      50.897
2015    5       26     4  14    5.2830   509.8    5.803      50.904
2015    5       26     4  20    5.2805   509.9    5.797      50.910
2015    5       26     4  26    5.2781   510.1    5.791      50.917
2015    5       26     4  33    5.2756   510.3    5.785      50.924
2015    5       26     4  39    5.2732   510.4    5.780      50.931
2015    5       26     4  45    5.2708   510.6    5.774      50.938
2015    5       26     4  51    5.2684   510.8    5.768      50.945
2015    5       26     4  57    5.2660   510.9    5.762      50.952
2015    5       26     5   3    5.2636   511.1    5.757      50.959
2015    5       26     5   9    5.2612   511.3    5.751      50.966
2015    5       26     5  15    5.2588   511.4    5.746      50.973
2015    5       26     5  21    5.2565   511.6    5.740      50.980
2015    5       26     5  27    5.2541   511.8    5.734      50.987
2015    5       26     5  33    5.2518   511.9    5.729      50.995
2015    5       26     5  39    5.2495   512.1    5.724      51.002
2015    5       26     5  45    5.2471   512.3    5.718      51.009
2015    5       26     5  52    5.2448   512.4    5.713      51.017
2015    5       26     5  58    5.2425   512.6    5.707      51.024
2015    5       26     6   4    5.2402   512.7    5.702      51.032
2015    5       26     6  10    5.2379   512.9    5.696      51.039
2015    5       26     6  16    5.2356   513.1    5.691      51.047
2015    5       26     6  22    5.2334   513.2    5.686      51.054
2015    5       26     6  28    5.2311   513.4    5.680      51.062
2015    5       26     6  34    5.2288   513.6    5.675      51.070
2015    5       26     6  40    5.2266   513.7    5.670      51.077
2015    5       26     6  46    5.2243   513.9    5.665      51.085
2015    5       26     6  52    5.2221   514.0    5.659      51.093
2015    5       26     6  58    5.2198   514.2    5.654      51.101
2015    5       26     7   4    5.2176   514.4    5.649      51.109
2015    5       26     7  11    5.2154   514.5    5.644      51.117
2015    5       26     7  17    5.2132   514.7    5.638      51.125
2015    5       26     7  23    5.2109   514.8    5.633      51.133
2015    5       26     7  29    5.2087   515.0    5.628      51.141
2015    5       26     7  35    5.2065   515.1    5.623      51.148
2015    5       26     7  41    5.2043   515.3    5.617      51.157
2015    5       26     7  47    5.2021   515.5    5.612      51.164
2015    5       26     7  53    5.2000   515.6    5.607      51.173
2015    5       26     7  59    5.1978   515.8    5.602      51.181
2015    5       26     8   5    5.1956   515.9    5.597      51.189
2015    5       26     8  11    5.1935   516.1    5.592      51.197
2015    5       26     8  17    5.1913   516.2    5.586      51.205
2015    5       26     8  23    5.1892   516.4    5.581      51.213
2015    5       26     8  30    5.1870   516.5    5.576      51.221
2015    5       26     8  36    5.1849   516.7    5.571      51.229
2015    5       26     8  42    5.1828   516.8    5.566      51.237
2015    5       26     8  48    5.1807   517.0    5.561      51.245
2015    5       26     8  54    5.1786   517.2    5.556      51.253
2015    5       26     9   0    5.1765   517.3    5.551      51.261
2015    5       26     9   6    5.1744   517.5    5.546      51.269
2015    5       26     9  12    5.1723   517.6    5.540      51.277
2015    5       26     9  18    5.1703   517.8    5.535      51.285
2015    5       26     9  24    5.1682   517.9    5.530      51.293
2015    5       26     9  30    5.1662   518.1    5.525      51.301
2015    5       26     9  36    5.1641   518.2    5.521      51.309
2015    5       26     9  42    5.1621   518.4    5.516      51.318
2015    5       26     9  49    5.1601   518.5    5.511      51.326
2015    5       26     9  55    5.1581   518.7    5.506      51.334
2015    5       26    10   1    5.1561   518.8    5.501      51.342
2015    5       26    10   7    5.1541   519.0    5.496      51.350
2015    5       26    10  13    5.1521   519.1    5.491      51.358
2015    5       26    10  19    5.1502   519.3    5.487      51.367
2015    5       26    10  25    5.1482   519.4    5.482      51.375
2015    5       26    10  31    5.1462   519.6    5.477      51.383
2015    5       26    10  37    5.1443   519.7    5.472      51.392
2015    5       26    10  43    5.1424   519.9    5.468      51.400
2015    5       26    10  49    5.1404   520.0    5.463      51.409
2015    5       26    10  55    5.1385   520.2    5.459      51.417
2015    5       26    11   1    5.1366   520.3    5.454      51.426
2015    5       26    11   8    5.1347   520.5    5.449      51.435
2015    5       26    11  14    5.1328   520.6    5.445      51.444
2015    5       26    11  20    5.1310   520.8    5.440      51.452
2015    5       26    11  26    5.1291   520.9    5.436      51.461
2015    5       26    11  32    5.1272   521.1    5.432      51.470
2015    5       26    11  38    5.1254   521.2    5.427      51.479
2015    5       26    11  44    5.1235   521.3    5.423      51.488
2015    5       26    11  50    5.1217   521.5    5.418      51.497
2015    5       26    11  56    5.1199   521.6    5.414      51.506
2015    5       26    12   2    5.1181   521.8    5.410      51.515
2015    5       26    12   8    5.1163   521.9    5.405      51.525
2015    5       26    12  14    5.1145   522.1    5.401      51.534
2015    5       26    12  20    5.1127   522.2    5.397      51.543
2015    5       26    12  27    5.1109   522.4    5.393      51.553
2015    5       26    12  33    5.1091   522.5    5.388      51.562
2015    5       26    12  39    5.1074   522.7    5.384      51.572
2015    5       26    12  45    5.1056   522.8    5.380      51.581
2015    5       26    12  51    5.1039   522.9    5.376      51.591
2015    5       26    12  57    5.1021   523.1    5.372      51.600
2015    5       26    13   3    5.1004   523.2    5.368      51.610
2015    5       26    13   9    5.0987   523.4    5.363      51.620
2015    5       26    13  15    5.0970   523.5    5.359      51.630
2015    5       26    13  21    5.0953   523.7    5.355      51.639
2015    5       26    13  27    5.0936   523.8    5.351      51.649
2015    5       26    13  33    5.0919   524.0    5.347      51.659
2015    5       26    13  39    5.0902   524.1    5.343      51.669
2015    5       26    13  46    5.0886   524.2    5.339      51.679
2015    5       26    13  52    5.0869   524.4    5.335      51.690
2015    5       26    13  58    5.0852   524.5    5.331      51.700
2015    5       26    14   4    5.0836   524.7    5.327      51.710
2015    5       26    14  10    5.0819   524.8    5.322      51.720
2015    5       26    14  16    5.0803   525.0    5.318      51.730
2015    5       26    14  22    5.0786   525.1    5.314      51.740
2015    5       26    14  28    5.0770   525.2    5.310      51.751
2015    5       26    14  34    5.0754   525.4    5.306      51.761
2015    5       26    14  40    5.0738   525.5    5.302      51.771
2015    5       26    14  46    5.0721   525.7    5.298      51.782
2015    5       26    14  52    5.0705   525.8    5.294      51.792
2015    5       26    14  58    5.0689   525.9    5.290      51.803
2015    5       26    15   5    5.0673   526.1    5.286      51.813
2015    5       26    15  11    5.0657   526.2    5.282      51.823
2015    5       26    15  17    5.0641   526.4    5.278      51.834
2015    5       26    15  23    5.0625   526.5    5.274      51.844
2015    5       26    15  29    5.0609   526.6    5.270      51.855
2015    5       26    15  35    5.0593   526.8    5.266      51.865
2015    5       26    15  41    5.0577   526.9    5.262      51.875
2015    5       26    15  47    5.0561   527.1    5.257      51.886
2015    5       26    15  53    5.0545   527.2    5.253      51.896
2015    5       26    15  59    5.0529   527.3    5.249      51.907
2015    5       26    16   5    5.0513   527.5    5.245      51.917
2015    5       26    16  11    5.0497   527.6    5.241      51.928
2015    5       26    16  17    5.0482   527.8    5.237      51.938
2015    5       26    16  24    5.0466   527.9    5.233      51.949
2015    5       26    16  30    5.0450   528.0    5.230      51.960
2015    5       26    16  36    5.0435   528.2    5.226      51.971
2015    5       26    16  42    5.0419   528.3    5.222      51.981
2015    5       26    16  48    5.0404   528.5    5.218      51.992
2015    5       26    16  54    5.0389   528.6    5.214      52.003
2015    5       26    17   0    5.0373   528.7    5.210      52.014
2015    5       26    17   6    5.0358   528.9    5.206      52.026
2015    5       26    17  12    5.0343   529.0    5.203      52.037
2015    5       26    17  18    5.0328   529.1    5.199      52.048
2015    5       26    17  24    5.0313   529.3    5.195      52.060
2015    5       26    17  30    5.0298   529.4    5.192      52.071
2015    5       26    17  36    5.0284   529.6    5.188      52.083
2015    5       26    17  43    5.0269   529.7    5.184      52.095
2015    5       26    17  49    5.0254   529.8    5.181      52.107
2015    5       26    17  55    5.0240   530.0    5.177      52.120
2015    5       26    18   1    5.0225   530.1    5.174      52.132
2015    5       26    18   7    5.0211   530.2    5.170      52.144
2015    5       26    18  13    5.0197   530.4    5.167      52.157
2015    5       26    18  19    5.0183   530.5    5.163      52.170
2015    5       26    18  25    5.0169   530.7    5.160      52.183
2015    5       26    18  31    5.0155   530.8    5.157      52.196
2015    5       26    18  37    5.0141   530.9    5.153      52.209
2015    5       26    18  43    5.0128   531.1    5.150      52.222
2015    5       26    18  49    5.0114   531.2    5.147      52.235
2015    5       26    18  55    5.0100   531.3    5.143      52.249
2015    5       26    19   2    5.0087   531.5    5.140      52.262
2015    5       26    19   8    5.0074   531.6    5.137      52.276
2015    5       26    19  14    5.0060   531.8    5.134      52.289
2015    5       26    19  20    5.0047   531.9    5.130      52.303
2015    5       26    19  26    5.0034   532.0    5.127      52.317
2015    5       26    19  32    5.0021   532.2    5.124      52.331
2015    5       26    19  38    5.0008   532.3    5.121      52.344
2015    5       26    19  44    4.9995   532.4    5.117      52.358
2015    5       26    19  50    4.9982   532.6    5.114      52.372
2015    5       26    19  56    4.9970   532.7    5.111      52.386
2015    5       26    20   2    4.9957   532.8    5.108      52.400
2015    5       26    20   8    4.9944   533.0    5.104      52.414
2015    5       26    20  14    4.9931   533.1    5.101      52.428
2015    5       26    20  21    4.9919   533.3    5.098      52.442
2015    5       26    20  27    4.9906   533.4    5.094      52.456
2015    5       26    20  33    4.9894   533.5    5.091      52.470
2015    5       26    20  39    4.9881   533.7    5.088      52.484
2015    5       26    20  45    4.9869   533.8    5.085      52.498
2015    5       26    20  51    4.9856   533.9    5.081      52.512
2015    5       26    20  57    4.9844   534.1    5.078      52.526
2015    5       26    21   3    4.9832   534.2    5.075      52.541
2015    5       26    21   9    4.9819   534.4    5.071      52.555
2015    5       26    21  15    4.9807   534.5    5.068      52.569
2015    5       26    21  21    4.9795   534.6    5.065      52.583
2015    5       26    21  27    4.9782   534.8    5.062      52.597
2015    5       26    21  33    4.9770   534.9    5.058      52.611
2015    5       26    21  40    4.9757   535.1    5.055      52.625
2015    5       26    21  46    4.9745   535.2    5.052      52.639
2015    5       26    21  52    4.9733   535.3    5.048      52.653
2015    5       26    21  58    4.9720   535.5    5.045      52.667
2015    5       26    22   4    4.9708   535.6    5.042      52.681
2015    5       26    22  10    4.9695   535.8    5.038      52.695
2015    5       26    22  16    4.9683   535.9    5.035      52.709
2015    5       26    22  22    4.9670   536.0    5.032      52.723
2015    5       26    22  28    4.9658   536.2    5.028      52.737
2015    5       26    22  34    4.9645   536.3    5.025      52.751
2015    5       26    22  40    4.9633   536.5    5.022      52.765
2015    5       26    22  46    4.9620   536.6    5.018      52.779
2015    5       26    22  52    4.9607   536.7    5.015      52.793
2015    5       26    22  59    4.9595   536.9    5.012      52.807
2015    5       26    23   5    4.9582   537.0    5.009      52.821
2015    5       26    23  11    4.9570   537.2    5.005      52.835
2015    5       26    23  17    4.9557   537.3    5.002      52.849
2015    5       26    23  23    4.9545   537.4    4.999      52.863
2015    5       26    23  29    4.9532   537.6    4.996      52.877
2015    5       26    23  35    4.9520   537.7    4.992      52.891
2015    5       26    23  41    4.9507   537.9    4.989      52.905
2015    5       26    23  47    4.9495   538.0    4.986      52.919
2015    5       26    23  53    4.9482   538.1    4.983      52.934
2015    5       26    23  59    4.9470   538.3    4.979      52.948
2015    5       27     0   5    4.9458   538.4    4.976      52.963
2015    5       27     0  11    4.9445   538.6    4.973      52.977
2015    5       27     0  18    4.9433   538.7    4.970      52.992
2015    5       27     0  24    4.9421   538.8    4.967      53.007
2015    5       27     0  30    4.9409   539.0    4.964      53.022
2015    5       27     0  36    4.9397   539.1    4.961      53.037
2015    5       27     0  42    4.9384   539.3    4.958      53.052
2015    5       27     0  48    4.9372   539.4    4.954      53.068
2015    5       27     0  54    4.9361   539.5    4.951      53.083
2015    5       27     1   0    4.9349   539.7    4.948      53.099
2015    5       27     1   6    4.9337   539.8    4.945      53.115
2015    5       27     1  12    4.9325   540.0    4.942      53.131
2015    5       27     1  18    4.9314   540.1    4.939      53.147
2015    5       27     1  24    4.9302   540.2    4.936      53.163
2015    5       27     1  30    4.9291   540.4    4.933      53.179
2015    5       27     1  37    4.9279   540.5    4.930      53.196
2015    5       27     1  43    4.9268   540.7    4.928      53.212
2015    5       27     1  49    4.9257   540.8    4.925      53.229
2015    5       27     1  55    4.9246   540.9    4.922      53.246
2015    5       27     2   1    4.9235   541.1    4.919      53.263
2015    5       27     2   7    4.9224   541.2    4.916      53.280
2015    5       27     2  13    4.9213   541.4    4.913      53.297
2015    5       27     2  19    4.9202   541.5    4.910      53.315
2015    5       27     2  25    4.9191   541.7    4.907      53.332
2015    5       27     2  31    4.9181   541.8    4.904      53.349
2015    5       27     2  37    4.9170   541.9    4.901      53.367
2015    5       27     2  43    4.9159   542.1    4.898      53.384
2015    5       27     2  49    4.9149   542.2    4.895      53.402
2015    5       27     2  56    4.9138   542.4    4.892      53.420
2015    5       27     3   2    4.9128   542.5    4.889      53.437
2015    5       27     3   8    4.9117   542.7    4.886      53.455
2015    5       27     3  14    4.9107   542.8    4.883      53.473
2015    5       27     3  20    4.9096   543.0    4.880      53.491
2015    5       27     3  26    4.9085   543.1    4.877      53.509
2015    5       27     3  32    4.9075   543.2    4.874      53.527
2015    5       27     3  38    4.9064   543.4    4.871      53.544
2015    5       27     3  44    4.9053   543.5    4.868      53.562
2015    5       27     3  50    4.9042   543.7    4.865      53.580
2015    5       27     3  56    4.9032   543.8    4.862      53.597
2015    5       27     4   2    4.9021   544.0    4.859      53.615
2015    5       27     4   8    4.9009   544.1    4.856      53.632
2015    5       27     4  15    4.8998   544.3    4.853      53.649
2015    5       27     4  21    4.8987   544.4    4.850      53.666
2015    5       27     4  27    4.8976   544.6    4.847      53.683
2015    5       27     4  33    4.8965   544.7    4.844      53.700
2015    5       27     4  39    4.8953   544.9    4.841      53.717
2015    5       27     4  45    4.8942   545.0    4.838      53.734
2015    5       27     4  51    4.8931   545.2    4.835      53.751
2015    5       27     4  57    4.8919   545.3    4.831      53.768
2015    5       27     5   3    4.8908   545.5    4.828      53.785
2015    5       27     5   9    4.8897   545.6    4.825      53.802
2015    5       27     5  15    4.8885   545.8    4.822      53.819
2015    5       27     5  21    4.8874   545.9    4.819      53.836
2015    5       27     5  27    4.8863   546.1    4.817      53.853
2015    5       27     5  34    4.8851   546.2    4.814      53.870
2015    5       27     5  40    4.8840   546.4    4.811      53.887
2015    5       27     5  46    4.8829   546.5    4.808      53.905
2015    5       27     5  52    4.8817   546.7    4.805      53.923
2015    5       27     5  58    4.8806   546.8    4.802      53.942
2015    5       27     6   4    4.8795   547.0    4.799      53.962
2015    5       27     6  10    4.8783   547.1    4.796      53.981
2015    5       27     6  16    4.8771   547.3    4.793      54.001
2015    5       27     6  22    4.8760   547.5    4.790      54.021
2015    5       27     6  28    4.8748   547.6    4.787      54.040
2015    5       27     6  34    4.8736   547.8    4.784      54.059
2015    5       27     6  40    4.8724   547.9    4.781      54.078
2015    5       27     6  46    4.8712   548.1    4.777      54.097
2015    5       27     6  53    4.8700   548.2    4.774      54.115
2015    5       27     6  59    4.8687   548.4    4.771      54.133
2015    5       27     7   5    4.8675   548.6    4.767      54.150
2015    5       27     7  11    4.8662   548.7    4.764      54.167
2015    5       27     7  17    4.8650   548.9    4.760      54.184
2015    5       27     7  23    4.8638   549.0    4.757      54.201
2015    5       27     7  29    4.8625   549.2    4.754      54.218
2015    5       27     7  35    4.8613   549.3    4.750      54.234
2015    5       27     7  41    4.8600   549.5    4.747      54.251
2015    5       27     7  47    4.8588   549.6    4.743      54.267
2015    5       27     7  53    4.8575   549.8    4.740      54.282
2015    5       27     7  59    4.8563   550.0    4.736      54.298
2015    5       27     8   5    4.8550   550.1    4.733      54.314
2015    5       27     8  12    4.8538   550.3    4.729      54.330
2015    5       27     8  18    4.8526   550.4    4.726      54.345
2015    5       27     8  24    4.8513   550.6    4.722      54.361
2015    5       27     8  30    4.8501   550.7    4.718      54.376
2015    5       27     8  36    4.8489   550.9    4.715      54.392
2015    5       27     8  42    4.8477   551.1    4.711      54.408
2015    5       27     8  48    4.8465   551.2    4.708      54.424
2015    5       27     8  54    4.8453   551.4    4.704      54.440
2015    5       27     9   0    4.8442   551.5    4.701      54.456
2015    5       27     9   6    4.8430   551.7    4.697      54.472
2015    5       27     9  12    4.8419   551.8    4.694      54.488
2015    5       27     9  18    4.8407   552.0    4.690      54.505
2015    5       27     9  24    4.8396   552.2    4.687      54.521
2015    5       27     9  31    4.8384   552.3    4.683      54.538
2015    5       27     9  37    4.8373   552.5    4.680      54.555
2015    5       27     9  43    4.8362   552.6    4.677      54.572
2015    5       27     9  49    4.8350   552.8    4.673      54.590
2015    5       27     9  55    4.8338   553.0    4.670      54.607
2015    5       27    10   1    4.8327   553.1    4.666      54.625
2015    5       27    10   7    4.8315   553.3    4.663      54.642
2015    5       27    10  13    4.8303   553.5    4.660      54.660
2015    5       27    10  19    4.8291   553.6    4.656      54.678
2015    5       27    10  25    4.8279   553.8    4.653      54.696
2015    5       27    10  31    4.8267   553.9    4.649      54.714
2015    5       27    10  37    4.8254   554.1    4.646      54.732
2015    5       27    10  43    4.8242   554.3    4.643      54.750
2015    5       27    10  50    4.8229   554.4    4.639      54.768
2015    5       27    10  56    4.8216   554.6    4.636      54.786
2015    5       27    11   2    4.8204   554.8    4.632      54.803
2015    5       27    11   8    4.8190   554.9    4.629      54.821
2015    5       27    11  14    4.8177   555.1    4.625      54.839
2015    5       27    11  20    4.8164   555.3    4.622      54.857
2015    5       27    11  26    4.8151   555.4    4.618      54.875
2015    5       27    11  32    4.8137   555.6    4.615      54.893
2015    5       27    11  38    4.8124   555.8    4.611      54.910
2015    5       27    11  44    4.8110   555.9    4.608      54.928
2015    5       27    11  50    4.8096   556.1    4.604      54.945
2015    5       27    11  56    4.8082   556.3    4.601      54.962
2015    5       27    12   3    4.8068   556.4    4.597      54.979
2015    5       27    12   9    4.8054   556.6    4.594      54.996
2015    5       27    12  15    4.8040   556.8    4.590      55.013
2015    5       27    12  21    4.8026   556.9    4.587      55.029
2015    5       27    12  27    4.8012   557.1    4.583      55.046
2015    5       27    12  33    4.7997   557.3    4.580      55.063
2015    5       27    12  39    4.7983   557.4    4.576      55.080
2015    5       27    12  45    4.7969   557.6    4.573      55.097
2015    5       27    12  51    4.7954   557.8    4.569      55.114
2015    5       27    12  57    4.7940   557.9    4.566      55.131
2015    5       27    13   3    4.7925   558.1    4.562      55.149
2015    5       27    13   9    4.7911   558.3    4.559      55.167
2015    5       27    13  15    4.7896   558.4    4.555      55.186
2015    5       27    13  22    4.7881   558.6    4.552      55.205
2015    5       27    13  28    4.7866   558.8    4.548      55.224
2015    5       27    13  34    4.7851   559.0    4.544      55.242
2015    5       27    13  40    4.7835   559.1    4.541      55.261
2015    5       27    13  46    4.7820   559.3    4.537      55.279
2015    5       27    13  52    4.7805   559.5    4.533      55.297
2015    5       27    13  58    4.7789   559.6    4.529      55.314
2015    5       27    14   4    4.7774   559.8    4.525      55.331
2015    5       27    14  10    4.7758   560.0    4.521      55.347
2015    5       27    14  16    4.7743   560.1    4.517      55.363
2015    5       27    14  22    4.7727   560.3    4.513      55.379
2015    5       27    14  28    4.7711   560.5    4.509      55.394
2015    5       27    14  34    4.7695   560.6    4.505      55.409
2015    5       27    14  41    4.7680   560.8    4.501      55.424
2015    5       27    14  47    4.7664   561.0    4.497      55.438
2015    5       27    14  53    4.7648   561.1    4.493      55.453
2015    5       27    14  59    4.7632   561.3    4.489      55.466
2015    5       27    15   5    4.7616   561.5    4.485      55.480
2015    5       27    15  11    4.7600   561.6    4.481      55.493
2015    5       27    15  17    4.7584   561.8    4.477      55.506
2015    5       27    15  23    4.7569   562.0    4.472      55.518
2015    5       27    15  29    4.7553   562.1    4.468      55.531
2015    5       27    15  35    4.7537   562.3    4.464      55.543
2015    5       27    15  41    4.7520   562.5    4.460      55.555
2015    5       27    15  47    4.7504   562.6    4.456      55.566
2015    5       27    15  53    4.7488   562.8    4.452      55.578
2015    5       27    15  59    4.7472   563.0    4.448      55.590
2015    5       27    16   6    4.7456   563.1    4.444      55.602
2015    5       27    16  12    4.7440   563.3    4.439      55.613
2015    5       27    16  18    4.7423   563.5    4.435      55.625
2015    5       27    16  24    4.7407   563.6    4.431      55.636
2015    5       27    16  30    4.7391   563.8    4.427      55.648
2015    5       27    16  36    4.7374   564.0    4.423      55.659
2015    5       27    16  42    4.7358   564.1    4.419      55.671
2015    5       27    16  48    4.7341   564.3    4.415      55.683
2015    5       27    16  54    4.7324   564.5    4.411      55.695
2015    5       27    17   0    4.7307   564.6    4.407      55.707
2015    5       27    17   6    4.7290   564.8    4.403      55.719
2015    5       27    17  12    4.7272   565.0    4.399      55.731
2015    5       27    17  18    4.7255   565.1    4.395      55.743
2015    5       27    17  25    4.7237   565.3    4.391      55.755
2015    5       27    17  31    4.7219   565.5    4.387      55.767
2015    5       27    17  37    4.7201   565.6    4.383      55.779
2015    5       27    17  43    4.7182   565.8    4.379      55.792
2015    5       27    17  49    4.7164   566.0    4.375      55.804
2015    5       27    17  55    4.7145   566.1    4.371      55.816
2015    5       27    18   1    4.7127   566.3    4.367      55.828
2015    5       27    18   7    4.7108   566.5    4.363      55.841
2015    5       27    18  13    4.7089   566.6    4.359      55.853
2015    5       27    18  19    4.7069   566.8    4.355      55.865
2015    5       27    18  25    4.7050   567.0    4.351      55.877
2015    5       27    18  31    4.7031   567.1    4.347      55.888
2015    5       27    18  38    4.7011   567.3    4.343      55.900
2015    5       27    18  44    4.6992   567.5    4.339      55.911
2015    5       27    18  50    4.6972   567.6    4.335      55.922
2015    5       27    18  56    4.6952   567.8    4.331      55.934
2015    5       27    19   2    4.6932   567.9    4.327      55.944
2015    5       27    19   8    4.6912   568.1    4.323      55.955
2015    5       27    19  14    4.6892   568.3    4.319      55.966
2015    5       27    19  20    4.6872   568.4    4.314      55.976
2015    5       27    19  26    4.6852   568.6    4.310      55.986
2015    5       27    19  32    4.6832   568.7    4.306      55.996
2015    5       27    19  38    4.6812   568.9    4.302      56.006
2015    5       27    19  44    4.6791   569.1    4.298      56.015
2015    5       27    19  50    4.6771   569.2    4.294      56.025
2015    5       27    19  56    4.6751   569.4    4.289      56.034
2015    5       27    20   3    4.6731   569.5    4.285      56.043
2015    5       27    20   9    4.6710   569.7    4.281      56.052
2015    5       27    20  15    4.6690   569.9    4.277      56.061
2015    5       27    20  21    4.6670   570.0    4.273      56.070
2015    5       27    20  27    4.6649   570.2    4.269      56.079
2015    5       27    20  33    4.6629   570.3    4.264      56.088
2015    5       27    20  39    4.6609   570.5    4.260      56.097
2015    5       27    20  45    4.6589   570.6    4.256      56.106
2015    5       27    20  51    4.6568   570.8    4.252      56.114
2015    5       27    20  57    4.6548   570.9    4.248      56.123
2015    5       27    21   3    4.6528   571.1    4.244      56.131
2015    5       27    21   9    4.6508   571.2    4.240      56.139
2015    5       27    21  15    4.6487   571.4    4.235      56.147
2015    5       27    21  22    4.6467   571.5    4.231      56.155
2015    5       27    21  28    4.6447   571.7    4.227      56.162
2015    5       27    21  34    4.6427   571.8    4.223      56.170
2015    5       27    21  40    4.6407   572.0    4.219      56.177
2015    5       27    21  46    4.6387   572.1    4.215      56.184
2015    5       27    21  52    4.6366   572.3    4.211      56.191
2015    5       27    21  58    4.6346   572.4    4.207      56.197
2015    5       27    22   4    4.6326   572.6    4.203      56.204
2015    5       27    22  10    4.6305   572.7    4.198      56.210
2015    5       27    22  16    4.6285   572.9    4.194      56.216
2015    5       27    22  22    4.6264   573.0    4.190      56.222
2015    5       27    22  28    4.6243   573.2    4.186      56.227
2015    5       27    22  34    4.6222   573.3    4.182      56.233
2015    5       27    22  41    4.6201   573.5    4.178      56.238
2015    5       27    22  47    4.6180   573.6    4.174      56.242
2015    5       27    22  53    4.6159   573.8    4.170      56.247
2015    5       27    22  59    4.6138   573.9    4.166      56.252
2015    5       27    23   5    4.6117   574.0    4.162      56.256
2015    5       27    23  11    4.6095   574.2    4.158      56.260
2015    5       27    23  17    4.6073   574.3    4.153      56.264
2015    5       27    23  23    4.6052   574.5    4.149      56.269
2015    5       27    23  29    4.6030   574.6    4.145      56.272
2015    5       27    23  35    4.6008   574.7    4.141      56.276
2015    5       27    23  41    4.5986   574.9    4.137      56.280
2015    5       27    23  47    4.5963   575.0    4.133      56.284
2015    5       27    23  53    4.5941   575.2    4.129      56.287
2015    5       28     0   0    4.5919   575.3    4.125      56.291
2015    5       28     0   6    4.5896   575.4    4.122      56.295
2015    5       28     0  12    4.5874   575.6    4.118      56.298
2015    5       28     0  18    4.5851   575.7    4.114      56.302
2015    5       28     0  24    4.5828   575.8    4.110      56.305
2015    5       28     0  30    4.5806   576.0    4.106      56.309
2015    5       28     0  36    4.5783   576.1    4.102      56.313
2015    5       28     0  42    4.5760   576.2    4.098      56.316
2015    5       28     0  48    4.5737   576.4    4.094      56.319
2015    5       28     0  54    4.5714   576.5    4.091      56.323
2015    5       28     1   0    4.5691   576.6    4.087      56.326
2015    5       28     1   6    4.5669   576.8    4.083      56.329
2015    5       28     1  12    4.5646   576.9    4.079      56.333
2015    5       28     1  19    4.5623   577.0    4.076      56.336
2015    5       28     1  25    4.5600   577.1    4.072      56.339
2015    5       28     1  31    4.5577   577.3    4.068      56.342
2015    5       28     1  37    4.5554   577.4    4.064      56.344
2015    5       28     1  43    4.5531   577.5    4.061      56.347
2015    5       28     1  49    4.5508   577.7    4.057      56.350
2015    5       28     1  55    4.5485   577.8    4.053      56.352
2015    5       28     2   1    4.5462   577.9    4.050      56.354
2015    5       28     2   7    4.5439   578.0    4.046      56.356
2015    5       28     2  13    4.5417   578.1    4.042      56.358
2015    5       28     2  19    4.5394   578.3    4.039      56.360
2015    5       28     2  25    4.5371   578.4    4.035      56.362
2015    5       28     2  31    4.5349   578.5    4.031      56.363
2015    5       28     2  38    4.5326   578.6    4.028      56.364
2015    5       28     2  44    4.5304   578.8    4.024      56.365
2015    5       28     2  50    4.5281   578.9    4.020      56.367
2015    5       28     2  56    4.5259   579.0    4.017      56.367
2015    5       28     3   2    4.5236   579.1    4.013      56.368
2015    5       28     3   8    4.5214   579.2    4.010      56.368
2015    5       28     3  14    4.5192   579.4    4.006      56.369
2015    5       28     3  20    4.5170   579.5    4.003      56.369
2015    5       28     3  26    4.5148   579.6    3.999      56.369
2015    5       28     3  32    4.5126   579.7    3.996      56.368
2015    5       28     3  38    4.5104   579.8    3.992      56.368
2015    5       28     3  44    4.5082   579.9    3.988      56.368
2015    5       28     3  50    4.5060   580.1    3.985      56.367
2015    5       28     3  57    4.5038   580.2    3.981      56.366
2015    5       28     4   3    4.5016   580.3    3.978      56.365
2015    5       28     4   9    4.4995   580.4    3.974      56.364
2015    5       28     4  15    4.4973   580.5    3.971      56.363
2015    5       28     4  21    4.4951   580.6    3.968      56.362
2015    5       28     4  27    4.4930   580.7    3.964      56.361
2015    5       28     4  33    4.4908   580.8    3.961      56.359
2015    5       28     4  39    4.4886   581.0    3.957      56.357
2015    5       28     4  45    4.4864   581.1    3.954      56.355
2015    5       28     4  51    4.4842   581.2    3.950      56.354
2015    5       28     4  57    4.4821   581.3    3.947      56.352
2015    5       28     5   3    4.4799   581.4    3.943      56.349
2015    5       28     5   9    4.4777   581.5    3.940      56.347
2015    5       28     5  16    4.4755   581.6    3.936      56.345
2015    5       28     5  22    4.4732   581.7    3.933      56.343
2015    5       28     5  28    4.4710   581.8    3.930      56.340
2015    5       28     5  34    4.4688   581.9    3.926      56.337
2015    5       28     5  40    4.4666   582.0    3.923      56.335
2015    5       28     5  46    4.4643   582.1    3.919      56.332
2015    5       28     5  52    4.4621   582.2    3.916      56.329
2015    5       28     5  58    4.4598   582.3    3.912      56.326
2015    5       28     6   4    4.4576   582.4    3.909      56.323
2015    5       28     6  10    4.4553   582.5    3.905      56.320
2015    5       28     6  16    4.4530   582.6    3.902      56.317
2015    5       28     6  22    4.4508   582.7    3.898      56.314
2015    5       28     6  28    4.4485   582.8    3.895      56.311
2015    5       28     6  35    4.4462   582.9    3.892      56.308
2015    5       28     6  41    4.4440   583.0    3.888      56.305
2015    5       28     6  47    4.4417   583.1    3.885      56.302
2015    5       28     6  53    4.4394   583.2    3.882      56.299
2015    5       28     6  59    4.4371   583.3    3.878      56.296
2015    5       28     7   5    4.4349   583.4    3.875      56.293
2015    5       28     7  11    4.4326   583.5    3.872      56.290
2015    5       28     7  17    4.4303   583.6    3.868      56.287
2015    5       28     7  23    4.4280   583.7    3.865      56.284
2015    5       28     7  29    4.4258   583.8    3.862      56.282
2015    5       28     7  35    4.4235   583.9    3.859      56.279
2015    5       28     7  41    4.4213   583.9    3.856      56.276
2015    5       28     7  47    4.4190   584.0    3.852      56.273
2015    5       28     7  54    4.4168   584.1    3.849      56.270
2015    5       28     8   0    4.4145   584.2    3.846      56.268
2015    5       28     8   6    4.4123   584.3    3.843      56.265
2015    5       28     8  12    4.4101   584.4    3.840      56.262
2015    5       28     8  18    4.4078   584.5    3.837      56.260
2015    5       28     8  24    4.4056   584.5    3.834      56.257
2015    5       28     8  30    4.4034   584.6    3.831      56.254
2015    5       28     8  36    4.4012   584.7    3.829      56.252
2015    5       28     8  42    4.3990   584.8    3.826      56.249
2015    5       28     8  48    4.3968   584.9    3.823      56.246
2015    5       28     8  54    4.3946   585.0    3.820      56.243
2015    5       28     9   0    4.3924   585.0    3.817      56.240
2015    5       28     9   6    4.3902   585.1    3.815      56.237
2015    5       28     9  13    4.3881   585.2    3.812      56.233
2015    5       28     9  19    4.3859   585.3    3.809      56.230
2015    5       28     9  25    4.3838   585.4    3.807      56.227
2015    5       28     9  31    4.3816   585.4    3.804      56.223
2015    5       28     9  37    4.3795   585.5    3.801      56.219
2015    5       28     9  43    4.3773   585.6    3.799      56.215
2015    5       28     9  49    4.3752   585.7    3.796      56.211
2015    5       28     9  55    4.3731   585.8    3.794      56.207
2015    5       28    10   1    4.3709   585.8    3.791      56.202
2015    5       28    10   7    4.3688   585.9    3.789      56.198
2015    5       28    10  13    4.3667   586.0    3.786      56.193
2015    5       28    10  19    4.3646   586.1    3.784      56.188
2015    5       28    10  25    4.3625   586.1    3.781      56.183
2015    5       28    10  32    4.3603   586.2    3.779      56.178
2015    5       28    10  38    4.3582   586.3    3.776      56.172
2015    5       28    10  44    4.3561   586.4    3.774      56.167
2015    5       28    10  50    4.3540   586.4    3.771      56.161
2015    5       28    10  56    4.3519   586.5    3.769      56.155
2015    5       28    11   2    4.3498   586.6    3.766      56.149
2015    5       28    11   8    4.3477   586.6    3.764      56.143
2015    5       28    11  14    4.3456   586.7    3.761      56.137
2015    5       28    11  20    4.3435   586.8    3.759      56.131
2015    5       28    11  26    4.3414   586.9    3.756      56.124
2015    5       28    11  32    4.3393   586.9    3.754      56.118
2015    5       28    11  38    4.3372   587.0    3.751      56.111
2015    5       28    11  44    4.3351   587.1    3.749      56.104
2015    5       28    11  51    4.3330   587.1    3.746      56.097
2015    5       28    11  57    4.3309   587.2    3.744      56.090
2015    5       28    12   3    4.3288   587.3    3.741      56.083
2015    5       28    12   9    4.3266   587.3    3.738      56.076
2015    5       28    12  15    4.3245   587.4    3.736      56.069
2015    5       28    12  21    4.3224   587.5    3.733      56.062
2015    5       28    12  27    4.3203   587.5    3.731      56.055
2015    5       28    12  33    4.3182   587.6    3.728      56.047
2015    5       28    12  39    4.3160   587.7    3.725      56.040
2015    5       28    12  45    4.3139   587.7    3.723      56.032
2015    5       28    12  51    4.3118   587.8    3.720      56.025
2015    5       28    12  57    4.3097   587.8    3.718      56.018
2015    5       28    13   3    4.3076   587.9    3.715      56.011
2015    5       28    13   9    4.3055   588.0    3.712      56.003
2015    5       28    13  16    4.3033   588.0    3.710      55.996
2015    5       28    13  22    4.3012   588.1    3.707      55.989
2015    5       28    13  28    4.2991   588.1    3.705      55.982
2015    5       28    13  34    4.2970   588.2    3.702      55.975
2015    5       28    13  40    4.2950   588.2    3.700      55.968
2015    5       28    13  46    4.2929   588.3    3.697      55.962
2015    5       28    13  52    4.2908   588.4    3.695      55.955
2015    5       28    13  58    4.2887   588.4    3.692      55.949
2015    5       28    14   4    4.2867   588.5    3.690      55.942
2015    5       28    14  10    4.2846   588.5    3.687      55.936
2015    5       28    14  16    4.2826   588.6    3.685      55.930
2015    5       28    14  22    4.2805   588.6    3.683      55.924
2015    5       28    14  28    4.2785   588.7    3.680      55.918
2015    5       28    14  35    4.2765   588.7    3.678      55.913
2015    5       28    14  41    4.2745   588.8    3.676      55.907
2015    5       28    14  47    4.2724   588.8    3.674      55.901
2015    5       28    14  53    4.2704   588.9    3.671      55.895
2015    5       28    14  59    4.2684   588.9    3.669      55.890
2015    5       28    15   5    4.2664   589.0    3.667      55.884
2015    5       28    15  11    4.2644   589.0    3.665      55.879
2015    5       28    15  17    4.2624   589.1    3.663      55.873
2015    5       28    15  23    4.2604   589.1    3.661      55.867
2015    5       28    15  29    4.2585   589.2    3.659      55.862
2015    5       28    15  35    4.2565   589.2    3.657      55.856
2015    5       28    15  41    4.2545   589.3    3.655      55.850
2015    5       28    15  47    4.2525   589.3    3.653      55.844
2015    5       28    15  54    4.2505   589.3    3.651      55.838
2015    5       28    16   0    4.2486   589.4    3.649      55.832
2015    5       28    16   6    4.2466   589.4    3.647      55.825
2015    5       28    16  12    4.2447   589.5    3.645      55.819
2015    5       28    16  18    4.2427   589.5    3.644      55.812
2015    5       28    16  24    4.2407   589.6    3.642      55.805
2015    5       28    16  30    4.2388   589.6    3.640      55.797
2015    5       28    16  36    4.2368   589.6    3.638      55.790
2015    5       28    16  42    4.2348   589.7    3.636      55.782
2015    5       28    16  48    4.2329   589.7    3.634      55.775
2015    5       28    16  54    4.2309   589.8    3.633      55.767
2015    5       28    17   0    4.2290   589.8    3.631      55.758
2015    5       28    17   6    4.2270   589.8    3.629      55.750
2015    5       28    17  13    4.2251   589.9    3.627      55.741
2015    5       28    17  19    4.2231   589.9    3.626      55.732
2015    5       28    17  25    4.2212   590.0    3.624      55.723
2015    5       28    17  31    4.2192   590.0    3.622      55.714
2015    5       28    17  37    4.2173   590.0    3.620      55.705
2015    5       28    17  43    4.2153   590.1    3.619      55.695
2015    5       28    17  49    4.2134   590.1    3.617      55.685
2015    5       28    17  55    4.2115   590.1    3.615      55.676
2015    5       28    18   1    4.2095   590.2    3.613      55.666
2015    5       28    18   7    4.2076   590.2    3.612      55.656
2015    5       28    18  13    4.2057   590.2    3.610      55.646
2015    5       28    18  19    4.2037   590.3    3.608      55.636
2015    5       28    18  25    4.2018   590.3    3.607      55.626
2015    5       28    18  32    4.1999   590.3    3.605      55.616
2015    5       28    18  38    4.1980   590.3    3.603      55.606
2015    5       28    18  44    4.1961   590.4    3.601      55.596
2015    5       28    18  50    4.1942   590.4    3.600      55.585
2015    5       28    18  56    4.1923   590.4    3.598      55.575
2015    5       28    19   2    4.1905   590.4    3.596      55.565
2015    5       28    19   8    4.1886   590.5    3.595      55.555
2015    5       28    19  14    4.1867   590.5    3.593      55.545
2015    5       28    19  20    4.1848   590.5    3.591      55.535
2015    5       28    19  26    4.1830   590.5    3.590      55.526
2015    5       28    19  32    4.1812   590.6    3.588      55.516
2015    5       28    19  38    4.1793   590.6    3.586      55.507
2015    5       28    19  44    4.1775   590.6    3.585      55.498
2015    5       28    19  51    4.1757   590.6    3.583      55.489
2015    5       28    19  57    4.1739   590.7    3.582      55.480
2015    5       28    20   3    4.1721   590.7    3.580      55.472
2015    5       28    20   9    4.1703   590.7    3.578      55.464
2015    5       28    20  15    4.1685   590.7    3.577      55.456
2015    5       28    20  21    4.1668   590.7    3.575      55.448
2015    5       28    20  27    4.1650   590.7    3.574      55.440
2015    5       28    20  33    4.1633   590.8    3.572      55.433
2015    5       28    20  39    4.1615   590.8    3.571      55.426
2015    5       28    20  45    4.1598   590.8    3.570      55.419
2015    5       28    20  51    4.1580   590.8    3.568      55.413
2015    5       28    20  57    4.1563   590.8    3.567      55.406
2015    5       28    21   3    4.1546   590.9    3.565      55.400
2015    5       28    21  10    4.1528   590.9    3.564      55.394
2015    5       28    21  16    4.1511   590.9    3.563      55.387
2015    5       28    21  22    4.1494   590.9    3.561      55.381
2015    5       28    21  28    4.1476   590.9    3.560      55.375
2015    5       28    21  34    4.1459   590.9    3.559      55.369
2015    5       28    21  40    4.1442   591.0    3.557      55.363
2015    5       28    21  46    4.1425   591.0    3.556      55.356
2015    5       28    21  52    4.1407   591.0    3.555      55.350
2015    5       28    21  58    4.1390   591.0    3.554      55.344
2015    5       28    22   4    4.1373   591.0    3.552      55.337
2015    5       28    22  10    4.1355   591.0    3.551      55.330
2015    5       28    22  16    4.1338   591.0    3.550      55.323
2015    5       28    22  22    4.1320   591.1    3.548      55.315
2015    5       28    22  29    4.1303   591.1    3.547      55.308
2015    5       28    22  35    4.1285   591.1    3.546      55.300
2015    5       28    22  41    4.1268   591.1    3.545      55.291
2015    5       28    22  47    4.1250   591.1    3.543      55.283
2015    5       28    22  53    4.1233   591.1    3.542      55.274
2015    5       28    22  59    4.1215   591.1    3.541      55.264
2015    5       28    23   5    4.1197   591.2    3.539      55.255
2015    5       28    23  11    4.1180   591.2    3.538      55.245
2015    5       28    23  17    4.1162   591.2    3.537      55.234
2015    5       28    23  23    4.1144   591.2    3.535      55.224
2015    5       28    23  29    4.1126   591.2    3.534      55.213
2015    5       28    23  35    4.1108   591.2    3.532      55.201
2015    5       28    23  41    4.1090   591.2    3.531      55.190
2015    5       28    23  48    4.1073   591.2    3.530      55.178
2015    5       28    23  54    4.1055   591.2    3.528      55.166
2015    5       29     0   0    4.1037   591.2    3.527      55.153
2015    5       29     0   6    4.1019   591.2    3.526      55.140
2015    5       29     0  12    4.1001   591.2    3.524      55.127
2015    5       29     0  18    4.0983   591.2    3.523      55.114
2015    5       29     0  24    4.0965   591.2    3.521      55.101
2015    5       29     0  30    4.0947   591.2    3.520      55.087
2015    5       29     0  36    4.0929   591.2    3.519      55.074
2015    5       29     0  42    4.0912   591.2    3.517      55.060
2015    5       29     0  48    4.0894   591.2    3.516      55.046
2015    5       29     0  54    4.0876   591.2    3.515      55.033
2015    5       29     1   0    4.0859   591.2    3.514      55.019
2015    5       29     1   7    4.0842   591.2    3.512      55.006
2015    5       29     1  13    4.0824   591.2    3.511      54.992
2015    5       29     1  19    4.0807   591.2    3.510      54.979
2015    5       29     1  25    4.0790   591.2    3.509      54.966
2015    5       29     1  31    4.0774   591.2    3.508      54.954
2015    5       29     1  37    4.0757   591.2    3.507      54.941
2015    5       29     1  43    4.0741   591.2    3.506      54.929
2015    5       29     1  49    4.0724   591.2    3.505      54.918
2015    5       29     1  55    4.0708   591.2    3.504      54.906
2015    5       29     2   1    4.0693   591.2    3.503      54.895
2015    5       29     2   7    4.0677   591.1    3.502      54.885
2015    5       29     2  13    4.0662   591.1    3.501      54.875
2015    5       29     2  19    4.0646   591.1    3.500      54.865
2015    5       29     2  26    4.0631   591.1    3.499      54.856
2015    5       29     2  32    4.0617   591.1    3.499      54.848
2015    5       29     2  38    4.0602   591.1    3.498      54.840
2015    5       29     2  44    4.0588   591.1    3.497      54.832
2015    5       29     2  50    4.0573   591.1    3.497      54.824
2015    5       29     2  56    4.0559   591.1    3.496      54.817
2015    5       29     3   2    4.0545   591.1    3.495      54.810
2015    5       29     3   8    4.0531   591.1    3.495      54.804
2015    5       29     3  14    4.0517   591.1    3.494      54.798
2015    5       29     3  20    4.0503   591.0    3.494      54.793
2015    5       29     3  26    4.0490   591.0    3.493      54.787
2015    5       29     3  32    4.0476   591.0    3.492      54.782
2015    5       29     3  38    4.0462   591.0    3.492      54.777
2015    5       29     3  45    4.0448   591.0    3.491      54.771
2015    5       29     3  51    4.0434   591.0    3.490      54.766
2015    5       29     3  57    4.0420   591.0    3.490      54.760
2015    5       29     4   3    4.0406   591.0    3.489      54.754
2015    5       29     4   9    4.0392   591.0    3.488      54.748
2015    5       29     4  15    4.0378   591.0    3.487      54.742
2015    5       29     4  21    4.0363   591.0    3.487      54.736
2015    5       29     4  27    4.0349   591.0    3.486      54.729
2015    5       29     4  33    4.0335   591.0    3.485      54.721
2015    5       29     4  39    4.0320   591.0    3.484      54.714
2015    5       29     4  45    4.0305   591.0    3.483      54.706
2015    5       29     4  51    4.0291   591.0    3.482      54.697
2015    5       29     4  57    4.0276   591.0    3.481      54.688
2015    5       29     5   3    4.0261   591.0    3.480      54.678
2015    5       29     5  10    4.0247   591.0    3.479      54.668
2015    5       29     5  16    4.0232   591.0    3.478      54.658
2015    5       29     5  22    4.0217   591.0    3.477      54.647
2015    5       29     5  28    4.0202   591.0    3.476      54.636
2015    5       29     5  34    4.0187   590.9    3.475      54.624
2015    5       29     5  40    4.0172   590.9    3.474      54.612
2015    5       29     5  46    4.0157   590.9    3.473      54.599
2015    5       29     5  52    4.0142   590.9    3.471      54.586
2015    5       29     5  58    4.0127   590.9    3.470      54.573
2015    5       29     6   4    4.0112   590.9    3.469      54.560
2015    5       29     6  10    4.0096   590.9    3.468      54.546
2015    5       29     6  16    4.0081   590.9    3.467      54.532
2015    5       29     6  22    4.0066   590.9    3.466      54.518
2015    5       29     6  29    4.0051   590.9    3.465      54.503
2015    5       29     6  35    4.0036   590.8    3.464      54.489
2015    5       29     6  41    4.0021   590.8    3.462      54.474
2015    5       29     6  47    4.0006   590.8    3.461      54.459
2015    5       29     6  53    3.9991   590.8    3.460      54.445
2015    5       29     6  59    3.9976   590.8    3.459      54.430
2015    5       29     7   5    3.9961   590.7    3.458      54.415
2015    5       29     7  11    3.9947   590.7    3.457      54.400
2015    5       29     7  17    3.9932   590.7    3.456      54.386
2015    5       29     7  23    3.9917   590.7    3.455      54.371
2015    5       29     7  29    3.9902   590.7    3.454      54.356
2015    5       29     7  35    3.9888   590.6    3.454      54.342
2015    5       29     7  41    3.9874   590.6    3.453      54.328
2015    5       29     7  48    3.9859   590.6    3.452      54.313
2015    5       29     7  54    3.9845   590.6    3.451      54.299
2015    5       29     8   0    3.9830   590.5    3.450      54.285
2015    5       29     8   6    3.9816   590.5    3.450      54.271
2015    5       29     8  12    3.9802   590.5    3.449      54.257
2015    5       29     8  18    3.9788   590.5    3.448      54.244
2015    5       29     8  24    3.9773   590.4    3.447      54.230
2015    5       29     8  30    3.9759   590.4    3.447      54.217
2015    5       29     8  36    3.9745   590.4    3.446      54.203
2015    5       29     8  42    3.9731   590.4    3.445      54.190
2015    5       29     8  48    3.9716   590.3    3.444      54.177
2015    5       29     8  54    3.9702   590.3    3.443      54.164
2015    5       29     9   0    3.9688   590.3    3.443      54.150
2015    5       29     9   7    3.9674   590.2    3.442      54.137
2015    5       29     9  13    3.9660   590.2    3.441      54.124
2015    5       29     9  19    3.9646   590.2    3.440      54.110
2015    5       29     9  25    3.9632   590.1    3.440      54.096
2015    5       29     9  31    3.9618   590.1    3.439      54.083
2015    5       29     9  37    3.9604   590.1    3.438      54.069
2015    5       29     9  43    3.9590   590.1    3.437      54.055
2015    5       29     9  49    3.9575   590.0    3.436      54.041
2015    5       29     9  55    3.9561   590.0    3.435      54.028
2015    5       29    10   1    3.9547   590.0    3.434      54.014
2015    5       29    10   7    3.9532   589.9    3.433      53.999
2015    5       29    10  13    3.9518   589.9    3.432      53.984
2015    5       29    10  19    3.9503   589.9    3.431      53.969
2015    5       29    10  26    3.9488   589.8    3.430      53.953
2015    5       29    10  32    3.9473   589.8    3.429      53.937
2015    5       29    10  38    3.9458   589.8    3.428      53.920
2015    5       29    10  44    3.9443   589.7    3.427      53.903
2015    5       29    10  50    3.9428   589.7    3.426      53.886
2015    5       29    10  56    3.9412   589.7    3.425      53.868
2015    5       29    11   2    3.9397   589.6    3.423      53.849
2015    5       29    11   8    3.9381   589.6    3.422      53.831
2015    5       29    11  14    3.9366   589.6    3.421      53.811
2015    5       29    11  20    3.9350   589.5    3.420      53.792
2015    5       29    11  26    3.9335   589.5    3.418      53.772
2015    5       29    11  32    3.9319   589.4    3.417      53.752
2015    5       29    11  38    3.9303   589.4    3.416      53.732
2015    5       29    11  45    3.9288   589.3    3.415      53.712
2015    5       29    11  51    3.9272   589.3    3.414      53.692
2015    5       29    11  57    3.9257   589.3    3.412      53.671
2015    5       29    12   3    3.9241   589.2    3.411      53.651
2015    5       29    12   9    3.9226   589.2    3.410      53.631
2015    5       29    12  15    3.9211   589.1    3.409      53.611
2015    5       29    12  21    3.9196   589.1    3.408      53.591
2015    5       29    12  27    3.9181   589.0    3.407      53.572
2015    5       29    12  33    3.9165   589.0    3.406      53.553
2015    5       29    12  39    3.9150   588.9    3.405      53.534
2015    5       29    12  45    3.9135   588.9    3.404      53.515
2015    5       29    12  51    3.9120   588.8    3.403      53.496
2015    5       29    12  57    3.9104   588.8    3.403      53.478
2015    5       29    13   4    3.9089   588.7    3.402      53.460
2015    5       29    13  10    3.9073   588.7    3.401      53.443
2015    5       29    13  16    3.9057   588.6    3.401      53.426
2015    5       29    13  22    3.9041   588.6    3.400      53.410
2015    5       29    13  28    3.9026   588.5    3.399      53.395
2015    5       29    13  34    3.9009   588.5    3.399      53.380
2015    5       29    13  40    3.8993   588.4    3.398      53.365
2015    5       29    13  46    3.8977   588.4    3.398      53.350
2015    5       29    13  52    3.8961   588.3    3.397      53.335
2015    5       29    13  58    3.8945   588.3    3.396      53.320
2015    5       29    14   4    3.8928   588.2    3.396      53.305
2015    5       29    14  10    3.8912   588.1    3.395      53.290
2015    5       29    14  16    3.8895   588.1    3.395      53.275
2015    5       29    14  23    3.8879   588.0    3.394      53.260
2015    5       29    14  29    3.8862   588.0    3.394      53.245
2015    5       29    14  35    3.8846   587.9    3.393      53.231
2015    5       29    14  41    3.8829   587.9    3.393      53.216
2015    5       29    14  47    3.8813   587.8    3.392      53.201
2015    5       29    14  53    3.8796   587.8    3.392      53.186
2015    5       29    14  59    3.8779   587.7    3.392      53.171
2015    5       29    15   5    3.8762   587.7    3.391      53.156
2015    5       29    15  11    3.8744   587.6    3.390      53.141
2015    5       29    15  17    3.8727   587.5    3.390      53.125
2015    5       29    15  23    3.8709   587.5    3.389      53.109
2015    5       29    15  29    3.8692   587.4    3.389      53.093
2015    5       29    15  35    3.8674   587.4    3.388      53.076
2015    5       29    15  42    3.8656   587.3    3.387      53.059
2015    5       29    15  48    3.8638   587.3    3.386      53.040
2015    5       29    15  54    3.8620   587.2    3.385      53.021
2015    5       29    16   0    3.8601   587.1    3.385      53.001
2015    5       29    16   6    3.8583   587.1    3.384      52.981
2015    5       29    16  12    3.8564   587.0    3.383      52.959
2015    5       29    16  18    3.8545   587.0    3.382      52.938
2015    5       29    16  24    3.8527   586.9    3.380      52.915
2015    5       29    16  30    3.8508   586.8    3.379      52.892
2015    5       29    16  36    3.8489   586.8    3.378      52.867
2015    5       29    16  42    3.8469   586.7    3.377      52.843
2015    5       29    16  48    3.8450   586.6    3.376      52.818
2015    5       29    16  54    3.8431   586.6    3.375      52.792
2015    5       29    17   0    3.8411   586.5    3.374      52.766
2015    5       29    17   7    3.8392   586.4    3.372      52.739
2015    5       29    17  13    3.8372   586.4    3.371      52.712
2015    5       29    17  19    3.8352   586.3    3.370      52.684
2015    5       29    17  25    3.8333   586.2    3.369      52.656
2015    5       29    17  31    3.8313   586.1    3.367      52.628
2015    5       29    17  37    3.8293   586.1    3.366      52.600
2015    5       29    17  43    3.8273   586.0    3.365      52.572
2015    5       29    17  49    3.8253   585.9    3.364      52.543
2015    5       29    17  55    3.8233   585.8    3.363      52.515
2015    5       29    18   1    3.8213   585.7    3.362      52.487
2015    5       29    18   7    3.8193   585.7    3.361      52.459
2015    5       29    18  13    3.8174   585.6    3.360      52.432
2015    5       29    18  19    3.8154   585.5    3.359      52.405
2015    5       29    18  26    3.8134   585.4    3.358      52.379
2015    5       29    18  32    3.8115   585.3    3.358      52.354
2015    5       29    18  38    3.8096   585.2    3.357      52.329
2015    5       29    18  44    3.8076   585.1    3.357      52.305
2015    5       29    18  50    3.8057   585.0    3.356      52.282
2015    5       29    18  56    3.8039   585.0    3.356      52.259
2015    5       29    19   2    3.8020   584.9    3.356      52.238
2015    5       29    19   8    3.8001   584.8    3.355      52.217
2015    5       29    19  14    3.7983   584.7    3.355      52.198
2015    5       29    19  20    3.7964   584.6    3.355      52.178
2015    5       29    19  26    3.7946   584.5    3.355      52.160
2015    5       29    19  32    3.7927   584.4    3.356      52.142
2015    5       29    19  38    3.7909   584.3    3.356      52.125
2015    5       29    19  45    3.7890   584.3    3.356      52.109
2015    5       29    19  51    3.7872   584.2    3.356      52.093
2015    5       29    19  57    3.7853   584.1    3.356      52.077
2015    5       29    20   3    3.7834   584.0    3.356      52.061
2015    5       29    20   9    3.7814   583.9    3.356      52.046
2015    5       29    20  15    3.7795   583.8    3.356      52.030
2015    5       29    20  21    3.7776   583.7    3.356      52.014
2015    5       29    20  27    3.7756   583.6    3.356      51.998
2015    5       29    20  33    3.7737   583.5    3.356      51.981
2015    5       29    20  39    3.7717   583.4    3.356      51.963
2015    5       29    20  45    3.7697   583.3    3.356      51.945
2015    5       29    20  51    3.7678   583.2    3.356      51.926
2015    5       29    20  57    3.7658   583.2    3.355      51.907
2015    5       29    21   4    3.7638   583.1    3.355      51.887
2015    5       29    21  10    3.7618   583.0    3.354      51.867
2015    5       29    21  16    3.7598   582.9    3.354      51.846
2015    5       29    21  22    3.7578   582.8    3.353      51.825
2015    5       29    21  28    3.7558   582.7    3.353      51.803
2015    5       29    21  34    3.7538   582.6    3.352      51.780
2015    5       29    21  40    3.7517   582.5    3.352      51.757
2015    5       29    21  46    3.7497   582.4    3.351      51.734
2015    5       29    21  52    3.7477   582.3    3.350      51.709
2015    5       29    21  58    3.7456   582.2    3.349      51.685
2015    5       29    22   4    3.7436   582.1    3.349      51.660
2015    5       29    22  10    3.7415   582.0    3.348      51.634
2015    5       29    22  16    3.7395   581.9    3.347      51.607
2015    5       29    22  23    3.7374   581.8    3.346      51.580
2015    5       29    22  29    3.7353   581.7    3.345      51.553
2015    5       29    22  35    3.7332   581.6    3.344      51.525
2015    5       29    22  41    3.7312   581.5    3.343      51.496
2015    5       29    22  47    3.7291   581.4    3.342      51.467
2015    5       29    22  53    3.7270   581.3    3.340      51.438
2015    5       29    22  59    3.7249   581.2    3.339      51.408
2015    5       29    23   5    3.7229   581.1    3.338      51.377
2015    5       29    23  11    3.7208   581.0    3.337      51.346
2015    5       29    23  17    3.7187   580.9    3.336      51.315
2015    5       29    23  23    3.7166   580.8    3.334      51.283
2015    5       29    23  29    3.7145   580.7    3.333      51.251
2015    5       29    23  35    3.7124   580.6    3.332      51.218
2015    5       29    23  42    3.7103   580.5    3.330      51.185
2015    5       29    23  48    3.7082   580.4    3.329      51.152
2015    5       29    23  54    3.7061   580.2    3.328      51.119
2015    5       30     0   0    3.7040   580.1    3.326      51.085
2015    5       30     0   6    3.7020   580.0    3.325      51.052
2015    5       30     0  12    3.6999   579.9    3.324      51.018
2015    5       30     0  18    3.6978   579.8    3.323      50.985
2015    5       30     0  24    3.6957   579.7    3.321      50.951
2015    5       30     0  30    3.6937   579.5    3.320      50.918
2015    5       30     0  36    3.6917   579.4    3.319      50.886
2015    5       30     0  42    3.6896   579.3    3.318      50.853
2015    5       30     0  48    3.6876   579.2    3.317      50.821
2015    5       30     0  54    3.6856   579.1    3.316      50.790
2015    5       30     1   1    3.6837   578.9    3.315      50.759
2015    5       30     1   7    3.6817   578.8    3.315      50.729
2015    5       30     1  13    3.6797   578.7    3.314      50.700
2015    5       30     1  19    3.6778   578.6    3.313      50.672
2015    5       30     1  25    3.6759   578.5    3.313      50.644
2015    5       30     1  31    3.6740   578.3    3.313      50.617
2015    5       30     1  37    3.6722   578.2    3.312      50.591
2015    5       30     1  43    3.6703   578.1    3.312      50.566
2015    5       30     1  49    3.6685   578.0    3.312      50.542
2015    5       30     1  55    3.6666   577.8    3.312      50.519
2015    5       30     2   1    3.6648   577.7    3.312      50.496
2015    5       30     2   7    3.6630   577.6    3.312      50.474
2015    5       30     2  13    3.6612   577.5    3.312      50.452
2015    5       30     2  19    3.6593   577.4    3.312      50.430
2015    5       30     2  26    3.6575   577.2    3.312      50.409
2015    5       30     2  32    3.6556   577.1    3.312      50.386
2015    5       30     2  38    3.6538   577.0    3.312      50.364
2015    5       30     2  44    3.6519   576.9    3.312      50.342
2015    5       30     2  50    3.6500   576.7    3.312      50.319
2015    5       30     2  56    3.6482   576.6    3.312      50.296
2015    5       30     3   2    3.6463   576.5    3.311      50.273
2015    5       30     3   8    3.6445   576.4    3.311      50.249
2015    5       30     3  14    3.6426   576.2    3.311      50.225
2015    5       30     3  20    3.6407   576.1    3.311      50.201
2015    5       30     3  26    3.6389   576.0    3.311      50.176
2015    5       30     3  32    3.6370   575.9    3.311      50.151
2015    5       30     3  38    3.6351   575.7    3.311      50.126
2015    5       30     3  45    3.6332   575.6    3.311      50.100
2015    5       30     3  51    3.6314   575.5    3.311      50.073
2015    5       30     3  57    3.6295   575.4    3.311      50.047
2015    5       30     4   3    3.6277   575.2    3.311      50.020
2015    5       30     4   9    3.6258   575.1    3.311      49.992
2015    5       30     4  15    3.6240   575.0    3.311      49.965
2015    5       30     4  21    3.6221   574.8    3.311      49.937
2015    5       30     4  27    3.6203   574.7    3.311      49.909
2015    5       30     4  33    3.6185   574.6    3.311      49.881
2015    5       30     4  39    3.6167   574.4    3.310      49.852
2015    5       30     4  45    3.6149   574.3    3.310      49.824
2015    5       30     4  51    3.6131   574.2    3.310      49.795
2015    5       30     4  57    3.6113   574.0    3.310      49.766
2015    5       30     5   4    3.6095   573.9    3.310      49.737
2015    5       30     5  10    3.6077   573.8    3.310      49.709
2015    5       30     5  16    3.6060   573.6    3.310      49.679
2015    5       30     5  22    3.6043   573.5    3.310      49.651
2015    5       30     5  28    3.6026   573.4    3.310      49.621
2015    5       30     5  34    3.6009   573.2    3.310      49.592
2015    5       30     5  40    3.5992   573.1    3.310      49.563
2015    5       30     5  46    3.5975   573.0    3.310      49.534
2015    5       30     5  52    3.5958   572.8    3.311      49.505
2015    5       30     5  58    3.5941   572.7    3.311      49.476
2015    5       30     6   4    3.5924   572.6    3.311      49.447
2015    5       30     6  10    3.5907   572.5    3.311      49.419
2015    5       30     6  16    3.5890   572.3    3.311      49.390
2015    5       30     6  23    3.5872   572.2    3.311      49.361
2015    5       30     6  29    3.5855   572.1    3.311      49.332
2015    5       30     6  35    3.5837   572.0    3.310      49.303
2015    5       30     6  41    3.5820   571.8    3.310      49.273
2015    5       30     6  47    3.5802   571.7    3.310      49.242
2015    5       30     6  53    3.5784   571.6    3.310      49.212
2015    5       30     6  59    3.5766   571.4    3.309      49.181
2015    5       30     7   5    3.5748   571.3    3.309      49.150
2015    5       30     7  11    3.5730   571.2    3.309      49.118
2015    5       30     7  17    3.5712   571.1    3.308      49.086
2015    5       30     7  23    3.5694   570.9    3.308      49.054
2015    5       30     7  29    3.5676   570.8    3.307      49.022
2015    5       30     7  35    3.5658   570.7    3.307      48.990
2015    5       30     7  42    3.5640   570.5    3.306      48.958
2015    5       30     7  48    3.5622   570.4    3.306      48.925
2015    5       30     7  54    3.5604   570.3    3.305      48.892
2015    5       30     8   0    3.5586   570.1    3.305      48.860
2015    5       30     8   6    3.5568   570.0    3.304      48.827
2015    5       30     8  12    3.5550   569.9    3.304      48.795
2015    5       30     8  18    3.5532   569.7    3.303      48.762
2015    5       30     8  24    3.5514   569.6    3.302      48.729
2015    5       30     8  30    3.5496   569.4    3.302      48.696
2015    5       30     8  36    3.5478   569.3    3.301      48.663
2015    5       30     8  42    3.5460   569.2    3.300      48.630
2015    5       30     8  48    3.5442   569.0    3.300      48.597
2015    5       30     8  54    3.5424   568.9    3.299      48.563
2015    5       30     9   1    3.5406   568.8    3.298      48.530
2015    5       30     9   7    3.5388   568.6    3.298      48.496
2015    5       30     9  13    3.5370   568.5    3.297      48.462
2015    5       30     9  19    3.5353   568.4    3.296      48.427
2015    5       30     9  25    3.5335   568.2    3.295      48.392
2015    5       30     9  31    3.5317   568.1    3.294      48.357
2015    5       30     9  37    3.5299   567.9    3.293      48.322
2015    5       30     9  43    3.5281   567.8    3.293      48.287
2015    5       30     9  49    3.5263   567.7    3.292      48.251
2015    5       30     9  55    3.5245   567.5    3.291      48.215
2015    5       30    10   1    3.5227   567.4    3.290      48.178
2015    5       30    10   7    3.5209   567.2    3.289      48.141
2015    5       30    10  13    3.5191   567.1    3.288      48.104
2015    5       30    10  20    3.5173   566.9    3.287      48.066
2015    5       30    10  26    3.5155   566.8    3.286      48.029
2015    5       30    10  32    3.5137   566.6    3.285      47.990
2015    5       30    10  38    3.5118   566.5    3.284      47.952
2015    5       30    10  44    3.5100   566.4    3.283      47.913
2015    5       30    10  50    3.5082   566.2    3.282      47.874
2015    5       30    10  56    3.5064   566.0    3.281      47.834
2015    5       30    11   2    3.5046   565.9    3.280      47.795
2015    5       30    11   8    3.5028   565.7    3.280      47.755
2015    5       30    11  14    3.5010   565.6    3.279      47.715
2015    5       30    11  20    3.4992   565.4    3.278      47.676
2015    5       30    11  26    3.4975   565.3    3.277      47.637
2015    5       30    11  32    3.4957   565.1    3.277      47.598
2015    5       30    11  39    3.4940   564.9    3.276      47.560
2015    5       30    11  45    3.4923   564.8    3.276      47.522
2015    5       30    11  51    3.4907   564.6    3.275      47.485
2015    5       30    11  57    3.4890   564.5    3.275      47.448
2015    5       30    12   3    3.4874   564.3    3.275      47.413
2015    5       30    12   9    3.4858   564.1    3.275      47.378
2015    5       30    12  15    3.4843   564.0    3.275      47.344
2015    5       30    12  21    3.4828   563.8    3.276      47.312
2015    5       30    12  27    3.4813   563.6    3.276      47.280
2015    5       30    12  33    3.4798   563.5    3.276      47.249
2015    5       30    12  39    3.4784   563.3    3.277      47.220
2015    5       30    12  45    3.4770   563.2    3.278      47.192
2015    5       30    12  51    3.4757   563.0    3.279      47.165
2015    5       30    12  58    3.4743   562.9    3.280      47.139
2015    5       30    13   4    3.4729   562.7    3.281      47.114
2015    5       30    13  10    3.4716   562.5    3.282      47.090
2015    5       30    13  16    3.4702   562.4    3.283      47.066
2015    5       30    13  22    3.4688   562.2    3.284      47.042
2015    5       30    13  28    3.4673   562.1    3.284      47.019
2015    5       30    13  34    3.4658   561.9    3.285      46.995
2015    5       30    13  40    3.4643   561.8    3.286      46.970
2015    5       30    13  46    3.4628   561.6    3.287      46.944
2015    5       30    13  52    3.4612   561.5    3.288      46.918
2015    5       30    13  58    3.4596   561.3    3.288      46.891
2015    5       30    14   4    3.4580   561.2    3.289      46.862
2015    5       30    14  10    3.4564   561.0    3.289      46.833
2015    5       30    14  17    3.4547   560.9    3.290      46.804
2015    5       30    14  23    3.4531   560.7    3.290      46.773
2015    5       30    14  29    3.4514   560.6    3.290      46.742
2015    5       30    14  35    3.4496   560.4    3.290      46.709
2015    5       30    14  41    3.4479   560.3    3.291      46.677
2015    5       30    14  47    3.4462   560.1    3.291      46.643
2015    5       30    14  53    3.4444   559.9    3.291      46.609
2015    5       30    14  59    3.4426   559.8    3.291      46.575
2015    5       30    15   5    3.4409   559.6    3.291      46.540
2015    5       30    15  11    3.4391   559.4    3.291      46.505
2015    5       30    15  17    3.4373   559.3    3.291      46.469
2015    5       30    15  23    3.4356   559.1    3.291      46.434
2015    5       30    15  29    3.4338   558.9    3.291      46.398
2015    5       30    15  36    3.4321   558.8    3.291      46.362
2015    5       30    15  42    3.4303   558.6    3.292      46.326
2015    5       30    15  48    3.4286   558.4    3.292      46.291
2015    5       30    15  54    3.4269   558.2    3.292      46.255
2015    5       30    16   0    3.4252   558.1    3.292      46.219
2015    5       30    16   6    3.4235   557.9    3.293      46.185
2015    5       30    16  12    3.4219   557.7    3.293      46.150
2015    5       30    16  18    3.4202   557.5    3.293      46.117
2015    5       30    16  24    3.4186   557.4    3.294      46.084
2015    5       30    16  30    3.4170   557.2    3.294      46.051
2015    5       30    16  36    3.4154   557.0    3.294      46.018
2015    5       30    16  42    3.4138   556.9    3.295      45.985
2015    5       30    16  48    3.4123   556.7    3.295      45.952
2015    5       30    16  54    3.4107   556.5    3.295      45.919
2015    5       30    17   1    3.4091   556.3    3.296      45.886
2015    5       30    17   7    3.4076   556.2    3.296      45.853
2015    5       30    17  13    3.4061   556.0    3.297      45.819
2015    5       30    17  19    3.4046   555.8    3.297      45.786
2015    5       30    17  25    3.4031   555.7    3.297      45.753
2015    5       30    17  31    3.4016   555.5    3.298      45.720
2015    5       30    17  37    3.4001   555.3    3.298      45.687
2015    5       30    17  43    3.3986   555.2    3.298      45.654
2015    5       30    17  49    3.3972   555.0    3.299      45.622
2015    5       30    17  55    3.3957   554.8    3.299      45.589
2015    5       30    18   1    3.3942   554.7    3.299      45.555
2015    5       30    18   7    3.3927   554.5    3.299      45.521
2015    5       30    18  13    3.3912   554.3    3.299      45.486
2015    5       30    18  20    3.3897   554.2    3.299      45.452
2015    5       30    18  26    3.3882   554.0    3.299      45.416
2015    5       30    18  32    3.3867   553.9    3.299      45.381
2015    5       30    18  38    3.3852   553.7    3.299      45.346
2015    5       30    18  44    3.3837   553.5    3.299      45.310
2015    5       30    18  50    3.3822   553.4    3.299      45.274
2015    5       30    18  56    3.3807   553.2    3.299      45.238
2015    5       30    19   2    3.3793   553.0    3.298      45.202
2015    5       30    19   8    3.3778   552.9    3.298      45.166
2015    5       30    19  14    3.3764   552.7    3.298      45.130
2015    5       30    19  20    3.3749   552.6    3.298      45.094
2015    5       30    19  26    3.3735   552.4    3.298      45.058
2015    5       30    19  32    3.3720   552.2    3.298      45.022
2015    5       30    19  39    3.3705   552.1    3.298      44.986
2015    5       30    19  45    3.3691   551.9    3.298      44.950
2015    5       30    19  51    3.3676   551.8    3.297      44.913
2015    5       30    19  57    3.3661   551.6    3.297      44.877
2015    5       30    20   3    3.3646   551.4    3.297      44.841
2015    5       30    20   9    3.3631   551.3    3.297      44.804
2015    5       30    20  15    3.3616   551.1    3.297      44.767
2015    5       30    20  21    3.3601   550.9    3.297      44.730
2015    5       30    20  27    3.3585   550.8    3.296      44.692
2015    5       30    20  33    3.3569   550.6    3.296      44.654
2015    5       30    20  39    3.3554   550.4    3.296      44.617
2015    5       30    20  45    3.3538   550.2    3.296      44.578
2015    5       30    20  51    3.3522   550.1    3.295      44.539
2015    5       30    20  58    3.3506   549.9    3.295      44.500
2015    5       30    21   4    3.3490   549.7    3.295      44.461
2015    5       30    21  10    3.3474   549.5    3.294      44.421
2015    5       30    21  16    3.3458   549.3    3.294      44.380
2015    5       30    21  22    3.3442   549.2    3.294      44.340
2015    5       30    21  28    3.3426   549.0    3.293      44.299
2015    5       30    21  34    3.3410   548.8    3.293      44.258
2015    5       30    21  40    3.3394   548.6    3.293      44.217
2015    5       30    21  46    3.3378   548.4    3.292      44.175
2015    5       30    21  52    3.3363   548.2    3.292      44.133
2015    5       30    21  58    3.3347   548.0    3.292      44.091
2015    5       30    22   4    3.3331   547.8    3.291      44.049
2015    5       30    22  10    3.3315   547.6    3.291      44.007
2015    5       30    22  17    3.3299   547.4    3.291      43.965
2015    5       30    22  23    3.3284   547.3    3.290      43.923
2015    5       30    22  29    3.3268   547.1    3.290      43.881
2015    5       30    22  35    3.3253   546.9    3.290      43.839
2015    5       30    22  41    3.3237   546.7    3.290      43.797
2015    5       30    22  47    3.3222   546.5    3.290      43.755
2015    5       30    22  53    3.3207   546.3    3.290      43.714
2015    5       30    22  59    3.3192   546.1    3.290      43.673
2015    5       30    23   5    3.3177   545.8    3.290      43.633
2015    5       30    23  11    3.3162   545.6    3.290      43.592
2015    5       30    23  17    3.3148   545.4    3.291      43.553
2015    5       30    23  23    3.3133   545.2    3.291      43.514
2015    5       30    23  29    3.3119   545.0    3.291      43.477
2015    5       30    23  36    3.3105   544.8    3.292      43.440
2015    5       30    23  42    3.3091   544.6    3.293      43.404
2015    5       30    23  48    3.3078   544.4    3.293      43.369
2015    5       30    23  54    3.3064   544.2    3.294      43.334
2015    5       31     0   0    3.3051   544.0    3.295      43.300
2015    5       31     0   6    3.3037   543.8    3.296      43.267
2015    5       31     0  12    3.3024   543.6    3.297      43.234
2015    5       31     0  18    3.3011   543.4    3.298      43.202
2015    5       31     0  24    3.2999   543.2    3.299      43.170
2015    5       31     0  30    3.2987   543.0    3.300      43.140
2015    5       31     0  36    3.2975   542.8    3.302      43.109
2015    5       31     0  42    3.2963   542.6    3.303      43.081
2015    5       31     0  48    3.2952   542.4    3.305      43.053
2015    5       31     0  55    3.2940   542.2    3.307      43.026
2015    5       31     1   1    3.2929   542.0    3.309      43.001
2015    5       31     1   7    3.2918   541.8    3.311      42.976
2015    5       31     1  13    3.2907   541.6    3.313      42.952
2015    5       31     1  19    3.2896   541.4    3.315      42.928
2015    5       31     1  25    3.2885   541.2    3.317      42.904
2015    5       31     1  31    3.2875   541.0    3.319      42.880
2015    5       31     1  37    3.2864   540.8    3.321      42.856
2015    5       31     1  43    3.2853   540.6    3.323      42.832
2015    5       31     1  49    3.2842   540.4    3.325      42.808
2015    5       31     1  55    3.2831   540.2    3.328      42.784
2015    5       31     2   1    3.2820   540.0    3.330      42.760
2015    5       31     2   7    3.2809   539.8    3.332      42.736
2015    5       31     2  13    3.2797   539.7    3.334      42.711
2015    5       31     2  20    3.2786   539.5    3.336      42.687
2015    5       31     2  26    3.2775   539.3    3.338      42.661
2015    5       31     2  32    3.2763   539.1    3.339      42.636
2015    5       31     2  38    3.2751   538.9    3.341      42.610
2015    5       31     2  44    3.2739   538.7    3.343      42.584
2015    5       31     2  50    3.2727   538.5    3.344      42.557
2015    5       31     2  56    3.2715   538.3    3.346      42.530
2015    5       31     3   2    3.2703   538.1    3.347      42.503
2015    5       31     3   8    3.2691   537.9    3.348      42.475
2015    5       31     3  14    3.2679   537.7    3.350      42.446
2015    5       31     3  20    3.2666   537.5    3.351      42.417
2015    5       31     3  26    3.2654   537.3    3.352      42.388
2015    5       31     3  33    3.2642   537.2    3.353      42.358
2015    5       31     3  39    3.2629   537.0    3.354      42.327
2015    5       31     3  45    3.2617   536.8    3.354      42.296
2015    5       31     3  51    3.2604   536.6    3.355      42.265
2015    5       31     3  57    3.2591   536.4    3.356      42.233
2015    5       31     4   3    3.2579   536.2    3.356      42.201
2015    5       31     4   9    3.2566   536.0    3.357      42.169
2015    5       31     4  15    3.2553   535.8    3.357      42.136
2015    5       31     4  21    3.2540   535.6    3.358      42.102
2015    5       31     4  27    3.2527   535.4    3.358      42.068
2015    5       31     4  33    3.2515   535.3    3.359      42.034
2015    5       31     4  39    3.2502   535.1    3.359      41.999
2015    5       31     4  45    3.2489   534.9    3.359      41.964
2015    5       31     4  51    3.2475   534.7    3.359      41.928
2015    5       31     4  58    3.2462   534.5    3.359      41.892
2015    5       31     5   4    3.2449   534.3    3.359      41.855
2015    5       31     5  10    3.2436   534.1    3.359      41.818
2015    5       31     5  16    3.2422   533.9    3.359      41.781
2015    5       31     5  22    3.2409   533.7    3.359      41.743
2015    5       31     5  28    3.2396   533.5    3.359      41.705
2015    5       31     5  34    3.2383   533.4    3.359      41.666
2015    5       31     5  40    3.2369   533.2    3.358      41.627
2015    5       31     5  46    3.2356   533.0    3.358      41.588
2015    5       31     5  52    3.2342   532.8    3.358      41.549
2015    5       31     5  58    3.2329   532.6    3.358      41.509
2015    5       31     6   4    3.2316   532.4    3.357      41.468
2015    5       31     6  10    3.2302   532.2    3.357      41.428
2015    5       31     6  17    3.2289   532.0    3.357      41.387
2015    5       31     6  23    3.2275   531.8    3.356      41.346
2015    5       31     6  29    3.2262   531.6    3.356      41.305
2015    5       31     6  35    3.2249   531.4    3.356      41.263
2015    5       31     6  41    3.2235   531.2    3.355      41.222
2015    5       31     6  47    3.2222   530.9    3.355      41.180
2015    5       31     6  53    3.2209   530.7    3.355      41.138
2015    5       31     6  59    3.2196   530.5    3.354      41.096
2015    5       31     7   5    3.2183   530.3    3.354      41.055
2015    5       31     7  11    3.2170   530.1    3.354      41.013
2015    5       31     7  17    3.2157   529.9    3.354      40.971
2015    5       31     7  23    3.2145   529.7    3.354      40.930
2015    5       31     7  29    3.2132   529.4    3.354      40.889
2015    5       31     7  36    3.2120   529.2    3.354      40.849
2015    5       31     7  42    3.2107   529.0    3.354      40.808
2015    5       31     7  48    3.2096   528.8    3.354      40.768
2015    5       31     7  54    3.2084   528.6    3.355      40.729
2015    5       31     8   0    3.2072   528.4    3.355      40.690
2015    5       31     8   6    3.2061   528.1    3.356      40.652
2015    5       31     8  12    3.2050   527.9    3.356      40.615
2015    5       31     8  18    3.2039   527.7    3.357      40.578
2015    5       31     8  24    3.2028   527.5    3.358      40.542
2015    5       31     8  30    3.2018   527.2    3.359      40.506
2015    5       31     8  36    3.2008   527.0    3.360      40.471
2015    5       31     8  42    3.1998   526.8    3.361      40.437
2015    5       31     8  48    3.1988   526.6    3.363      40.404
2015    5       31     8  55    3.1979   526.3    3.364      40.371
2015    5       31     9   1    3.1969   526.1    3.366      40.339
2015    5       31     9   7    3.1960   525.9    3.368      40.307
2015    5       31     9  13    3.1951   525.7    3.369      40.277
2015    5       31     9  19    3.1942   525.4    3.371      40.247
2015    5       31     9  25    3.1933   525.2    3.373      40.217
2015    5       31     9  31    3.1924   525.0    3.375      40.188
2015    5       31     9  37    3.1915   524.8    3.377      40.160
2015    5       31     9  43    3.1906   524.5    3.379      40.131
2015    5       31     9  49    3.1897   524.3    3.381      40.103
2015    5       31     9  55    3.1888   524.1    3.383      40.076
2015    5       31    10   1    3.1880   523.8    3.386      40.049
2015    5       31    10   7    3.1871   523.6    3.388      40.022
2015    5       31    10  14    3.1863   523.4    3.390      39.995
2015    5       31    10  20    3.1855   523.2    3.392      39.969
2015    5       31    10  26    3.1847   522.9    3.395      39.943
2015    5       31    10  32    3.1839   522.7    3.397      39.917
2015    5       31    10  38    3.1831   522.5    3.400      39.892
2015    5       31    10  44    3.1824   522.3    3.402      39.867
2015    5       31    10  50    3.1816   522.0    3.405      39.843
2015    5       31    10  56    3.1809   521.8    3.407      39.819
2015    5       31    11   2    3.1801   521.6    3.410      39.795
2015    5       31    11   8    3.1794   521.4    3.412      39.771
2015    5       31    11  14    3.1786   521.2    3.415      39.747
2015    5       31    11  20    3.1778   521.0    3.417      39.723
2015    5       31    11  26    3.1771   520.7    3.420      39.699
2015    5       31    11  33    3.1763   520.5    3.422      39.675
2015    5       31    11  39    3.1755   520.3    3.424      39.651
2015    5       31    11  45    3.1747   520.1    3.426      39.627
2015    5       31    11  51    3.1739   519.9    3.429      39.603
2015    5       31    11  57    3.1731   519.7    3.431      39.578
2015    5       31    12   3    3.1723   519.4    3.433      39.554
2015    5       31    12   9    3.1714   519.2    3.435      39.529
2015    5       31    12  15    3.1706   519.0    3.437      39.504
2015    5       31    12  21    3.1698   518.8    3.439      39.479
2015    5       31    12  27    3.1689   518.6    3.441      39.454
2015    5       31    12  33    3.1681   518.4    3.442      39.428
2015    5       31    12  39    3.1672   518.2    3.444      39.402
2015    5       31    12  45    3.1663   518.0    3.446      39.376
2015    5       31    12  52    3.1655   517.7    3.447      39.349
2015    5       31    12  58    3.1646   517.5    3.449      39.323
2015    5       31    13   4    3.1637   517.3    3.450      39.296
2015    5       31    13  10    3.1628   517.1    3.452      39.268
2015    5       31    13  16    3.1619   516.9    3.453      39.241
2015    5       31    13  22    3.1610   516.7    3.455      39.213
2015    5       31    13  28    3.1601   516.5    3.456      39.185
2015    5       31    13  34    3.1592   516.3    3.457      39.156
2015    5       31    13  40    3.1583   516.1    3.458      39.128
2015    5       31    13  46    3.1574   515.8    3.459      39.099
2015    5       31    13  52    3.1565   515.6    3.461      39.069
2015    5       31    13  58    3.1555   515.4    3.462      39.040
2015    5       31    14   4    3.1546   515.2    3.463      39.010
2015    5       31    14  10    3.1537   515.0    3.464      38.980
2015    5       31    14  17    3.1527   514.8    3.465      38.950
2015    5       31    14  23    3.1518   514.6    3.466      38.919
2015    5       31    14  29    3.1508   514.4    3.466      38.888
2015    5       31    14  35    3.1499   514.2    3.467      38.856
2015    5       31    14  41    3.1489   514.0    3.468      38.825
2015    5       31    14  47    3.1480   513.7    3.469      38.793
2015    5       31    14  53    3.1470   513.5    3.469      38.760
2015    5       31    14  59    3.1460   513.3    3.470      38.728
2015    5       31    15   5    3.1451   513.1    3.471      38.695
2015    5       31    15  11    3.1441   512.9    3.472      38.662
2015    5       31    15  17    3.1432   512.7    3.472      38.629
2015    5       31    15  23    3.1422   512.5    3.473      38.595
2015    5       31    15  29    3.1413   512.2    3.473      38.561
2015    5       31    15  36    3.1403   512.0    3.474      38.527
2015    5       31    15  42    3.1394   511.8    3.475      38.493
2015    5       31    15  48    3.1384   511.6    3.475      38.459
2015    5       31    15  54    3.1375   511.4    3.476      38.424
2015    5       31    16   0    3.1366   511.1    3.476      38.390
2015    5       31    16   6    3.1357   510.9    3.477      38.355
2015    5       31    16  12    3.1347   510.7    3.478      38.321
2015    5       31    16  18    3.1338   510.5    3.479      38.286
2015    5       31    16  24    3.1330   510.2    3.479      38.252
2015    5       31    16  30    3.1321   510.0    3.480      38.217
2015    5       31    16  36    3.1312   509.8    3.481      38.183
2015    5       31    16  42    3.1304   509.5    3.482      38.149
2015    5       31    16  48    3.1296   509.3    3.483      38.116
2015    5       31    16  55    3.1288   509.1    3.484      38.083
2015    5       31    17   1    3.1280   508.8    3.485      38.050
2015    5       31    17   7    3.1272   508.6    3.486      38.017
2015    5       31    17  13    3.1265   508.4    3.488      37.986
2015    5       31    17  19    3.1258   508.1    3.489      37.954
2015    5       31    17  25    3.1252   507.9    3.491      37.924
2015    5       31    17  31    3.1245   507.7    3.492      37.894
2015    5       31    17  37    3.1239   507.4    3.494      37.864
2015    5       31    17  43    3.1233   507.2    3.496      37.836
2015    5       31    17  49    3.1228   507.0    3.498      37.808
2015    5       31    17  55    3.1223   506.7    3.500      37.780
2015    5       31    18   1    3.1218   506.5    3.502      37.753
2015    5       31    18   7    3.1213   506.3    3.505      37.727
2015    5       31    18  14    3.1209   506.0    3.507      37.702
2015    5       31    18  20    3.1204   505.8    3.510      37.677
2015    5       31    18  26    3.1200   505.6    3.512      37.652
2015    5       31    18  32    3.1196   505.3    3.515      37.628
2015    5       31    18  38    3.1192   505.1    3.517      37.604
2015    5       31    18  44    3.1188   504.9    3.520      37.580
2015    5       31    18  50    3.1183   504.7    3.523      37.556
2015    5       31    18  56    3.1179   504.4    3.525      37.533
2015    5       31    19   2    3.1175   504.2    3.528      37.509
2015    5       31    19   8    3.1171   504.0    3.531      37.486
2015    5       31    19  14    3.1166   503.7    3.533      37.462
2015    5       31    19  20    3.1162   503.5    3.536      37.439
2015    5       31    19  26    3.1158   503.3    3.539      37.416
2015    5       31    19  33    3.1153   503.1    3.541      37.392
2015    5       31    19  39    3.1149   502.8    3.544      37.368
2015    5       31    19  45    3.1145   502.6    3.547      37.345
2015    5       31    19  51    3.1140   502.4    3.549      37.321
2015    5       31    19  57    3.1136   502.1    3.552      37.297
2015    5       31    20   3    3.1131   501.9    3.554      37.273
2015    5       31    20   9    3.1127   501.7    3.557      37.248
2015    5       31    20  15    3.1122   501.5    3.559      37.224
2015    5       31    20  21    3.1118   501.2    3.562      37.200
2015    5       31    20  27    3.1113   501.0    3.564      37.175
2015    5       31    20  33    3.1109   500.8    3.567      37.150
2015    5       31    20  39    3.1104   500.6    3.569      37.125
2015    5       31    20  45    3.1100   500.3    3.572      37.100
2015    5       31    20  52    3.1095   500.1    3.574      37.075
2015    5       31    20  58    3.1090   499.9    3.576      37.050
2015    5       31    21   4    3.1086   499.7    3.578      37.024
2015    5       31    21  10    3.1081   499.4    3.581      36.998
2015    5       31    21  16    3.1076   499.2    3.583      36.973
2015    5       31    21  22    3.1071   499.0    3.585      36.947
2015    5       31    21  28    3.1066   498.8    3.587      36.921
2015    5       31    21  34    3.1061   498.5    3.589      36.894
2015    5       31    21  40    3.1056   498.3    3.591      36.868
2015    5       31    21  46    3.1052   498.1    3.593      36.841
2015    5       31    21  52    3.1046   497.9    3.595      36.815
2015    5       31    21  58    3.1042   497.6    3.597      36.788
2015    5       31    22   4    3.1037   497.4    3.599      36.761
2015    5       31    22  11    3.1032   497.2    3.601      36.733
2015    5       31    22  17    3.1027   497.0    3.603      36.706
2015    5       31    22  23    3.1022   496.7    3.605      36.679
2015    5       31    22  29    3.1017   496.5    3.607      36.651
2015    5       31    22  35    3.1012   496.3    3.609      36.623
2015    5       31    22  41    3.1007   496.1    3.610      36.595
2015    5       31    22  47    3.1002   495.9    3.612      36.567
2015    5       31    22  53    3.0997   495.6    3.614      36.539
2015    5       31    22  59    3.0993   495.4    3.615      36.511
2015    5       31    23   5    3.0988   495.2    3.617      36.483
2015    5       31    23  11    3.0983   495.0    3.619      36.454
2015    5       31    23  17    3.0978   494.7    3.621      36.425
2015    5       31    23  23    3.0974   494.5    3.622      36.397
2015    5       31    23  30    3.0969   494.3    3.624      36.368
2015    5       31    23  36    3.0965   494.1    3.626      36.339
2015    5       31    23  42    3.0960   493.8    3.627      36.310
2015    5       31    23  48    3.0956   493.6    3.629      36.282
2015    5       31    23  54    3.0951   493.4    3.631      36.253
2015    6        1     0   0    3.0947   493.1    3.632      36.224
2015    6        1     0   6    3.0943   492.9    3.634      36.196
2015    6        1     0  12    3.0939   492.7    3.636      36.167
2015    6        1     0  18    3.0935   492.5    3.638      36.138
2015    6        1     0  24    3.0931   492.2    3.639      36.110
2015    6        1     0  30    3.0927   492.0    3.641      36.081
2015    6        1     0  36    3.0924   491.8    3.643      36.053
2015    6        1     0  42    3.0920   491.5    3.645      36.025
2015    6        1     0  49    3.0917   491.3    3.647      35.998
2015    6        1     0  55    3.0913   491.1    3.649      35.970
2015    6        1     1   1    3.0910   490.9    3.651      35.943
2015    6        1     1   7    3.0907   490.6    3.653      35.915
2015    6        1     1  13    3.0904   490.4    3.656      35.888
2015    6        1     1  19    3.0901   490.2    3.658      35.862
2015    6        1     1  25    3.0899   489.9    3.660      35.835
2015    6        1     1  31    3.0896   489.7    3.663      35.809
2015    6        1     1  37    3.0894   489.5    3.665      35.783
2015    6        1     1  43    3.0892   489.2    3.668      35.758
2015    6        1     1  49    3.0890   489.0    3.670      35.733
2015    6        1     1  55    3.0888   488.8    3.673      35.708
2015    6        1     2   1    3.0887   488.5    3.676      35.683
2015    6        1     2   8    3.0885   488.3    3.679      35.659
2015    6        1     2  14    3.0884   488.1    3.681      35.635
2015    6        1     2  20    3.0883   487.8    3.684      35.611
2015    6        1     2  26    3.0882   487.6    3.687      35.588
2015    6        1     2  32    3.0881   487.4    3.690      35.565
2015    6        1     2  38    3.0880   487.2    3.694      35.542
2015    6        1     2  44    3.0879   486.9    3.697      35.519
2015    6        1     2  50    3.0879   486.7    3.700      35.497
2015    6        1     2  56    3.0878   486.5    3.703      35.475
2015    6        1     3   2    3.0878   486.2    3.707      35.453
2015    6        1     3   8    3.0878   486.0    3.710      35.431
2015    6        1     3  14    3.0878   485.8    3.714      35.410
2015    6        1     3  20    3.0878   485.5    3.717      35.389
2015    6        1     3  26    3.0878   485.3    3.721      35.368
2015    6        1     3  33    3.0879   485.1    3.724      35.347
2015    6        1     3  39    3.0879   484.9    3.728      35.326
2015    6        1     3  45    3.0879   484.6    3.731      35.305
2015    6        1     3  51    3.0880   484.4    3.735      35.284
2015    6        1     3  57    3.0880   484.2    3.738      35.263
2015    6        1     4   3    3.0880   484.0    3.742      35.242
2015    6        1     4   9    3.0880   483.7    3.745      35.221
2015    6        1     4  15    3.0880   483.5    3.749      35.200
2015    6        1     4  21    3.0880   483.3    3.752      35.179
2015    6        1     4  27    3.0880   483.1    3.756      35.157
2015    6        1     4  33    3.0880   482.8    3.759      35.136
2015    6        1     4  39    3.0880   482.6    3.762      35.114
2015    6        1     4  45    3.0880   482.4    3.766      35.092
2015    6        1     4  52    3.0880   482.1    3.769      35.070
2015    6        1     4  58    3.0880   481.9    3.772      35.048
2015    6        1     5   4    3.0880   481.7    3.775      35.026
2015    6        1     5  10    3.0880   481.4    3.778      35.004
2015    6        1     5  16    3.0880   481.2    3.781      34.981
2015    6        1     5  22    3.0880   481.0    3.784      34.958
2015    6        1     5  28    3.0880   480.8    3.787      34.935
2015    6        1     5  34    3.0880   480.5    3.790      34.913
2015    6        1     5  40    3.0881   480.3    3.793      34.889
2015    6        1     5  46    3.0881   480.1    3.796      34.866
2015    6        1     5  52    3.0881   479.9    3.799      34.843
2015    6        1     5  58    3.0882   479.6    3.802      34.819
2015    6        1     6   4    3.0882   479.4    3.804      34.795
2015    6        1     6  11    3.0882   479.2    3.807      34.771
2015    6        1     6  17    3.0883   479.0    3.810      34.747
2015    6        1     6  23    3.0883   478.7    3.813      34.722
2015    6        1     6  29    3.0884   478.5    3.815      34.698
2015    6        1     6  35    3.0885   478.3    3.818      34.673
2015    6        1     6  41    3.0885   478.0    3.820      34.648
2015    6        1     6  47    3.0886   477.8    3.823      34.622
2015    6        1     6  53    3.0886   477.6    3.825      34.596
2015    6        1     6  59    3.0887   477.4    3.828      34.571
2015    6        1     7   5    3.0888   477.1    3.831      34.545
2015    6        1     7  11    3.0888   476.9    3.833      34.519
2015    6        1     7  17    3.0889   476.7    3.836      34.492
2015    6        1     7  23    3.0890   476.5    3.838      34.466
2015    6        1     7  30    3.0890   476.2    3.841      34.440
2015    6        1     7  36    3.0891   476.0    3.843      34.413
2015    6        1     7  42    3.0892   475.8    3.846      34.387
2015    6        1     7  48    3.0893   475.5    3.848      34.360
2015    6        1     7  54    3.0894   475.3    3.851      34.334
2015    6        1     8   0    3.0895   475.1    3.853      34.307
2015    6        1     8   6    3.0896   474.9    3.856      34.281
2015    6        1     8  12    3.0897   474.6    3.858      34.254
2015    6        1     8  18    3.0898   474.4    3.861      34.228
2015    6        1     8  24    3.0899   474.2    3.864      34.202
2015    6        1     8  30    3.0900   474.0    3.867      34.175
2015    6        1     8  36    3.0901   473.7    3.869      34.149
2015    6        1     8  42    3.0903   473.5    3.872      34.123
2015    6        1     8  49    3.0904   473.3    3.875      34.097
2015    6        1     8  55    3.0906   473.0    3.878      34.071
2015    6        1     9   1    3.0908   472.8    3.881      34.046
2015    6        1     9   7    3.0910   472.6    3.884      34.020
2015    6        1     9  13    3.0911   472.4    3.887      33.995
2015    6        1     9  19    3.0913   472.1    3.890      33.970
2015    6        1     9  25    3.0916   471.9    3.893      33.945
2015    6        1     9  31    3.0918   471.7    3.896      33.920
2015    6        1     9  37    3.0920   471.4    3.899      33.896
2015    6        1     9  43    3.0923   471.2    3.903      33.872
2015    6        1     9  49    3.0926   471.0    3.906      33.848
2015    6        1     9  55    3.0929   470.7    3.910      33.824
2015    6        1    10   1    3.0932   470.5    3.913      33.801
2015    6        1    10   8    3.0935   470.3    3.917      33.779
2015    6        1    10  14    3.0938   470.0    3.921      33.756
2015    6        1    10  20    3.0942   469.8    3.925      33.734
2015    6        1    10  26    3.0946   469.6    3.929      33.713
2015    6        1    10  32    3.0950   469.3    3.933      33.692
2015    6        1    10  38    3.0954   469.1    3.937      33.671
2015    6        1    10  44    3.0959   468.9    3.942      33.651
2015    6        1    10  50    3.0964   468.7    3.946      33.632
2015    6        1    10  56    3.0969   468.4    3.950      33.613
2015    6        1    11   2    3.0974   468.2    3.955      33.594
2015    6        1    11   8    3.0980   468.0    3.960      33.576
2015    6        1    11  14    3.0985   467.7    3.964      33.559
2015    6        1    11  20    3.0991   467.5    3.969      33.541
2015    6        1    11  27    3.0997   467.3    3.974      33.524
2015    6        1    11  33    3.1004   467.1    3.979      33.508
2015    6        1    11  39    3.1010   466.8    3.984      33.492
2015    6        1    11  45    3.1016   466.6    3.989      33.476
2015    6        1    11  51    3.1023   466.4    3.994      33.460
2015    6        1    11  57    3.1030   466.1    3.999      33.444
2015    6        1    12   3    3.1037   465.9    4.004      33.429
2015    6        1    12   9    3.1044   465.7    4.009      33.414
2015    6        1    12  15    3.1050   465.5    4.014      33.398
2015    6        1    12  21    3.1057   465.2    4.019      33.383
2015    6        1    12  27    3.1064   465.0    4.024      33.368
2015    6        1    12  33    3.1071   464.8    4.029      33.353
2015    6        1    12  39    3.1078   464.6    4.034      33.338
2015    6        1    12  46    3.1085   464.3    4.039      33.322
2015    6        1    12  52    3.1092   464.1    4.043      33.307
2015    6        1    12  58    3.1099   463.9    4.048      33.292
2015    6        1    13   4    3.1107   463.6    4.053      33.276
2015    6        1    13  10    3.1114   463.4    4.058      33.261
2015    6        1    13  16    3.1121   463.2    4.062      33.245
2015    6        1    13  22    3.1128   463.0    4.067      33.229
2015    6        1    13  28    3.1136   462.7    4.071      33.213
2015    6        1    13  34    3.1143   462.5    4.076      33.197
2015    6        1    13  40    3.1151   462.3    4.080      33.181
2015    6        1    13  46    3.1158   462.1    4.085      33.165
2015    6        1    13  52    3.1166   461.8    4.089      33.149
2015    6        1    13  58    3.1174   461.6    4.093      33.133
2015    6        1    14   5    3.1182   461.4    4.098      33.116
2015    6        1    14  11    3.1190   461.2    4.102      33.099
2015    6        1    14  17    3.1198   460.9    4.106      33.082
2015    6        1    14  23    3.1206   460.7    4.110      33.065
2015    6        1    14  29    3.1214   460.5    4.115      33.047
2015    6        1    14  35    3.1222   460.3    4.119      33.030
2015    6        1    14  41    3.1231   460.0    4.123      33.012
2015    6        1    14  47    3.1239   459.8    4.127      32.994
2015    6        1    14  53    3.1247   459.6    4.131      32.976
2015    6        1    14  59    3.1256   459.4    4.135      32.957
2015    6        1    15   5    3.1264   459.1    4.139      32.939
2015    6        1    15  11    3.1272   458.9    4.143      32.920
2015    6        1    15  17    3.1281   458.7    4.147      32.901
2015    6        1    15  24    3.1289   458.5    4.151      32.882
2015    6        1    15  30    3.1298   458.2    4.155      32.863
2015    6        1    15  36    3.1306   458.0    4.159      32.844
2015    6        1    15  42    3.1315   457.8    4.163      32.825
2015    6        1    15  48    3.1324   457.6    4.168      32.806
2015    6        1    15  54    3.1332   457.4    4.172      32.788
2015    6        1    16   0    3.1341   457.1    4.176      32.769
2015    6        1    16   6    3.1350   456.9    4.180      32.750
2015    6        1    16  12    3.1359   456.7    4.184      32.731
2015    6        1    16  18    3.1369   456.5    4.189      32.712
2015    6        1    16  24    3.1378   456.2    4.193      32.694
2015    6        1    16  30    3.1388   456.0    4.198      32.676
2015    6        1    16  36    3.1397   455.8    4.202      32.657
2015    6        1    16  43    3.1407   455.6    4.207      32.639
2015    6        1    16  49    3.1417   455.3    4.211      32.622
2015    6        1    16  55    3.1427   455.1    4.216      32.604
2015    6        1    17   1    3.1438   454.9    4.221      32.587
2015    6        1    17   7    3.1448   454.7    4.226      32.570
2015    6        1    17  13    3.1459   454.4    4.231      32.553
2015    6        1    17  19    3.1470   454.2    4.236      32.537
2015    6        1    17  25    3.1481   454.0    4.241      32.521
2015    6        1    17  31    3.1492   453.8    4.246      32.505
2015    6        1    17  37    3.1504   453.6    4.251      32.490
2015    6        1    17  43    3.1515   453.3    4.257      32.475
2015    6        1    17  49    3.1527   453.1    4.262      32.461
2015    6        1    17  55    3.1539   452.9    4.268      32.446
2015    6        1    18   1    3.1552   452.7    4.274      32.432
2015    6        1    18   8    3.1564   452.5    4.279      32.419
2015    6        1    18  14    3.1577   452.2    4.285      32.406
2015    6        1    18  20    3.1590   452.0    4.291      32.393
2015    6        1    18  26    3.1603   451.8    4.297      32.380
2015    6        1    18  32    3.1617   451.6    4.303      32.368
2015    6        1    18  38    3.1631   451.4    4.309      32.357
2015    6        1    18  44    3.1644   451.2    4.315      32.345
2015    6        1    18  50    3.1659   451.0    4.321      32.334
2015    6        1    18  56    3.1673   450.7    4.328      32.323
2015    6        1    19   2    3.1688   450.5    4.334      32.313
2015    6        1    19   8    3.1702   450.3    4.340      32.303
2015    6        1    19  14    3.1718   450.1    4.347      32.292
2015    6        1    19  20    3.1733   449.9    4.353      32.283
2015    6        1    19  27    3.1748   449.7    4.360      32.273
2015    6        1    19  33    3.1764   449.5    4.366      32.264
2015    6        1    19  39    3.1780   449.3    4.373      32.254
2015    6        1    19  45    3.1796   449.1    4.379      32.245
2015    6        1    19  51    3.1812   448.9    4.385      32.236
2015    6        1    19  57    3.1828   448.7    4.392      32.227
2015    6        1    20   3    3.1845   448.5    4.398      32.218
2015    6        1    20   9    3.1861   448.3    4.405      32.209
2015    6        1    20  15    3.1878   448.1    4.411      32.200
2015    6        1    20  21    3.1894   447.9    4.418      32.191
2015    6        1    20  27    3.1911   447.7    4.424      32.182
2015    6        1    20  33    3.1928   447.5    4.431      32.173
2015    6        1    20  39    3.1946   447.3    4.437      32.164
2015    6        1    20  46    3.1963   447.1    4.444      32.155
2015    6        1    20  52    3.1980   446.9    4.450      32.146
2015    6        1    20  58    3.1998   446.7    4.456      32.138
2015    6        1    21   4    3.2015   446.5    4.463      32.129
2015    6        1    21  10    3.2033   446.3    4.469      32.120
2015    6        1    21  16    3.2051   446.1    4.476      32.111
2015    6        1    21  22    3.2069   445.9    4.482      32.103
2015    6        1    21  28    3.2088   445.7    4.489      32.094
2015    6        1    21  34    3.2106   445.5    4.495      32.086
2015    6        1    21  40    3.2125   445.3    4.502      32.078
2015    6        1    21  46    3.2144   445.1    4.508      32.069
2015    6        1    21  52    3.2163   444.9    4.515      32.061
2015    6        1    21  58    3.2182   444.7    4.522      32.053
2015    6        1    22   5    3.2201   444.5    4.528      32.045
2015    6        1    22  11    3.2220   444.3    4.535      32.038
2015    6        1    22  17    3.2239   444.1    4.542      32.030
2015    6        1    22  23    3.2258   443.9    4.548      32.023
2015    6        1    22  29    3.2277   443.8    4.555      32.016
2015    6        1    22  35    3.2296   443.6    4.562      32.008
2015    6        1    22  41    3.2315   443.4    4.569      32.001
2015    6        1    22  47    3.2333   443.2    4.576      31.994
2015    6        1    22  53    3.2352   443.0    4.583      31.987
2015    6        1    22  59    3.2371   442.8    4.590      31.981
2015    6        1    23   5    3.2390   442.6    4.597      31.974
2015    6        1    23  11    3.2408   442.5    4.604      31.967
2015    6        1    23  17    3.2427   442.3    4.611      31.961
2015    6        1    23  24    3.2446   442.1    4.618      31.954
2015    6        1    23  30    3.2464   441.9    4.625      31.948
2015    6        1    23  36    3.2483   441.7    4.632      31.942
2015    6        1    23  42    3.2502   441.5    4.639      31.935
2015    6        1    23  48    3.2520   441.4    4.646      31.929
2015    6        1    23  54    3.2539   441.2    4.653      31.923
2015    6        2     0   0    3.2558   441.0    4.660      31.917
2015    6        2     0   6    3.2576   440.8    4.667      31.912
2015    6        2     0  12    3.2595   440.6    4.674      31.906
2015    6        2     0  18    3.2614   440.5    4.681      31.901
2015    6        2     0  24    3.2633   440.3    4.688      31.895
2015    6        2     0  30    3.2653   440.1    4.696      31.890
2015    6        2     0  36    3.2672   439.9    4.703      31.885
2015    6        2     0  43    3.2691   439.7    4.710      31.881
2015    6        2     0  49    3.2711   439.6    4.717      31.876
2015    6        2     0  55    3.2731   439.4    4.724      31.872
2015    6        2     1   1    3.2751   439.2    4.732      31.868
2015    6        2     1   7    3.2771   439.0    4.739      31.865
2015    6        2     1  13    3.2791   438.9    4.746      31.861
2015    6        2     1  19    3.2811   438.7    4.754      31.858
2015    6        2     1  25    3.2831   438.5    4.761      31.855
2015    6        2     1  31    3.2852   438.3    4.768      31.853
2015    6        2     1  37    3.2873   438.2    4.776      31.850
2015    6        2     1  43    3.2894   438.0    4.783      31.848
2015    6        2     1  49    3.2915   437.8    4.791      31.846
2015    6        2     1  55    3.2936   437.7    4.798      31.844
2015    6        2     2   2    3.2957   437.5    4.805      31.842
2015    6        2     2   8    3.2978   437.3    4.813      31.840
2015    6        2     2  14    3.3000   437.2    4.820      31.839
2015    6        2     2  20    3.3021   437.0    4.828      31.838
2015    6        2     2  26    3.3043   436.9    4.835      31.836
2015    6        2     2  32    3.3065   436.7    4.842      31.835
2015    6        2     2  38    3.3087   436.5    4.850      31.834
2015    6        2     2  44    3.3109   436.4    4.857      31.833
2015    6        2     2  50    3.3131   436.2    4.865      31.832
2015    6        2     2  56    3.3154   436.1    4.872      31.831
2015    6        2     3   2    3.3176   435.9    4.879      31.830
2015    6        2     3   8    3.3199   435.8    4.887      31.829
2015    6        2     3  14    3.3222   435.6    4.894      31.828
2015    6        2     3  20    3.3244   435.5    4.901      31.827
2015    6        2     3  27    3.3267   435.3    4.909      31.826
2015    6        2     3  33    3.3290   435.2    4.916      31.825
2015    6        2     3  39    3.3313   435.0    4.923      31.824
2015    6        2     3  45    3.3337   434.9    4.931      31.823
2015    6        2     3  51    3.3360   434.7    4.938      31.822
2015    6        2     3  57    3.3384   434.6    4.945      31.820
2015    6        2     4   3    3.3407   434.4    4.953      31.819
2015    6        2     4   9    3.3431   434.3    4.960      31.818
2015    6        2     4  15    3.3455   434.1    4.967      31.817
2015    6        2     4  21    3.3479   434.0    4.975      31.816
2015    6        2     4  27    3.3503   433.8    4.982      31.815
2015    6        2     4  33    3.3527   433.7    4.990      31.814
2015    6        2     4  39    3.3551   433.6    4.997      31.813
2015    6        2     4  46    3.3576   433.4    5.005      31.813
2015    6        2     4  52    3.3601   433.3    5.012      31.812
2015    6        2     4  58    3.3625   433.1    5.020      31.811
2015    6        2     5   4    3.3650   433.0    5.027      31.810
2015    6        2     5  10    3.3675   432.9    5.035      31.810
2015    6        2     5  16    3.3700   432.7    5.043      31.809
2015    6        2     5  22    3.3725   432.6    5.051      31.809
2015    6        2     5  28    3.3750   432.5    5.059      31.809
2015    6        2     5  34    3.3775   432.3    5.067      31.809
2015    6        2     5  40    3.3800   432.2    5.074      31.809
2015    6        2     5  46    3.3825   432.1    5.083      31.809
2015    6        2     5  52    3.3850   432.0    5.091      31.810
2015    6        2     5  58    3.3875   431.8    5.099      31.810
2015    6        2     6   5    3.3899   431.7    5.107      31.811
2015    6        2     6  11    3.3924   431.6    5.115      31.812
2015    6        2     6  17    3.3948   431.5    5.123      31.813
2015    6        2     6  23    3.3972   431.3    5.132      31.814
2015    6        2     6  29    3.3996   431.2    5.140      31.815
2015    6        2     6  35    3.4019   431.1    5.149      31.816
2015    6        2     6  41    3.4043   431.0    5.157      31.817
2015    6        2     6  47    3.4066   430.9    5.165      31.818
2015    6        2     6  53    3.4089   430.7    5.174      31.820
2015    6        2     6  59    3.4112   430.6    5.182      31.821
2015    6        2     7   5    3.4135   430.5    5.191      31.822
2015    6        2     7  11    3.4158   430.4    5.199      31.824
2015    6        2     7  17    3.4181   430.3    5.208      31.825
2015    6        2     7  24    3.4203   430.2    5.216      31.827
2015    6        2     7  30    3.4226   430.1    5.224      31.829
2015    6        2     7  36    3.4248   429.9    5.232      31.831
2015    6        2     7  42    3.4270   429.8    5.240      31.834
2015    6        2     7  48    3.4293   429.7    5.248      31.837
2015    6        2     7  54    3.4315   429.6    5.256      31.839
2015    6        2     8   0    3.4337   429.5    5.264      31.842
2015    6        2     8   6    3.4359   429.4    5.272      31.845
2015    6        2     8  12    3.4381   429.3    5.280      31.849
2015    6        2     8  18    3.4402   429.1    5.287      31.852
2015    6        2     8  24    3.4424   429.0    5.295      31.855
2015    6        2     8  30    3.4446   428.9    5.303      31.859
2015    6        2     8  36    3.4468   428.8    5.310      31.863
2015    6        2     8  43    3.4490   428.7    5.318      31.866
2015    6        2     8  49    3.4511   428.6    5.325      31.870
2015    6        2     8  55    3.4533   428.5    5.332      31.873
2015    6        2     9   1    3.4555   428.4    5.339      31.877
2015    6        2     9   7    3.4576   428.3    5.347      31.881
2015    6        2     9  13    3.4598   428.1    5.354      31.885
2015    6        2     9  19    3.4619   428.0    5.361      31.888
2015    6        2     9  25    3.4641   427.9    5.368      31.892
2015    6        2     9  31    3.4663   427.8    5.375      31.896
2015    6        2     9  37    3.4684   427.7    5.382      31.899
2015    6        2     9  43    3.4706   427.6    5.389      31.903
2015    6        2     9  49    3.4728   427.5    5.396      31.906
2015    6        2     9  55    3.4749   427.4    5.402      31.910
2015    6        2    10   2    3.4771   427.3    5.409      31.913
2015    6        2    10   8    3.4793   427.2    5.416      31.917
2015    6        2    10  14    3.4815   427.1    5.423      31.920
2015    6        2    10  20    3.4836   427.0    5.429      31.924
2015    6        2    10  26    3.4858   426.9    5.436      31.927
2015    6        2    10  32    3.4880   426.8    5.443      31.930
2015    6        2    10  38    3.4901   426.7    5.449      31.933
2015    6        2    10  44    3.4923   426.6    5.456      31.936
2015    6        2    10  50    3.4945   426.5    5.462      31.939
2015    6        2    10  56    3.4967   426.4    5.469      31.942
2015    6        2    11   2    3.4989   426.3    5.475      31.945
2015    6        2    11   8    3.5011   426.2    5.482      31.948
2015    6        2    11  14    3.5032   426.1    5.488      31.951
2015    6        2    11  21    3.5054   426.0    5.494      31.953
2015    6        2    11  27    3.5076   425.9    5.501      31.956
2015    6        2    11  33    3.5098   425.8    5.507      31.958
2015    6        2    11  39    3.5120   425.7    5.513      31.960
2015    6        2    11  45    3.5141   425.6    5.520      31.963
2015    6        2    11  51    3.5163   425.5    5.526      31.965
2015    6        2    11  57    3.5185   425.5    5.532      31.967
2015    6        2    12   3    3.5207   425.4    5.538      31.969
2015    6        2    12   9    3.5229   425.3    5.545      31.971
2015    6        2    12  15    3.5250   425.2    5.551      31.973
2015    6        2    12  21    3.5272   425.1    5.557      31.974
2015    6        2    12  27    3.5294   425.0    5.563      31.976
2015    6        2    12  33    3.5315   424.9    5.569      31.977
2015    6        2    12  40    3.5337   424.8    5.575      31.979
2015    6        2    12  46    3.5359   424.7    5.582      31.980
2015    6        2    12  52    3.5380   424.6    5.588      31.982
2015    6        2    12  58    3.5402   424.6    5.594      31.983
2015    6        2    13   4    3.5423   424.5    5.600      31.984
2015    6        2    13  10    3.5445   424.4    5.606      31.985
2015    6        2    13  16    3.5467   424.3    5.612      31.986
2015    6        2    13  22    3.5488   424.2    5.618      31.987
2015    6        2    13  28    3.5509   424.1    5.625      31.988
2015    6        2    13  34    3.5531   424.0    5.631      31.989
2015    6        2    13  40    3.5552   424.0    5.637      31.990
2015    6        2    13  46    3.5573   423.9    5.643      31.991
2015    6        2    13  52    3.5594   423.8    5.649      31.992
2015    6        2    13  59    3.5615   423.7    5.655      31.992
2015    6        2    14   5    3.5635   423.6    5.662      31.993
2015    6        2    14  11    3.5656   423.5    5.668      31.994
2015    6        2    14  17    3.5676   423.5    5.674      31.994
2015    6        2    14  23    3.5697   423.4    5.680      31.995
2015    6        2    14  29    3.5717   423.3    5.687      31.996
2015    6        2    14  35    3.5737   423.2    5.693      31.997
2015    6        2    14  41    3.5758   423.1    5.699      31.998
2015    6        2    14  47    3.5778   423.1    5.706      31.999
2015    6        2    14  53    3.5798   423.0    5.712      32.000
2015    6        2    14  59    3.5817   422.9    5.718      32.002
2015    6        2    15   5    3.5837   422.8    5.724      32.004
2015    6        2    15  11    3.5857   422.7    5.730      32.005
2015    6        2    15  18    3.5877   422.7    5.736      32.008
2015    6        2    15  24    3.5896   422.6    5.743      32.010
2015    6        2    15  30    3.5916   422.5    5.749      32.013
2015    6        2    15  36    3.5936   422.4    5.755      32.015
2015    6        2    15  42    3.5955   422.4    5.761      32.018
2015    6        2    15  48    3.5975   422.3    5.767      32.021
2015    6        2    15  54    3.5994   422.2    5.773      32.024
2015    6        2    16   0    3.6014   422.1    5.779      32.027
2015    6        2    16   6    3.6033   422.1    5.785      32.031
2015    6        2    16  12    3.6052   422.0    5.791      32.034
2015    6        2    16  18    3.6071   421.9    5.797      32.038
2015    6        2    16  24    3.6090   421.8    5.803      32.041
2015    6        2    16  30    3.6109   421.8    5.809      32.045
2015    6        2    16  36    3.6128   421.7    5.815      32.048
2015    6        2    16  43    3.6147   421.6    5.821      32.052
2015    6        2    16  49    3.6166   421.5    5.827      32.056
2015    6        2    16  55    3.6185   421.5    5.833      32.059
2015    6        2    17   1    3.6204   421.4    5.839      32.063
2015    6        2    17   7    3.6222   421.3    5.845      32.067
2015    6        2    17  13    3.6241   421.2    5.850      32.070
2015    6        2    17  19    3.6259   421.2    5.856      32.074
2015    6        2    17  25    3.6278   421.1    5.862      32.078
2015    6        2    17  31    3.6296   421.0    5.868      32.081
2015    6        2    17  37    3.6314   421.0    5.873      32.085
2015    6        2    17  43    3.6332   420.9    5.879      32.089
2015    6        2    17  49    3.6351   420.8    5.884      32.093
2015    6        2    17  55    3.6369   420.7    5.890      32.096
2015    6        2    18   2    3.6387   420.7    5.895      32.100
2015    6        2    18   8    3.6405   420.6    5.901      32.104
2015    6        2    18  14    3.6422   420.5    5.906      32.107
2015    6        2    18  20    3.6440   420.5    5.911      32.111
2015    6        2    18  26    3.6458   420.4    5.916      32.115
2015    6        2    18  32    3.6476   420.3    5.922      32.118
2015    6        2    18  38    3.6493   420.3    5.927      32.122
2015    6        2    18  44    3.6511   420.2    5.932      32.125
2015    6        2    18  50    3.6528   420.1    5.937      32.129
2015    6        2    18  56    3.6546   420.0    5.942      32.132
2015    6        2    19   2    3.6563   420.0    5.946      32.135
2015    6        2    19   8    3.6581   419.9    5.951      32.139
2015    6        2    19  14    3.6598   419.8    5.956      32.142
2015    6        2    19  21    3.6616   419.8    5.961      32.145
2015    6        2    19  27    3.6633   419.7    5.965      32.148
2015    6        2    19  33    3.6650   419.6    5.970      32.151
2015    6        2    19  39    3.6667   419.6    5.975      32.154
2015    6        2    19  45    3.6684   419.5    5.979      32.157
2015    6        2    19  51    3.6702   419.4    5.984      32.160
2015    6        2    19  57    3.6719   419.4    5.988      32.163
2015    6        2    20   3    3.6736   419.3    5.992      32.166
2015    6        2    20   9    3.6753   419.2    5.997      32.168
2015    6        2    20  15    3.6770   419.2    6.001      32.171
2015    6        2    20  21    3.6787   419.1    6.005      32.173
2015    6        2    20  27    3.6803   419.0    6.009      32.176
2015    6        2    20  33    3.6820   419.0    6.013      32.178
2015    6        2    20  40    3.6837   418.9    6.017      32.181
2015    6        2    20  46    3.6854   418.8    6.022      32.183
2015    6        2    20  52    3.6871   418.8    6.026      32.185
2015    6        2    20  58    3.6888   418.7    6.030      32.187
2015    6        2    21   4    3.6904   418.6    6.034      32.189
2015    6        2    21  10    3.6921   418.6    6.037      32.191
2015    6        2    21  16    3.6938   418.5    6.041      32.193
2015    6        2    21  22    3.6954   418.4    6.045      32.194
2015    6        2    21  28    3.6971   418.4    6.049      32.196
2015    6        2    21  34    3.6988   418.3    6.053      32.197
2015    6        2    21  40    3.7004   418.2    6.057      32.199
2015    6        2    21  46    3.7021   418.2    6.061      32.200
2015    6        2    21  52    3.7037   418.1    6.065      32.202
2015    6        2    21  59    3.7054   418.0    6.068      32.203
2015    6        2    22   5    3.7071   418.0    6.072      32.205
2015    6        2    22  11    3.7087   417.9    6.076      32.206
2015    6        2    22  17    3.7104   417.8    6.080      32.207
2015    6        2    22  23    3.7121   417.8    6.084      32.209
2015    6        2    22  29    3.7137   417.7    6.088      32.210
2015    6        2    22  35    3.7154   417.6    6.092      32.211
2015    6        2    22  41    3.7171   417.6    6.096      32.212
2015    6        2    22  47    3.7187   417.5    6.099      32.214
2015    6        2    22  53    3.7204   417.5    6.103      32.215
2015    6        2    22  59    3.7221   417.4    6.107      32.216
2015    6        2    23   5    3.7238   417.3    6.112      32.218
2015    6        2    23  11    3.7254   417.3    6.116      32.219
2015    6        2    23  18    3.7271   417.2    6.120      32.221
2015    6        2    23  24    3.7288   417.1    6.124      32.222
2015    6        2    23  30    3.7305   417.1    6.128      32.224
2015    6        2    23  36    3.7322   417.0    6.132      32.226
2015    6        2    23  42    3.7339   417.0    6.136      32.228
2015    6        2    23  48    3.7356   416.9    6.141      32.230
2015    6        2    23  54    3.7373   416.8    6.145      32.232
2015    6        3     0   0    3.7389   416.8    6.149      32.234
2015    6        3     0   6    3.7406   416.7    6.154      32.236
2015    6        3     0  12    3.7423   416.6    6.158      32.239
2015    6        3     0  18    3.7439   416.6    6.162      32.241
2015    6        3     0  24    3.7456   416.5    6.167      32.244
2015    6        3     0  30    3.7473   416.5    6.171      32.247
2015    6        3     0  37    3.7489   416.4    6.175      32.250
2015    6        3     0  43    3.7506   416.3    6.180      32.253
2015    6        3     0  49    3.7522   416.3    6.184      32.256
2015    6        3     0  55    3.7538   416.2    6.189      32.259
2015    6        3     1   1    3.7554   416.2    6.193      32.263
2015    6        3     1   7    3.7570   416.1    6.197      32.266
2015    6        3     1  13    3.7586   416.1    6.202      32.270
2015    6        3     1  19    3.7602   416.0    6.206      32.274
2015    6        3     1  25    3.7618   415.9    6.210      32.278
2015    6        3     1  31    3.7634   415.9    6.215      32.282
2015    6        3     1  37    3.7649   415.8    6.219      32.286
2015    6        3     1  43    3.7665   415.8    6.223      32.290
2015    6        3     1  49    3.7680   415.7    6.228      32.294
2015    6        3     1  56    3.7696   415.6    6.232      32.299
2015    6        3     2   2    3.7711   415.6    6.236      32.304
2015    6        3     2   8    3.7726   415.5    6.240      32.309
2015    6        3     2  14    3.7741   415.5    6.244      32.313
2015    6        3     2  20    3.7756   415.4    6.248      32.318
2015    6        3     2  26    3.7771   415.4    6.252      32.324
2015    6        3     2  32    3.7786   415.3    6.256      32.329
2015    6        3     2  38    3.7801   415.3    6.260      32.334
2015    6        3     2  44    3.7816   415.2    6.264      32.339
2015    6        3     2  50    3.7830   415.1    6.268      32.344
2015    6        3     2  56    3.7845   415.1    6.272      32.349
2015    6        3     3   2    3.7860   415.0    6.275      32.355
2015    6        3     3   8    3.7874   415.0    6.279      32.360
2015    6        3     3  15    3.7889   414.9    6.283      32.365
2015    6        3     3  21    3.7903   414.9    6.286      32.370
2015    6        3     3  27    3.7917   414.8    6.290      32.376
2015    6        3     3  33    3.7932   414.8    6.293      32.381
2015    6        3     3  39    3.7946   414.7    6.297      32.386
2015    6        3     3  45    3.7960   414.6    6.300      32.391
2015    6        3     3  51    3.7974   414.6    6.304      32.396
2015    6        3     3  57    3.7989   414.5    6.307      32.401
2015    6        3     4   3    3.8003   414.5    6.311      32.406
2015    6        3     4   9    3.8017   414.4    6.314      32.411
2015    6        3     4  15    3.8031   414.4    6.317      32.416
2015    6        3     4  21    3.8045   414.3    6.321      32.421
2015    6        3     4  27    3.8059   414.3    6.324      32.425
2015    6        3     4  34    3.8073   414.2    6.327      32.430
2015    6        3     4  40    3.8087   414.2    6.330      32.434
2015    6        3     4  46    3.8102   414.1    6.333      32.439
2015    6        3     4  52    3.8116   414.1    6.336      32.443
2015    6        3     4  58    3.8130   414.0    6.340      32.448
2015    6        3     5   4    3.8144   413.9    6.343      32.452
2015    6        3     5  10    3.8158   413.9    6.346      32.456
2015    6        3     5  16    3.8173   413.8    6.349      32.461
2015    6        3     5  22    3.8187   413.8    6.352      32.465
2015    6        3     5  28    3.8201   413.7    6.355      32.469
2015    6        3     5  34    3.8215   413.7    6.358      32.473
2015    6        3     5  40    3.8230   413.6    6.361      32.477
2015    6        3     5  46    3.8244   413.6    6.364      32.481
2015    6        3     5  52    3.8259   413.5    6.367      32.485
2015    6        3     5  59    3.8273   413.5    6.370      32.489
2015    6        3     6   5    3.8288   413.4    6.373      32.493
2015    6        3     6  11    3.8303   413.4    6.376      32.496
2015    6        3     6  17    3.8317   413.3    6.379      32.500
2015    6        3     6  23    3.8332   413.3    6.382      32.504
2015    6        3     6  29    3.8347   413.2    6.385      32.508
2015    6        3     6  35    3.8362   413.2    6.387      32.512
2015    6        3     6  41    3.8377   413.1    6.390      32.516
2015    6        3     6  47    3.8392   413.1    6.393      32.519
2015    6        3     6  53    3.8407   413.0    6.396      32.523
2015    6        3     6  59    3.8422   413.0    6.399      32.527
2015    6        3     7   5    3.8437   412.9    6.402      32.531
2015    6        3     7  11    3.8452   412.9    6.405      32.535
2015    6        3     7  18    3.8467   412.8    6.408      32.539
2015    6        3     7  24    3.8481   412.8    6.411      32.543
2015    6        3     7  30    3.8496   412.7    6.414      32.547
2015    6        3     7  36    3.8511   412.7    6.417      32.551
2015    6        3     7  42    3.8526   412.6    6.420      32.555
2015    6        3     7  48    3.8540   412.6    6.423      32.560
2015    6        3     7  54    3.8555   412.5    6.426      32.564
2015    6        3     8   0    3.8569   412.5    6.429      32.568
2015    6        3     8   6    3.8583   412.4    6.432      32.573
2015    6        3     8  12    3.8598   412.4    6.435      32.577
2015    6        3     8  18    3.8612   412.3    6.438      32.582
2015    6        3     8  24    3.8626   412.3    6.441      32.587
2015    6        3     8  30    3.8639   412.2    6.444      32.591
2015    6        3     8  37    3.8653   412.2    6.447      32.596
2015    6        3     8  43    3.8667   412.1    6.450      32.601
2015    6        3     8  49    3.8680   412.1    6.453      32.606
2015    6        3     8  55    3.8694   412.0    6.456      32.611
2015    6        3     9   1    3.8707   412.0    6.459      32.616
2015    6        3     9   7    3.8720   411.9    6.462      32.621
2015    6        3     9  13    3.8733   411.9    6.465      32.626
2015    6        3     9  19    3.8746   411.8    6.467      32.631
2015    6        3     9  25    3.8759   411.8    6.470      32.636
2015    6        3     9  31    3.8772   411.7    6.473      32.642
2015    6        3     9  37    3.8785   411.7    6.476      32.647
2015    6        3     9  43    3.8797   411.7    6.479      32.652
2015    6        3     9  49    3.8810   411.6    6.482      32.658
2015    6        3     9  56    3.8822   411.6    6.484      32.663
2015    6        3    10   2    3.8835   411.5    6.487      32.669
2015    6        3    10   8    3.8847   411.5    6.490      32.674
2015    6        3    10  14    3.8859   411.4    6.493      32.680
2015    6        3    10  20    3.8871   411.4    6.495      32.685
2015    6        3    10  26    3.8883   411.3    6.498      32.691
2015    6        3    10  32    3.8896   411.3    6.501      32.697
2015    6        3    10  38    3.8908   411.2    6.503      32.702
2015    6        3    10  44    3.8920   411.2    6.506      32.708
2015    6        3    10  50    3.8932   411.1    6.509      32.714
2015    6        3    10  56    3.8944   411.1    6.511      32.720
2015    6        3    11   2    3.8956   411.0    6.514      32.725
2015    6        3    11   8    3.8968   411.0    6.517      32.731
2015    6        3    11  15    3.8980   411.0    6.519      32.737
2015    6        3    11  21    3.8992   410.9    6.522      32.743
2015    6        3    11  27    3.9004   410.9    6.525      32.749
2015    6        3    11  33    3.9016   410.8    6.527      32.755
2015    6        3    11  39    3.9028   410.8    6.530      32.761
2015    6        3    11  45    3.9040   410.7    6.533      32.767
2015    6        3    11  51    3.9052   410.7    6.535      32.773
2015    6        3    11  57    3.9064   410.6    6.538      32.779
2015    6        3    12   3    3.9077   410.6    6.541      32.785
2015    6        3    12   9    3.9089   410.6    6.543      32.791
2015    6        3    12  15    3.9101   410.5    6.546      32.797
2015    6        3    12  21    3.9114   410.5    6.549      32.803
2015    6        3    12  27    3.9126   410.4    6.552      32.810
2015    6        3    12  34    3.9139   410.4    6.554      32.816
2015    6        3    12  40    3.9151   410.3    6.557      32.822
2015    6        3    12  46    3.9164   410.3    6.560      32.829
2015    6        3    12  52    3.9177   410.3    6.563      32.835
2015    6        3    12  58    3.9190   410.2    6.566      32.842
2015    6        3    13   4    3.9203   410.2    6.569      32.848
2015    6        3    13  10    3.9215   410.1    6.572      32.854
2015    6        3    13  16    3.9228   410.1    6.575      32.861
2015    6        3    13  22    3.9242   410.1    6.578      32.867
2015    6        3    13  28    3.9255   410.0    6.581      32.874
2015    6        3    13  34    3.9268   410.0    6.584      32.881
2015    6        3    13  40    3.9281   409.9    6.587      32.887
2015    6        3    13  46    3.9294   409.9    6.590      32.894
2015    6        3    13  52    3.9308   409.8    6.593      32.901
2015    6        3    13  59    3.9321   409.8    6.596      32.908
2015    6        3    14   5    3.9335   409.8    6.599      32.915
2015    6        3    14  11    3.9349   409.7    6.603      32.922
2015    6        3    14  17    3.9362   409.7    6.606      32.930
2015    6        3    14  23    3.9376   409.6    6.609      32.937
2015    6        3    14  29    3.9390   409.6    6.613      32.945
2015    6        3    14  35    3.9404   409.6    6.616      32.952
2015    6        3    14  41    3.9419   409.5    6.620      32.960
2015    6        3    14  47    3.9432   409.5    6.623      32.968
2015    6        3    14  53    3.9446   409.5    6.627      32.976
2015    6        3    14  59    3.9460   409.4    6.630      32.985
2015    6        3    15   5    3.9474   409.4    6.634      32.994
2015    6        3    15  11    3.9487   409.4    6.637      33.003
2015    6        3    15  18    3.9500   409.3    6.640      33.013
2015    6        3    15  24    3.9513   409.3    6.644      33.022
2015    6        3    15  30    3.9525   409.3    6.647      33.032
2015    6        3    15  36    3.9538   409.2    6.650      33.042
2015    6        3    15  42    3.9550   409.2    6.653      33.051
2015    6        3    15  48    3.9562   409.2    6.656      33.061
2015    6        3    15  54    3.9574   409.1    6.659      33.070
2015    6        3    16   0    3.9585   409.1    6.661      33.079
2015    6        3    16   6    3.9597   409.1    6.664      33.088
2015    6        3    16  12    3.9608   409.0    6.667      33.097
2015    6        3    16  18    3.9619   409.0    6.669      33.105
2015    6        3    16  24    3.9630   409.0    6.672      33.114
2015    6        3    16  30    3.9640   408.9    6.674      33.122
2015    6        3    16  37    3.9651   408.9    6.677      33.130
2015    6        3    16  43    3.9661   408.9    6.679      33.138
2015    6        3    16  49    3.9672   408.8    6.681      33.145
2015    6        3    16  55    3.9682   408.8    6.683      33.153
2015    6        3    17   1    3.9692   408.8    6.686      33.160
2015    6        3    17   7    3.9701   408.7    6.688      33.167
2015    6        3    17  13    3.9711   408.7    6.690      33.175
2015    6        3    17  19    3.9721   408.6    6.692      33.182
2015    6        3    17  25    3.9731   408.6    6.694      33.189
2015    6        3    17  31    3.9740   408.6    6.696      33.196
2015    6        3    17  37    3.9750   408.5    6.698      33.202
2015    6        3    17  43    3.9759   408.5    6.700      33.209
2015    6        3    17  49    3.9769   408.4    6.702      33.216
2015    6        3    17  56    3.9778   408.4    6.704      33.222
2015    6        3    18   2    3.9787   408.4    6.705      33.229
2015    6        3    18   8    3.9797   408.3    6.707      33.235
2015    6        3    18  14    3.9806   408.3    6.709      33.242
2015    6        3    18  20    3.9815   408.3    6.711      33.248
2015    6        3    18  26    3.9825   408.2    6.713      33.255
2015    6        3    18  32    3.9834   408.2    6.715      33.261
2015    6        3    18  38    3.9843   408.1    6.717      33.267
2015    6        3    18  44    3.9852   408.1    6.719      33.274
2015    6        3    18  50    3.9861   408.1    6.721      33.280
2015    6        3    18  56    3.9871   408.0    6.723      33.287
2015    6        3    19   2    3.9880   408.0    6.725      33.293
2015    6        3    19   8    3.9889   407.9    6.727      33.300
2015    6        3    19  15    3.9898   407.9    6.729      33.306
2015    6        3    19  21    3.9907   407.9    6.731      33.313
2015    6        3    19  27    3.9917   407.8    6.733      33.319
2015    6        3    19  33    3.9926   407.8    6.735      33.326
2015    6        3    19  39    3.9935   407.7    6.737      33.333
2015    6        3    19  45    3.9944   407.7    6.739      33.339
2015    6        3    19  51    3.9954   407.7    6.741      33.346
2015    6        3    19  57    3.9963   407.6    6.744      33.352
2015    6        3    20   3    3.9972   407.6    6.746      33.359
2015    6        3    20   9    3.9981   407.6    6.748      33.366
2015    6        3    20  15    3.9991   407.5    6.750      33.372
2015    6        3    20  21    4.0000   407.5    6.753      33.379
2015    6        3    20  27    4.0009   407.4    6.755      33.386
2015    6        3    20  34    4.0019   407.4    6.757      33.392
2015    6        3    20  40    4.0028   407.4    6.760      33.399
2015    6        3    20  46    4.0037   407.3    6.762      33.406
2015    6        3    20  52    4.0047   407.3    6.765      33.413
2015    6        3    20  58    4.0056   407.2    6.767      33.420
2015    6        3    21   4    4.0066   407.2    6.770      33.427
2015    6        3    21  10    4.0076   407.2    6.773      33.435
2015    6        3    21  16    4.0085   407.1    6.776      33.442
2015    6        3    21  22    4.0095   407.1    6.778      33.450
2015    6        3    21  28    4.0106   407.0    6.781      33.457
2015    6        3    21  34    4.0116   407.0    6.784      33.465
2015    6        3    21  40    4.0127   407.0    6.788      33.473
2015    6        3    21  46    4.0138   406.9    6.791      33.482
2015    6        3    21  53    4.0149   406.9    6.794      33.490
2015    6        3    21  59    4.0160   406.9    6.798      33.499
2015    6        3    22   5    4.0172   406.8    6.802      33.508
2015    6        3    22  11    4.0183   406.8    6.805      33.517
2015    6        3    22  17    4.0195   406.7    6.809      33.527
2015    6        3    22  23    4.0208   406.7    6.813      33.537
2015    6        3    22  29    4.0220   406.7    6.817      33.548
2015    6        3    22  35    4.0232   406.6    6.821      33.560
2015    6        3    22  41    4.0244   406.6    6.825      33.572
2015    6        3    22  47    4.0257   406.6    6.829      33.584
2015    6        3    22  53    4.0269   406.6    6.833      33.597
2015    6        3    22  59    4.0282   406.5    6.837      33.609
2015    6        3    23   5    4.0295   406.5    6.842      33.622
2015    6        3    23  12    4.0307   406.5    6.846      33.635
2015    6        3    23  18    4.0320   406.4    6.850      33.648
2015    6        3    23  24    4.0332   406.4    6.854      33.662
2015    6        3    23  30    4.0345   406.4    6.858      33.675
2015    6        3    23  36    4.0357   406.3    6.862      33.688
2015    6        3    23  42    4.0369   406.3    6.866      33.702
2015    6        3    23  48    4.0380   406.3    6.870      33.715
2015    6        3    23  54    4.0392   406.3    6.873      33.727
2015    6        4     0   0    4.0403   406.2    6.877      33.740
