year    month   day   hour  minute  B_enl V_enl   n_enl       T_enl
[year] [month] [day] [hour][minute] [nT]  [km/s]  [cm-3]      [kK]
2015    5       13     0   2    4.6681   659.0    3.186      69.237
2015    5       13     0   8    4.6643   659.1    3.182      69.204
2015    5       13     0  13    4.6604   659.2    3.178      69.170
2015    5       13     0  19    4.6565   659.3    3.174      69.135
2015    5       13     0  25    4.6527   659.4    3.170      69.100
2015    5       13     0  31    4.6488   659.5    3.166      69.064
2015    5       13     0  37    4.6449   659.6    3.162      69.027
2015    5       13     0  43    4.6410   659.7    3.158      68.990
2015    5       13     0  48    4.6372   659.8    3.154      68.952
2015    5       13     0  54    4.6333   659.9    3.150      68.913
2015    5       13     1   0    4.6294   659.9    3.146      68.874
2015    5       13     1   6    4.6256   660.0    3.143      68.834
2015    5       13     1  12    4.6217   660.1    3.139      68.794
2015    5       13     1  18    4.6178   660.2    3.135      68.753
2015    5       13     1  24    4.6140   660.3    3.131      68.712
2015    5       13     1  29    4.6101   660.4    3.127      68.670
2015    5       13     1  35    4.6062   660.4    3.123      68.627
2015    5       13     1  41    4.6023   660.5    3.119      68.585
2015    5       13     1  47    4.5984   660.6    3.116      68.541
2015    5       13     1  53    4.5946   660.7    3.112      68.498
2015    5       13     1  59    4.5907   660.8    3.108      68.454
2015    5       13     2   4    4.5868   660.8    3.104      68.409
2015    5       13     2  10    4.5829   660.9    3.100      68.364
2015    5       13     2  16    4.5789   661.0    3.097      68.319
2015    5       13     2  22    4.5750   661.0    3.093      68.273
2015    5       13     2  28    4.5711   661.1    3.089      68.227
2015    5       13     2  34    4.5671   661.2    3.085      68.180
2015    5       13     2  39    4.5632   661.2    3.081      68.133
2015    5       13     2  45    4.5592   661.3    3.078      68.087
2015    5       13     2  51    4.5553   661.4    3.074      68.039
2015    5       13     2  57    4.5513   661.4    3.070      67.992
2015    5       13     3   3    4.5473   661.5    3.066      67.944
2015    5       13     3   9    4.5434   661.6    3.063      67.897
2015    5       13     3  14    4.5394   661.6    3.059      67.849
2015    5       13     3  20    4.5354   661.7    3.055      67.801
2015    5       13     3  26    4.5314   661.8    3.051      67.753
2015    5       13     3  32    4.5274   661.8    3.048      67.704
2015    5       13     3  38    4.5233   661.9    3.044      67.656
2015    5       13     3  44    4.5193   661.9    3.040      67.607
2015    5       13     3  50    4.5153   662.0    3.036      67.558
2015    5       13     3  55    4.5113   662.1    3.033      67.508
2015    5       13     4   1    4.5073   662.1    3.029      67.459
2015    5       13     4   7    4.5033   662.2    3.025      67.409
2015    5       13     4  13    4.4992   662.2    3.021      67.359
2015    5       13     4  19    4.4952   662.3    3.018      67.310
2015    5       13     4  25    4.4912   662.3    3.014      67.260
2015    5       13     4  30    4.4872   662.3    3.010      67.211
2015    5       13     4  36    4.4832   662.4    3.007      67.161
2015    5       13     4  42    4.4793   662.4    3.003      67.112
2015    5       13     4  48    4.4753   662.4    3.000      67.064
2015    5       13     4  54    4.4714   662.5    2.997      67.016
2015    5       13     5   0    4.4674   662.5    2.993      66.968
2015    5       13     5   5    4.4635   662.5    2.990      66.921
2015    5       13     5  11    4.4596   662.6    2.987      66.875
2015    5       13     5  17    4.4558   662.6    2.984      66.829
2015    5       13     5  23    4.4519   662.6    2.981      66.784
2015    5       13     5  29    4.4481   662.6    2.978      66.739
2015    5       13     5  35    4.4443   662.6    2.975      66.695
2015    5       13     5  40    4.4405   662.6    2.972      66.651
2015    5       13     5  46    4.4367   662.7    2.969      66.608
2015    5       13     5  52    4.4329   662.7    2.967      66.566
2015    5       13     5  58    4.4292   662.7    2.964      66.524
2015    5       13     6   4    4.4254   662.7    2.961      66.482
2015    5       13     6  10    4.4217   662.7    2.959      66.440
2015    5       13     6  15    4.4179   662.7    2.956      66.398
2015    5       13     6  21    4.4142   662.7    2.954      66.356
2015    5       13     6  27    4.4104   662.7    2.951      66.313
2015    5       13     6  33    4.4067   662.7    2.949      66.270
2015    5       13     6  39    4.4029   662.7    2.946      66.227
2015    5       13     6  45    4.3992   662.7    2.944      66.183
2015    5       13     6  51    4.3955   662.7    2.941      66.139
2015    5       13     6  56    4.3918   662.7    2.939      66.094
2015    5       13     7   2    4.3880   662.7    2.936      66.049
2015    5       13     7   8    4.3843   662.7    2.934      66.003
2015    5       13     7  14    4.3806   662.7    2.931      65.956
2015    5       13     7  20    4.3769   662.6    2.929      65.909
2015    5       13     7  26    4.3731   662.6    2.926      65.861
2015    5       13     7  31    4.3694   662.6    2.924      65.812
2015    5       13     7  37    4.3657   662.6    2.921      65.762
2015    5       13     7  43    4.3620   662.6    2.918      65.712
2015    5       13     7  49    4.3583   662.6    2.916      65.660
2015    5       13     7  55    4.3546   662.5    2.913      65.609
2015    5       13     8   1    4.3509   662.5    2.911      65.556
2015    5       13     8   6    4.3472   662.5    2.908      65.503
2015    5       13     8  12    4.3435   662.5    2.906      65.449
2015    5       13     8  18    4.3399   662.4    2.903      65.394
2015    5       13     8  24    4.3362   662.4    2.900      65.339
2015    5       13     8  30    4.3325   662.4    2.898      65.283
2015    5       13     8  36    4.3288   662.4    2.895      65.227
2015    5       13     8  41    4.3251   662.3    2.893      65.170
2015    5       13     8  47    4.3214   662.3    2.890      65.113
2015    5       13     8  53    4.3177   662.3    2.887      65.056
2015    5       13     8  59    4.3141   662.2    2.885      64.998
2015    5       13     9   5    4.3104   662.2    2.882      64.939
2015    5       13     9  11    4.3067   662.2    2.880      64.881
2015    5       13     9  17    4.3030   662.1    2.877      64.822
2015    5       13     9  22    4.2993   662.1    2.874      64.763
2015    5       13     9  28    4.2956   662.0    2.872      64.703
2015    5       13     9  34    4.2919   662.0    2.869      64.643
2015    5       13     9  40    4.2883   662.0    2.867      64.584
2015    5       13     9  46    4.2846   661.9    2.864      64.524
2015    5       13     9  52    4.2809   661.9    2.862      64.465
2015    5       13     9  57    4.2772   661.8    2.859      64.405
2015    5       13    10   3    4.2735   661.8    2.857      64.346
2015    5       13    10   9    4.2698   661.8    2.854      64.288
2015    5       13    10  15    4.2662   661.7    2.852      64.229
2015    5       13    10  21    4.2625   661.7    2.849      64.172
2015    5       13    10  27    4.2588   661.6    2.847      64.114
2015    5       13    10  32    4.2552   661.6    2.845      64.058
2015    5       13    10  38    4.2515   661.5    2.843      64.002
2015    5       13    10  44    4.2479   661.5    2.840      63.946
2015    5       13    10  50    4.2443   661.5    2.838      63.892
2015    5       13    10  56    4.2407   661.4    2.836      63.838
2015    5       13    11   2    4.2371   661.4    2.834      63.785
2015    5       13    11   7    4.2335   661.3    2.832      63.732
2015    5       13    11  13    4.2299   661.3    2.830      63.681
2015    5       13    11  19    4.2264   661.2    2.828      63.630
2015    5       13    11  25    4.2228   661.2    2.826      63.581
2015    5       13    11  31    4.2193   661.1    2.825      63.532
2015    5       13    11  37    4.2158   661.1    2.823      63.485
2015    5       13    11  42    4.2123   661.0    2.821      63.439
2015    5       13    11  48    4.2089   661.0    2.820      63.394
2015    5       13    11  54    4.2054   660.9    2.818      63.350
2015    5       13    12   0    4.2020   660.8    2.817      63.307
2015    5       13    12   6    4.1986   660.8    2.816      63.266
2015    5       13    12  12    4.1953   660.7    2.814      63.225
2015    5       13    12  18    4.1920   660.7    2.813      63.186
2015    5       13    12  23    4.1887   660.6    2.812      63.148
2015    5       13    12  29    4.1854   660.5    2.811      63.111
2015    5       13    12  35    4.1822   660.5    2.810      63.075
2015    5       13    12  41    4.1790   660.4    2.810      63.040
2015    5       13    12  47    4.1758   660.4    2.809      63.006
2015    5       13    12  53    4.1726   660.3    2.808      62.972
2015    5       13    12  58    4.1694   660.3    2.807      62.939
2015    5       13    13   4    4.1663   660.2    2.807      62.907
2015    5       13    13  10    4.1631   660.1    2.806      62.874
2015    5       13    13  16    4.1599   660.1    2.805      62.842
2015    5       13    13  22    4.1567   660.0    2.805      62.810
2015    5       13    13  28    4.1536   660.0    2.804      62.778
2015    5       13    13  33    4.1504   659.9    2.804      62.745
2015    5       13    13  39    4.1472   659.8    2.803      62.712
2015    5       13    13  45    4.1440   659.8    2.802      62.678
2015    5       13    13  51    4.1408   659.7    2.801      62.642
2015    5       13    13  57    4.1376   659.6    2.800      62.606
2015    5       13    14   3    4.1344   659.6    2.800      62.570
2015    5       13    14   8    4.1312   659.5    2.799      62.533
2015    5       13    14  14    4.1280   659.4    2.798      62.495
2015    5       13    14  20    4.1248   659.4    2.797      62.456
2015    5       13    14  26    4.1216   659.3    2.796      62.416
2015    5       13    14  32    4.1184   659.2    2.795      62.376
2015    5       13    14  38    4.1152   659.1    2.794      62.335
2015    5       13    14  44    4.1120   659.1    2.792      62.293
2015    5       13    14  49    4.1089   659.0    2.791      62.250
2015    5       13    14  55    4.1057   658.9    2.790      62.206
2015    5       13    15   1    4.1025   658.8    2.789      62.162
2015    5       13    15   7    4.0993   658.7    2.788      62.116
2015    5       13    15  13    4.0961   658.7    2.786      62.069
2015    5       13    15  19    4.0930   658.6    2.785      62.022
2015    5       13    15  24    4.0898   658.5    2.783      61.974
2015    5       13    15  30    4.0866   658.4    2.782      61.924
2015    5       13    15  36    4.0835   658.3    2.780      61.874
2015    5       13    15  42    4.0803   658.2    2.779      61.823
2015    5       13    15  48    4.0771   658.1    2.777      61.771
2015    5       13    15  54    4.0740   658.0    2.776      61.719
2015    5       13    15  59    4.0709   658.0    2.774      61.665
2015    5       13    16   5    4.0678   657.9    2.772      61.611
2015    5       13    16  11    4.0647   657.8    2.771      61.556
2015    5       13    16  17    4.0616   657.7    2.769      61.500
2015    5       13    16  23    4.0585   657.6    2.767      61.444
2015    5       13    16  29    4.0554   657.5    2.766      61.386
2015    5       13    16  34    4.0523   657.4    2.764      61.329
2015    5       13    16  40    4.0493   657.3    2.762      61.270
2015    5       13    16  46    4.0462   657.2    2.760      61.211
2015    5       13    16  52    4.0432   657.1    2.758      61.152
2015    5       13    16  58    4.0401   657.0    2.756      61.092
2015    5       13    17   4    4.0371   656.8    2.754      61.031
2015    5       13    17   9    4.0341   656.7    2.752      60.969
2015    5       13    17  15    4.0311   656.6    2.750      60.908
2015    5       13    17  21    4.0281   656.5    2.748      60.845
2015    5       13    17  27    4.0251   656.4    2.746      60.783
2015    5       13    17  33    4.0221   656.3    2.744      60.720
2015    5       13    17  39    4.0192   656.2    2.742      60.657
2015    5       13    17  45    4.0162   656.1    2.740      60.594
2015    5       13    17  50    4.0133   655.9    2.738      60.530
2015    5       13    17  56    4.0104   655.8    2.736      60.467
2015    5       13    18   2    4.0075   655.7    2.734      60.404
2015    5       13    18   8    4.0046   655.6    2.733      60.342
2015    5       13    18  14    4.0018   655.4    2.731      60.279
2015    5       13    18  20    3.9989   655.3    2.729      60.218
2015    5       13    18  25    3.9961   655.2    2.727      60.157
2015    5       13    18  31    3.9933   655.1    2.725      60.096
2015    5       13    18  37    3.9906   654.9    2.724      60.037
2015    5       13    18  43    3.9878   654.8    2.722      59.979
2015    5       13    18  49    3.9851   654.7    2.721      59.922
2015    5       13    18  55    3.9825   654.5    2.719      59.866
2015    5       13    19   0    3.9798   654.4    2.718      59.812
2015    5       13    19   6    3.9772   654.3    2.717      59.759
2015    5       13    19  12    3.9746   654.2    2.716      59.708
2015    5       13    19  18    3.9720   654.0    2.715      59.658
2015    5       13    19  24    3.9695   653.9    2.714      59.610
2015    5       13    19  30    3.9670   653.8    2.713      59.563
2015    5       13    19  35    3.9645   653.6    2.713      59.518
2015    5       13    19  41    3.9620   653.5    2.712      59.475
2015    5       13    19  47    3.9596   653.4    2.712      59.433
2015    5       13    19  53    3.9572   653.3    2.711      59.393
2015    5       13    19  59    3.9548   653.1    2.711      59.354
2015    5       13    20   5    3.9524   653.0    2.711      59.316
2015    5       13    20  11    3.9500   652.9    2.710      59.279
2015    5       13    20  16    3.9476   652.8    2.710      59.243
2015    5       13    20  22    3.9451   652.7    2.710      59.208
2015    5       13    20  28    3.9427   652.5    2.710      59.173
2015    5       13    20  34    3.9402   652.4    2.710      59.139
2015    5       13    20  40    3.9377   652.3    2.710      59.104
2015    5       13    20  46    3.9352   652.2    2.710      59.069
2015    5       13    20  51    3.9327   652.1    2.710      59.034
2015    5       13    20  57    3.9301   651.9    2.710      58.998
2015    5       13    21   3    3.9276   651.8    2.709      58.961
2015    5       13    21   9    3.9250   651.7    2.709      58.923
2015    5       13    21  15    3.9224   651.6    2.709      58.884
2015    5       13    21  21    3.9198   651.4    2.708      58.845
2015    5       13    21  26    3.9172   651.3    2.708      58.805
2015    5       13    21  32    3.9145   651.2    2.708      58.764
2015    5       13    21  38    3.9119   651.1    2.707      58.722
2015    5       13    21  44    3.9093   650.9    2.707      58.681
2015    5       13    21  50    3.9066   650.8    2.706      58.638
2015    5       13    21  56    3.9040   650.7    2.706      58.596
2015    5       13    22   1    3.9013   650.5    2.706      58.553
2015    5       13    22   7    3.8987   650.4    2.705      58.510
2015    5       13    22  13    3.8960   650.2    2.705      58.467
2015    5       13    22  19    3.8934   650.1    2.705      58.424
2015    5       13    22  25    3.8908   650.0    2.704      58.382
2015    5       13    22  31    3.8881   649.8    2.704      58.340
2015    5       13    22  36    3.8855   649.7    2.704      58.298
2015    5       13    22  42    3.8829   649.5    2.704      58.257
2015    5       13    22  48    3.8803   649.4    2.704      58.217
2015    5       13    22  54    3.8778   649.2    2.704      58.177
2015    5       13    23   0    3.8752   649.1    2.704      58.138
2015    5       13    23   6    3.8727   648.9    2.704      58.100
2015    5       13    23  12    3.8702   648.8    2.704      58.062
2015    5       13    23  17    3.8677   648.6    2.704      58.026
2015    5       13    23  23    3.8652   648.5    2.705      57.990
2015    5       13    23  29    3.8628   648.3    2.705      57.956
2015    5       13    23  35    3.8604   648.2    2.706      57.922
2015    5       13    23  41    3.8580   648.0    2.706      57.889
2015    5       13    23  47    3.8557   647.9    2.707      57.856
2015    5       13    23  52    3.8533   647.7    2.707      57.825
2015    5       13    23  58    3.8510   647.6    2.708      57.793
2015    5       14     0   4    3.8487   647.4    2.708      57.762
2015    5       14     0  10    3.8464   647.3    2.708      57.730
2015    5       14     0  16    3.8441   647.1    2.709      57.697
2015    5       14     0  22    3.8418   647.0    2.709      57.663
2015    5       14     0  27    3.8396   646.8    2.709      57.627
2015    5       14     0  33    3.8373   646.7    2.709      57.590
2015    5       14     0  39    3.8350   646.5    2.709      57.552
2015    5       14     0  45    3.8327   646.4    2.708      57.513
2015    5       14     0  51    3.8305   646.2    2.708      57.472
2015    5       14     0  57    3.8282   646.1    2.708      57.429
2015    5       14     1   2    3.8260   645.9    2.707      57.386
2015    5       14     1   8    3.8238   645.8    2.707      57.341
2015    5       14     1  14    3.8215   645.6    2.706      57.295
2015    5       14     1  20    3.8193   645.5    2.706      57.248
2015    5       14     1  26    3.8171   645.3    2.705      57.200
2015    5       14     1  32    3.8149   645.2    2.704      57.151
2015    5       14     1  38    3.8127   645.0    2.703      57.102
2015    5       14     1  43    3.8105   644.8    2.702      57.051
2015    5       14     1  49    3.8083   644.7    2.701      57.000
2015    5       14     1  55    3.8062   644.5    2.700      56.948
2015    5       14     2   1    3.8040   644.4    2.700      56.896
2015    5       14     2   7    3.8019   644.2    2.699      56.843
2015    5       14     2  13    3.7997   644.0    2.697      56.789
2015    5       14     2  18    3.7976   643.9    2.696      56.736
2015    5       14     2  24    3.7955   643.7    2.695      56.682
2015    5       14     2  30    3.7935   643.5    2.694      56.629
2015    5       14     2  36    3.7914   643.4    2.693      56.575
2015    5       14     2  42    3.7893   643.2    2.692      56.521
2015    5       14     2  48    3.7873   643.0    2.691      56.467
2015    5       14     2  53    3.7853   642.9    2.690      56.413
2015    5       14     2  59    3.7833   642.7    2.689      56.360
2015    5       14     3   5    3.7813   642.5    2.688      56.307
2015    5       14     3  11    3.7793   642.3    2.687      56.254
2015    5       14     3  17    3.7772   642.2    2.686      56.201
2015    5       14     3  23    3.7753   642.0    2.685      56.148
2015    5       14     3  28    3.7732   641.8    2.684      56.095
2015    5       14     3  34    3.7712   641.7    2.683      56.043
2015    5       14     3  40    3.7692   641.5    2.682      55.990
2015    5       14     3  46    3.7672   641.3    2.681      55.938
2015    5       14     3  52    3.7651   641.2    2.680      55.885
2015    5       14     3  58    3.7631   641.0    2.679      55.832
2015    5       14     4   3    3.7610   640.8    2.679      55.779
2015    5       14     4   9    3.7589   640.6    2.677      55.725
2015    5       14     4  15    3.7568   640.5    2.676      55.671
2015    5       14     4  21    3.7547   640.3    2.675      55.617
2015    5       14     4  27    3.7526   640.1    2.674      55.563
2015    5       14     4  33    3.7504   639.9    2.673      55.507
2015    5       14     4  39    3.7483   639.8    2.672      55.452
2015    5       14     4  44    3.7462   639.6    2.671      55.396
2015    5       14     4  50    3.7440   639.4    2.670      55.340
2015    5       14     4  56    3.7419   639.2    2.669      55.283
2015    5       14     5   2    3.7397   639.0    2.668      55.226
2015    5       14     5   8    3.7375   638.9    2.667      55.169
2015    5       14     5  14    3.7354   638.7    2.666      55.112
2015    5       14     5  19    3.7332   638.5    2.664      55.055
2015    5       14     5  25    3.7311   638.3    2.663      54.998
2015    5       14     5  31    3.7289   638.1    2.662      54.942
2015    5       14     5  37    3.7268   637.9    2.662      54.886
2015    5       14     5  43    3.7246   637.7    2.661      54.830
2015    5       14     5  49    3.7225   637.5    2.660      54.775
2015    5       14     5  54    3.7204   637.3    2.659      54.721
2015    5       14     6   0    3.7183   637.1    2.659      54.667
2015    5       14     6   6    3.7162   636.9    2.658      54.615
2015    5       14     6  12    3.7141   636.7    2.658      54.565
2015    5       14     6  18    3.7121   636.5    2.657      54.515
2015    5       14     6  24    3.7100   636.3    2.657      54.468
2015    5       14     6  29    3.7080   636.2    2.657      54.422
2015    5       14     6  35    3.7060   636.0    2.657      54.377
2015    5       14     6  41    3.7040   635.8    2.658      54.335
2015    5       14     6  47    3.7021   635.6    2.658      54.294
2015    5       14     6  53    3.7001   635.4    2.659      54.257
2015    5       14     6  59    3.6982   635.2    2.660      54.220
2015    5       14     7   4    3.6963   635.0    2.661      54.186
2015    5       14     7  10    3.6945   634.8    2.662      54.154
2015    5       14     7  16    3.6926   634.6    2.663      54.125
2015    5       14     7  22    3.6908   634.4    2.664      54.097
2015    5       14     7  28    3.6890   634.2    2.665      54.070
2015    5       14     7  34    3.6872   634.0    2.667      54.044
2015    5       14     7  40    3.6854   633.8    2.668      54.018
2015    5       14     7  45    3.6835   633.6    2.669      53.991
2015    5       14     7  51    3.6817   633.4    2.670      53.964
2015    5       14     7  57    3.6799   633.2    2.672      53.936
2015    5       14     8   3    3.6781   633.0    2.673      53.908
2015    5       14     8   9    3.6763   632.8    2.674      53.879
2015    5       14     8  15    3.6744   632.6    2.675      53.849
2015    5       14     8  20    3.6726   632.5    2.676      53.818
2015    5       14     8  26    3.6708   632.3    2.678      53.787
2015    5       14     8  32    3.6689   632.1    2.679      53.755
2015    5       14     8  38    3.6671   631.9    2.680      53.722
2015    5       14     8  44    3.6653   631.7    2.681      53.689
2015    5       14     8  50    3.6634   631.5    2.682      53.655
2015    5       14     8  55    3.6616   631.3    2.682      53.620
2015    5       14     9   1    3.6598   631.1    2.683      53.585
2015    5       14     9   7    3.6579   630.9    2.684      53.549
2015    5       14     9  13    3.6561   630.7    2.685      53.512
2015    5       14     9  19    3.6543   630.5    2.685      53.475
2015    5       14     9  25    3.6524   630.3    2.686      53.437
2015    5       14     9  30    3.6506   630.1    2.686      53.399
2015    5       14     9  36    3.6487   629.9    2.687      53.361
2015    5       14     9  42    3.6469   629.6    2.687      53.322
2015    5       14     9  48    3.6451   629.4    2.688      53.282
2015    5       14     9  54    3.6432   629.2    2.688      53.242
2015    5       14    10   0    3.6414   629.0    2.688      53.202
2015    5       14    10   5    3.6396   628.8    2.689      53.162
2015    5       14    10  11    3.6378   628.6    2.689      53.121
2015    5       14    10  17    3.6359   628.4    2.689      53.079
2015    5       14    10  23    3.6341   628.2    2.689      53.037
2015    5       14    10  29    3.6323   628.0    2.689      52.994
2015    5       14    10  35    3.6305   627.8    2.689      52.951
2015    5       14    10  41    3.6286   627.5    2.689      52.907
2015    5       14    10  46    3.6268   627.3    2.689      52.863
2015    5       14    10  52    3.6250   627.1    2.689      52.818
2015    5       14    10  58    3.6232   626.9    2.689      52.773
2015    5       14    11   4    3.6213   626.7    2.689      52.727
2015    5       14    11  10    3.6195   626.5    2.689      52.680
2015    5       14    11  16    3.6177   626.3    2.688      52.633
2015    5       14    11  21    3.6159   626.1    2.688      52.586
2015    5       14    11  27    3.6140   625.8    2.688      52.538
2015    5       14    11  33    3.6122   625.6    2.688      52.490
2015    5       14    11  39    3.6103   625.4    2.688      52.442
2015    5       14    11  45    3.6085   625.2    2.687      52.393
2015    5       14    11  51    3.6066   625.0    2.687      52.344
2015    5       14    11  56    3.6048   624.8    2.687      52.294
2015    5       14    12   2    3.6029   624.6    2.686      52.244
2015    5       14    12   8    3.6010   624.4    2.686      52.194
2015    5       14    12  14    3.5992   624.2    2.685      52.144
2015    5       14    12  20    3.5973   624.0    2.685      52.093
2015    5       14    12  26    3.5954   623.7    2.685      52.042
2015    5       14    12  31    3.5935   623.5    2.684      51.991
2015    5       14    12  37    3.5916   623.3    2.683      51.939
2015    5       14    12  43    3.5897   623.1    2.683      51.887
2015    5       14    12  49    3.5879   622.9    2.682      51.835
2015    5       14    12  55    3.5860   622.7    2.682      51.782
2015    5       14    13   1    3.5841   622.4    2.681      51.729
2015    5       14    13   7    3.5822   622.2    2.680      51.676
2015    5       14    13  12    3.5804   622.0    2.679      51.623
2015    5       14    13  18    3.5785   621.8    2.679      51.569
2015    5       14    13  24    3.5766   621.6    2.678      51.516
2015    5       14    13  30    3.5748   621.3    2.677      51.462
2015    5       14    13  36    3.5729   621.1    2.677      51.409
2015    5       14    13  42    3.5711   620.9    2.676      51.355
2015    5       14    13  47    3.5693   620.6    2.675      51.302
2015    5       14    13  53    3.5675   620.4    2.675      51.249
2015    5       14    13  59    3.5657   620.2    2.674      51.196
2015    5       14    14   5    3.5639   619.9    2.673      51.143
2015    5       14    14  11    3.5621   619.7    2.673      51.090
2015    5       14    14  17    3.5603   619.5    2.672      51.038
2015    5       14    14  22    3.5586   619.2    2.672      50.986
2015    5       14    14  28    3.5568   619.0    2.672      50.934
2015    5       14    14  34    3.5551   618.7    2.671      50.883
2015    5       14    14  40    3.5534   618.5    2.671      50.832
2015    5       14    14  46    3.5517   618.3    2.671      50.781
2015    5       14    14  52    3.5500   618.0    2.671      50.731
2015    5       14    14  57    3.5483   617.8    2.671      50.682
2015    5       14    15   3    3.5467   617.5    2.671      50.633
2015    5       14    15   9    3.5450   617.3    2.671      50.585
2015    5       14    15  15    3.5433   617.0    2.671      50.537
2015    5       14    15  21    3.5417   616.8    2.672      50.489
2015    5       14    15  27    3.5400   616.5    2.672      50.442
2015    5       14    15  32    3.5384   616.3    2.672      50.395
2015    5       14    15  38    3.5368   616.0    2.673      50.348
2015    5       14    15  44    3.5351   615.7    2.673      50.302
2015    5       14    15  50    3.5335   615.5    2.674      50.256
2015    5       14    15  56    3.5319   615.2    2.674      50.210
2015    5       14    16   2    3.5303   615.0    2.675      50.165
2015    5       14    16   8    3.5288   614.7    2.676      50.120
2015    5       14    16  13    3.5272   614.4    2.677      50.076
2015    5       14    16  19    3.5256   614.2    2.677      50.032
2015    5       14    16  25    3.5241   613.9    2.678      49.989
2015    5       14    16  31    3.5226   613.6    2.679      49.946
2015    5       14    16  37    3.5210   613.3    2.680      49.904
2015    5       14    16  43    3.5196   613.1    2.681      49.863
2015    5       14    16  48    3.5181   612.8    2.683      49.823
2015    5       14    16  54    3.5167   612.5    2.684      49.783
2015    5       14    17   0    3.5152   612.2    2.685      49.744
2015    5       14    17   6    3.5139   611.9    2.686      49.706
2015    5       14    17  12    3.5125   611.7    2.688      49.669
2015    5       14    17  18    3.5111   611.4    2.689      49.632
2015    5       14    17  23    3.5098   611.1    2.691      49.596
2015    5       14    17  29    3.5085   610.9    2.692      49.560
2015    5       14    17  35    3.5071   610.6    2.694      49.524
2015    5       14    17  41    3.5058   610.3    2.695      49.488
2015    5       14    17  47    3.5044   610.1    2.697      49.452
2015    5       14    17  53    3.5031   609.8    2.699      49.416
2015    5       14    17  58    3.5017   609.5    2.700      49.380
2015    5       14    18   4    3.5003   609.3    2.702      49.343
2015    5       14    18  10    3.4989   609.0    2.703      49.305
2015    5       14    18  16    3.4975   608.7    2.704      49.267
2015    5       14    18  22    3.4962   608.4    2.706      49.228
2015    5       14    18  28    3.4948   608.2    2.707      49.189
2015    5       14    18  33    3.4933   607.9    2.709      49.149
2015    5       14    18  39    3.4920   607.6    2.710      49.109
2015    5       14    18  45    3.4905   607.3    2.711      49.068
2015    5       14    18  51    3.4891   607.1    2.713      49.028
2015    5       14    18  57    3.4877   606.8    2.714      48.987
2015    5       14    19   3    3.4863   606.5    2.715      48.946
2015    5       14    19   9    3.4849   606.3    2.716      48.904
2015    5       14    19  14    3.4834   606.0    2.718      48.863
2015    5       14    19  20    3.4820   605.7    2.719      48.821
2015    5       14    19  26    3.4806   605.5    2.720      48.780
2015    5       14    19  32    3.4792   605.2    2.721      48.739
2015    5       14    19  38    3.4777   604.9    2.722      48.697
2015    5       14    19  44    3.4763   604.7    2.723      48.656
2015    5       14    19  49    3.4749   604.4    2.724      48.615
2015    5       14    19  55    3.4735   604.1    2.725      48.574
2015    5       14    20   1    3.4720   603.8    2.727      48.533
2015    5       14    20   7    3.4706   603.6    2.728      48.492
2015    5       14    20  13    3.4692   603.3    2.729      48.452
2015    5       14    20  19    3.4678   603.0    2.730      48.411
2015    5       14    20  24    3.4665   602.8    2.731      48.371
2015    5       14    20  30    3.4651   602.5    2.732      48.331
2015    5       14    20  36    3.4637   602.2    2.733      48.291
2015    5       14    20  42    3.4624   601.9    2.734      48.251
2015    5       14    20  48    3.4610   601.7    2.735      48.212
2015    5       14    20  54    3.4597   601.4    2.736      48.173
2015    5       14    20  59    3.4583   601.1    2.737      48.134
2015    5       14    21   5    3.4571   600.8    2.738      48.095
2015    5       14    21  11    3.4557   600.6    2.740      48.057
2015    5       14    21  17    3.4545   600.3    2.741      48.018
2015    5       14    21  23    3.4532   600.0    2.742      47.980
2015    5       14    21  29    3.4519   599.7    2.743      47.942
2015    5       14    21  35    3.4507   599.4    2.744      47.904
2015    5       14    21  40    3.4494   599.2    2.746      47.866
2015    5       14    21  46    3.4482   598.9    2.747      47.828
2015    5       14    21  52    3.4470   598.6    2.748      47.790
2015    5       14    21  58    3.4458   598.3    2.749      47.752
2015    5       14    22   4    3.4446   598.0    2.751      47.715
2015    5       14    22  10    3.4434   597.8    2.752      47.677
2015    5       14    22  15    3.4422   597.5    2.753      47.639
2015    5       14    22  21    3.4410   597.2    2.754      47.600
2015    5       14    22  27    3.4398   596.9    2.755      47.562
2015    5       14    22  33    3.4386   596.6    2.757      47.523
2015    5       14    22  39    3.4375   596.4    2.758      47.485
2015    5       14    22  45    3.4363   596.1    2.759      47.446
2015    5       14    22  50    3.4351   595.8    2.760      47.406
2015    5       14    22  56    3.4340   595.5    2.761      47.367
2015    5       14    23   2    3.4328   595.2    2.762      47.327
2015    5       14    23   8    3.4317   594.9    2.763      47.287
2015    5       14    23  14    3.4306   594.6    2.764      47.247
2015    5       14    23  20    3.4295   594.3    2.766      47.206
2015    5       14    23  25    3.4284   594.0    2.767      47.165
2015    5       14    23  31    3.4273   593.7    2.768      47.124
2015    5       14    23  37    3.4263   593.4    2.769      47.083
2015    5       14    23  43    3.4253   593.1    2.770      47.042
2015    5       14    23  49    3.4243   592.8    2.772      47.001
2015    5       14    23  55    3.4233   592.5    2.773      46.960
2015    5       15     0   0    3.4224   592.2    2.774      46.919
2015    5       15     0   6    3.4215   591.9    2.776      46.879
2015    5       15     0  12    3.4206   591.6    2.777      46.839
2015    5       15     0  18    3.4198   591.3    2.779      46.799
2015    5       15     0  24    3.4190   591.0    2.781      46.760
2015    5       15     0  30    3.4182   590.7    2.782      46.720
2015    5       15     0  36    3.4174   590.4    2.784      46.682
2015    5       15     0  41    3.4166   590.1    2.786      46.643
2015    5       15     0  47    3.4158   589.9    2.788      46.605
2015    5       15     0  53    3.4151   589.6    2.790      46.566
2015    5       15     0  59    3.4143   589.3    2.792      46.527
2015    5       15     1   5    3.4135   589.0    2.794      46.489
2015    5       15     1  11    3.4127   588.7    2.796      46.450
2015    5       15     1  16    3.4118   588.4    2.798      46.410
2015    5       15     1  22    3.4110   588.1    2.799      46.370
2015    5       15     1  28    3.4102   587.8    2.801      46.330
2015    5       15     1  34    3.4093   587.5    2.803      46.289
2015    5       15     1  40    3.4085   587.2    2.805      46.247
2015    5       15     1  46    3.4077   586.9    2.807      46.205
2015    5       15     1  51    3.4068   586.6    2.808      46.162
2015    5       15     1  57    3.4060   586.3    2.810      46.119
2015    5       15     2   3    3.4051   586.0    2.812      46.075
2015    5       15     2   9    3.4043   585.7    2.814      46.031
2015    5       15     2  15    3.4034   585.4    2.815      45.987
2015    5       15     2  21    3.4026   585.1    2.817      45.943
2015    5       15     2  26    3.4018   584.8    2.819      45.899
2015    5       15     2  32    3.4010   584.5    2.821      45.855
2015    5       15     2  38    3.4002   584.2    2.823      45.811
2015    5       15     2  44    3.3994   583.9    2.825      45.767
2015    5       15     2  50    3.3986   583.6    2.826      45.724
2015    5       15     2  56    3.3979   583.3    2.828      45.680
2015    5       15     3   1    3.3971   583.0    2.830      45.637
2015    5       15     3   7    3.3963   582.7    2.832      45.595
2015    5       15     3  13    3.3956   582.4    2.834      45.553
2015    5       15     3  19    3.3949   582.1    2.836      45.511
2015    5       15     3  25    3.3942   581.8    2.839      45.470
2015    5       15     3  31    3.3935   581.5    2.841      45.429
2015    5       15     3  37    3.3929   581.2    2.843      45.390
2015    5       15     3  42    3.3923   580.8    2.846      45.351
2015    5       15     3  48    3.3916   580.5    2.848      45.313
2015    5       15     3  54    3.3910   580.2    2.850      45.275
2015    5       15     4   0    3.3904   579.9    2.853      45.239
2015    5       15     4   6    3.3899   579.6    2.856      45.203
2015    5       15     4  12    3.3893   579.3    2.858      45.169
2015    5       15     4  17    3.3888   579.0    2.861      45.135
2015    5       15     4  23    3.3883   578.7    2.864      45.102
2015    5       15     4  29    3.3878   578.4    2.867      45.071
2015    5       15     4  35    3.3874   578.1    2.870      45.040
2015    5       15     4  41    3.3869   577.8    2.873      45.010
2015    5       15     4  47    3.3865   577.5    2.876      44.981
2015    5       15     4  52    3.3861   577.2    2.880      44.953
2015    5       15     4  58    3.3857   576.9    2.883      44.926
2015    5       15     5   4    3.3853   576.6    2.886      44.899
2015    5       15     5  10    3.3850   576.3    2.890      44.874
2015    5       15     5  16    3.3847   576.1    2.893      44.849
2015    5       15     5  22    3.3843   575.8    2.896      44.825
2015    5       15     5  27    3.3840   575.5    2.900      44.801
2015    5       15     5  33    3.3837   575.2    2.903      44.777
2015    5       15     5  39    3.3834   574.9    2.907      44.754
2015    5       15     5  45    3.3831   574.6    2.910      44.731
2015    5       15     5  51    3.3828   574.4    2.914      44.709
2015    5       15     5  57    3.3825   574.1    2.917      44.686
2015    5       15     6   2    3.3822   573.8    2.920      44.664
2015    5       15     6   8    3.3820   573.5    2.924      44.642
2015    5       15     6  14    3.3817   573.2    2.927      44.620
2015    5       15     6  20    3.3815   572.9    2.930      44.598
2015    5       15     6  26    3.3812   572.7    2.933      44.576
2015    5       15     6  32    3.3809   572.4    2.936      44.553
2015    5       15     6  38    3.3807   572.1    2.939      44.530
2015    5       15     6  43    3.3805   571.8    2.942      44.506
2015    5       15     6  49    3.3803   571.6    2.945      44.482
2015    5       15     6  55    3.3800   571.3    2.948      44.457
2015    5       15     7   1    3.3798   571.0    2.951      44.431
2015    5       15     7   7    3.3796   570.7    2.953      44.405
2015    5       15     7  13    3.3794   570.5    2.956      44.378
2015    5       15     7  18    3.3792   570.2    2.959      44.350
2015    5       15     7  24    3.3790   569.9    2.962      44.322
2015    5       15     7  30    3.3788   569.7    2.964      44.294
2015    5       15     7  36    3.3786   569.4    2.967      44.264
2015    5       15     7  42    3.3784   569.1    2.969      44.235
2015    5       15     7  48    3.3782   568.8    2.972      44.205
2015    5       15     7  53    3.3780   568.6    2.974      44.174
2015    5       15     7  59    3.3778   568.3    2.976      44.143
2015    5       15     8   5    3.3776   568.0    2.979      44.111
2015    5       15     8  11    3.3774   567.8    2.981      44.079
2015    5       15     8  17    3.3772   567.5    2.984      44.047
2015    5       15     8  23    3.3770   567.2    2.986      44.014
2015    5       15     8  28    3.3767   567.0    2.988      43.981
2015    5       15     8  34    3.3765   566.7    2.990      43.948
2015    5       15     8  40    3.3763   566.4    2.992      43.914
2015    5       15     8  46    3.3761   566.2    2.995      43.880
2015    5       15     8  52    3.3759   565.9    2.997      43.846
2015    5       15     8  58    3.3757   565.6    2.999      43.811
2015    5       15     9   3    3.3754   565.4    3.001      43.776
2015    5       15     9   9    3.3752   565.1    3.003      43.741
2015    5       15     9  15    3.3750   564.8    3.006      43.706
2015    5       15     9  21    3.3748   564.6    3.008      43.671
2015    5       15     9  27    3.3746   564.3    3.010      43.635
2015    5       15     9  33    3.3744   564.0    3.012      43.600
2015    5       15     9  39    3.3742   563.7    3.015      43.564
2015    5       15     9  44    3.3741   563.5    3.017      43.529
2015    5       15     9  50    3.3739   563.2    3.019      43.494
2015    5       15     9  56    3.3737   562.9    3.022      43.459
2015    5       15    10   2    3.3736   562.6    3.024      43.424
2015    5       15    10   8    3.3735   562.4    3.027      43.389
2015    5       15    10  14    3.3733   562.1    3.029      43.355
2015    5       15    10  19    3.3732   561.8    3.032      43.322
2015    5       15    10  25    3.3731   561.5    3.035      43.288
2015    5       15    10  31    3.3730   561.3    3.038      43.255
2015    5       15    10  37    3.3729   561.0    3.041      43.223
2015    5       15    10  43    3.3729   560.7    3.044      43.191
2015    5       15    10  49    3.3728   560.4    3.047      43.160
2015    5       15    10  54    3.3728   560.2    3.050      43.130
2015    5       15    11   0    3.3728   559.9    3.053      43.099
2015    5       15    11   6    3.3728   559.6    3.056      43.070
2015    5       15    11  12    3.3728   559.3    3.060      43.041
2015    5       15    11  18    3.3729   559.0    3.063      43.013
2015    5       15    11  24    3.3729   558.8    3.066      42.986
2015    5       15    11  29    3.3730   558.5    3.070      42.959
2015    5       15    11  35    3.3731   558.2    3.074      42.932
2015    5       15    11  41    3.3732   558.0    3.077      42.906
2015    5       15    11  47    3.3733   557.7    3.081      42.881
2015    5       15    11  53    3.3735   557.4    3.085      42.856
2015    5       15    11  59    3.3737   557.1    3.088      42.831
2015    5       15    12   4    3.3739   556.9    3.092      42.806
2015    5       15    12  10    3.3741   556.6    3.096      42.782
2015    5       15    12  16    3.3743   556.3    3.100      42.759
2015    5       15    12  22    3.3745   556.1    3.103      42.735
2015    5       15    12  28    3.3747   555.8    3.107      42.712
2015    5       15    12  34    3.3750   555.5    3.111      42.689
2015    5       15    12  40    3.3752   555.3    3.115      42.666
2015    5       15    12  45    3.3755   555.0    3.118      42.643
2015    5       15    12  51    3.3758   554.7    3.122      42.620
2015    5       15    12  57    3.3760   554.5    3.126      42.597
2015    5       15    13   3    3.3763   554.2    3.129      42.574
2015    5       15    13   9    3.3766   554.0    3.133      42.552
2015    5       15    13  15    3.3769   553.7    3.136      42.529
2015    5       15    13  20    3.3772   553.4    3.140      42.507
2015    5       15    13  26    3.3775   553.2    3.143      42.485
2015    5       15    13  32    3.3778   552.9    3.147      42.462
2015    5       15    13  38    3.3781   552.7    3.150      42.440
2015    5       15    13  44    3.3784   552.4    3.154      42.417
2015    5       15    13  50    3.3787   552.2    3.157      42.394
2015    5       15    13  55    3.3789   551.9    3.160      42.371
2015    5       15    14   1    3.3792   551.7    3.163      42.348
2015    5       15    14   7    3.3795   551.4    3.166      42.325
2015    5       15    14  13    3.3798   551.2    3.170      42.301
2015    5       15    14  19    3.3800   550.9    3.173      42.277
2015    5       15    14  25    3.3803   550.7    3.176      42.253
2015    5       15    14  30    3.3805   550.4    3.179      42.229
2015    5       15    14  36    3.3808   550.2    3.182      42.204
2015    5       15    14  42    3.3810   549.9    3.184      42.180
2015    5       15    14  48    3.3812   549.7    3.187      42.155
2015    5       15    14  54    3.3815   549.4    3.190      42.130
2015    5       15    15   0    3.3817   549.2    3.193      42.105
2015    5       15    15   5    3.3819   549.0    3.196      42.080
2015    5       15    15  11    3.3822   548.7    3.199      42.054
2015    5       15    15  17    3.3824   548.5    3.201      42.029
2015    5       15    15  23    3.3826   548.2    3.204      42.003
2015    5       15    15  29    3.3828   548.0    3.207      41.977
2015    5       15    15  35    3.3830   547.8    3.209      41.951
2015    5       15    15  41    3.3832   547.5    3.212      41.925
2015    5       15    15  46    3.3834   547.3    3.215      41.899
2015    5       15    15  52    3.3836   547.0    3.217      41.873
2015    5       15    15  58    3.3838   546.8    3.220      41.846
2015    5       15    16   4    3.3840   546.6    3.222      41.820
2015    5       15    16  10    3.3842   546.3    3.225      41.793
2015    5       15    16  16    3.3844   546.1    3.227      41.767
2015    5       15    16  21    3.3846   545.8    3.230      41.740
2015    5       15    16  27    3.3848   545.6    3.233      41.713
2015    5       15    16  33    3.3850   545.4    3.235      41.687
2015    5       15    16  39    3.3852   545.1    3.238      41.660
2015    5       15    16  45    3.3854   544.9    3.240      41.634
2015    5       15    16  51    3.3856   544.6    3.243      41.608
2015    5       15    16  56    3.3858   544.4    3.245      41.581
2015    5       15    17   2    3.3860   544.2    3.248      41.556
2015    5       15    17   8    3.3862   543.9    3.250      41.530
2015    5       15    17  14    3.3864   543.7    3.253      41.505
2015    5       15    17  20    3.3866   543.4    3.256      41.480
2015    5       15    17  26    3.3868   543.2    3.259      41.455
2015    5       15    17  31    3.3871   543.0    3.261      41.430
2015    5       15    17  37    3.3873   542.7    3.264      41.406
2015    5       15    17  43    3.3875   542.5    3.267      41.383
2015    5       15    17  49    3.3878   542.2    3.270      41.359
2015    5       15    17  55    3.3880   542.0    3.273      41.337
2015    5       15    18   1    3.3883   541.8    3.276      41.314
2015    5       15    18   6    3.3885   541.5    3.279      41.292
2015    5       15    18  12    3.3888   541.3    3.282      41.270
2015    5       15    18  18    3.3891   541.0    3.285      41.249
2015    5       15    18  24    3.3894   540.8    3.288      41.228
2015    5       15    18  30    3.3897   540.6    3.291      41.207
2015    5       15    18  36    3.3900   540.3    3.295      41.187
2015    5       15    18  42    3.3903   540.1    3.298      41.167
2015    5       15    18  47    3.3906   539.8    3.301      41.147
2015    5       15    18  53    3.3910   539.6    3.304      41.128
2015    5       15    18  59    3.3913   539.4    3.308      41.108
2015    5       15    19   5    3.3916   539.1    3.311      41.089
2015    5       15    19  11    3.3920   538.9    3.315      41.070
2015    5       15    19  17    3.3923   538.7    3.318      41.051
2015    5       15    19  22    3.3926   538.4    3.321      41.032
2015    5       15    19  28    3.3930   538.2    3.325      41.013
2015    5       15    19  34    3.3933   537.9    3.328      40.994
2015    5       15    19  40    3.3937   537.7    3.332      40.975
2015    5       15    19  46    3.3940   537.5    3.335      40.956
2015    5       15    19  52    3.3944   537.2    3.338      40.937
2015    5       15    19  57    3.3947   537.0    3.342      40.918
2015    5       15    20   3    3.3950   536.8    3.345      40.899
2015    5       15    20   9    3.3954   536.5    3.349      40.880
2015    5       15    20  15    3.3957   536.3    3.352      40.862
2015    5       15    20  21    3.3961   536.1    3.355      40.843
2015    5       15    20  27    3.3965   535.8    3.359      40.824
2015    5       15    20  32    3.3968   535.6    3.362      40.805
2015    5       15    20  38    3.3972   535.3    3.366      40.787
2015    5       15    20  44    3.3975   535.1    3.369      40.768
2015    5       15    20  50    3.3979   534.9    3.372      40.750
2015    5       15    20  56    3.3983   534.6    3.376      40.732
2015    5       15    21   2    3.3986   534.4    3.379      40.713
2015    5       15    21   7    3.3990   534.2    3.383      40.695
2015    5       15    21  13    3.3994   533.9    3.386      40.677
2015    5       15    21  19    3.3997   533.7    3.390      40.660
2015    5       15    21  25    3.4001   533.5    3.393      40.642
2015    5       15    21  31    3.4005   533.2    3.397      40.624
2015    5       15    21  37    3.4008   533.0    3.400      40.606
2015    5       15    21  43    3.4012   532.8    3.404      40.589
2015    5       15    21  48    3.4015   532.6    3.407      40.571
2015    5       15    21  54    3.4019   532.3    3.411      40.554
2015    5       15    22   0    3.4023   532.1    3.414      40.536
2015    5       15    22   6    3.4026   531.9    3.418      40.518
2015    5       15    22  12    3.4030   531.6    3.421      40.501
2015    5       15    22  18    3.4033   531.4    3.425      40.483
2015    5       15    22  23    3.4036   531.2    3.428      40.465
2015    5       15    22  29    3.4040   531.0    3.431      40.447
2015    5       15    22  35    3.4043   530.8    3.435      40.428
2015    5       15    22  41    3.4046   530.5    3.438      40.410
2015    5       15    22  47    3.4049   530.3    3.441      40.391
2015    5       15    22  53    3.4052   530.1    3.444      40.372
2015    5       15    22  58    3.4055   529.8    3.448      40.353
2015    5       15    23   4    3.4058   529.6    3.451      40.334
2015    5       15    23  10    3.4061   529.4    3.454      40.315
2015    5       15    23  16    3.4064   529.2    3.457      40.295
2015    5       15    23  22    3.4067   528.9    3.460      40.275
2015    5       15    23  28    3.4070   528.7    3.463      40.255
2015    5       15    23  33    3.4073   528.5    3.466      40.235
2015    5       15    23  39    3.4076   528.3    3.469      40.215
2015    5       15    23  45    3.4078   528.0    3.472      40.195
2015    5       15    23  51    3.4081   527.8    3.475      40.174
2015    5       15    23  57    3.4084   527.6    3.478      40.154
2015    5       16     0   3    3.4087   527.4    3.481      40.133
2015    5       16     0   8    3.4090   527.1    3.483      40.112
2015    5       16     0  14    3.4093   526.9    3.486      40.092
2015    5       16     0  20    3.4096   526.7    3.489      40.071
2015    5       16     0  26    3.4099   526.5    3.492      40.050
2015    5       16     0  32    3.4103   526.2    3.494      40.030
2015    5       16     0  38    3.4106   526.0    3.497      40.009
2015    5       16     0  44    3.4109   525.8    3.500      39.988
2015    5       16     0  49    3.4112   525.6    3.503      39.968
2015    5       16     0  55    3.4116   525.4    3.505      39.947
2015    5       16     1   1    3.4119   525.1    3.508      39.926
2015    5       16     1   7    3.4122   524.9    3.510      39.906
2015    5       16     1  13    3.4126   524.7    3.513      39.886
2015    5       16     1  19    3.4129   524.5    3.516      39.865
2015    5       16     1  24    3.4133   524.2    3.518      39.845
2015    5       16     1  30    3.4136   524.0    3.521      39.825
2015    5       16     1  36    3.4139   523.8    3.524      39.805
2015    5       16     1  42    3.4143   523.6    3.526      39.785
2015    5       16     1  48    3.4146   523.4    3.529      39.765
2015    5       16     1  54    3.4150   523.1    3.531      39.745
2015    5       16     1  59    3.4153   522.9    3.534      39.726
2015    5       16     2   5    3.4156   522.7    3.537      39.706
2015    5       16     2  11    3.4160   522.5    3.539      39.686
2015    5       16     2  17    3.4163   522.3    3.542      39.667
2015    5       16     2  23    3.4167   522.1    3.544      39.647
2015    5       16     2  29    3.4170   521.8    3.547      39.628
2015    5       16     2  34    3.4173   521.6    3.549      39.608
2015    5       16     2  40    3.4176   521.4    3.552      39.589
2015    5       16     2  46    3.4179   521.2    3.555      39.570
2015    5       16     2  52    3.4183   521.0    3.557      39.551
2015    5       16     2  58    3.4186   520.7    3.560      39.532
2015    5       16     3   4    3.4189   520.5    3.562      39.513
2015    5       16     3   9    3.4192   520.3    3.565      39.494
2015    5       16     3  15    3.4195   520.1    3.568      39.475
2015    5       16     3  21    3.4198   519.9    3.571      39.456
2015    5       16     3  27    3.4201   519.7    3.573      39.437
2015    5       16     3  33    3.4204   519.4    3.576      39.419
2015    5       16     3  39    3.4207   519.2    3.579      39.401
2015    5       16     3  44    3.4210   519.0    3.582      39.382
2015    5       16     3  50    3.4213   518.8    3.584      39.364
2015    5       16     3  56    3.4216   518.6    3.587      39.346
2015    5       16     4   2    3.4219   518.3    3.590      39.329
2015    5       16     4   8    3.4222   518.1    3.593      39.311
2015    5       16     4  14    3.4225   517.9    3.596      39.294
2015    5       16     4  20    3.4228   517.7    3.599      39.277
2015    5       16     4  25    3.4232   517.5    3.602      39.260
2015    5       16     4  31    3.4235   517.2    3.605      39.243
2015    5       16     4  37    3.4238   517.0    3.609      39.227
2015    5       16     4  43    3.4241   516.8    3.612      39.211
2015    5       16     4  49    3.4245   516.6    3.615      39.195
2015    5       16     4  55    3.4248   516.4    3.618      39.179
2015    5       16     5   0    3.4251   516.2    3.622      39.163
2015    5       16     5   6    3.4255   515.9    3.625      39.148
2015    5       16     5  12    3.4258   515.7    3.629      39.133
2015    5       16     5  18    3.4262   515.5    3.632      39.118
2015    5       16     5  24    3.4265   515.3    3.636      39.103
2015    5       16     5  30    3.4269   515.1    3.639      39.087
2015    5       16     5  35    3.4272   514.9    3.643      39.072
2015    5       16     5  41    3.4276   514.6    3.646      39.057
2015    5       16     5  47    3.4279   514.4    3.650      39.042
2015    5       16     5  53    3.4283   514.2    3.653      39.027
2015    5       16     5  59    3.4286   514.0    3.657      39.012
2015    5       16     6   5    3.4290   513.8    3.660      38.996
2015    5       16     6  10    3.4293   513.6    3.664      38.981
2015    5       16     6  16    3.4297   513.3    3.667      38.965
2015    5       16     6  22    3.4301   513.1    3.671      38.950
2015    5       16     6  28    3.4304   512.9    3.674      38.934
2015    5       16     6  34    3.4308   512.7    3.678      38.918
2015    5       16     6  40    3.4312   512.5    3.681      38.902
2015    5       16     6  45    3.4315   512.2    3.685      38.886
2015    5       16     6  51    3.4319   512.0    3.688      38.870
2015    5       16     6  57    3.4323   511.8    3.691      38.853
2015    5       16     7   3    3.4327   511.6    3.695      38.837
2015    5       16     7   9    3.4331   511.4    3.698      38.821
2015    5       16     7  15    3.4335   511.1    3.702      38.804
2015    5       16     7  20    3.4340   510.9    3.705      38.788
2015    5       16     7  26    3.4344   510.7    3.709      38.772
2015    5       16     7  32    3.4349   510.5    3.712      38.755
2015    5       16     7  38    3.4353   510.3    3.716      38.739
2015    5       16     7  44    3.4358   510.1    3.719      38.722
2015    5       16     7  50    3.4363   509.8    3.722      38.706
2015    5       16     7  56    3.4368   509.6    3.726      38.690
2015    5       16     8   1    3.4373   509.4    3.729      38.673
2015    5       16     8   7    3.4378   509.2    3.733      38.657
2015    5       16     8  13    3.4383   509.0    3.736      38.641
2015    5       16     8  19    3.4388   508.8    3.739      38.625
2015    5       16     8  25    3.4393   508.6    3.743      38.608
2015    5       16     8  31    3.4398   508.3    3.746      38.592
2015    5       16     8  36    3.4404   508.1    3.749      38.576
2015    5       16     8  42    3.4409   507.9    3.753      38.560
2015    5       16     8  48    3.4414   507.7    3.756      38.543
2015    5       16     8  54    3.4419   507.5    3.759      38.527
2015    5       16     9   0    3.4423   507.3    3.763      38.511
2015    5       16     9   6    3.4428   507.1    3.766      38.494
2015    5       16     9  11    3.4433   506.9    3.769      38.478
2015    5       16     9  17    3.4438   506.7    3.772      38.461
2015    5       16     9  23    3.4442   506.4    3.776      38.445
2015    5       16     9  29    3.4447   506.2    3.779      38.428
2015    5       16     9  35    3.4451   506.0    3.782      38.412
2015    5       16     9  41    3.4456   505.8    3.785      38.395
2015    5       16     9  46    3.4460   505.6    3.788      38.378
2015    5       16     9  52    3.4465   505.4    3.791      38.361
2015    5       16     9  58    3.4469   505.2    3.794      38.344
2015    5       16    10   4    3.4473   505.0    3.797      38.327
2015    5       16    10  10    3.4477   504.8    3.800      38.310
2015    5       16    10  16    3.4482   504.6    3.803      38.292
2015    5       16    10  21    3.4486   504.4    3.806      38.275
2015    5       16    10  27    3.4490   504.2    3.809      38.258
2015    5       16    10  33    3.4494   504.0    3.812      38.240
2015    5       16    10  39    3.4498   503.7    3.814      38.222
2015    5       16    10  45    3.4502   503.5    3.817      38.205
2015    5       16    10  51    3.4505   503.3    3.820      38.187
2015    5       16    10  56    3.4509   503.1    3.823      38.169
2015    5       16    11   2    3.4513   502.9    3.826      38.151
2015    5       16    11   8    3.4517   502.7    3.828      38.133
2015    5       16    11  14    3.4521   502.5    3.831      38.115
2015    5       16    11  20    3.4525   502.3    3.834      38.097
2015    5       16    11  26    3.4528   502.1    3.837      38.079
2015    5       16    11  32    3.4532   501.9    3.839      38.061
2015    5       16    11  37    3.4536   501.7    3.842      38.043
2015    5       16    11  43    3.4539   501.5    3.845      38.025
2015    5       16    11  49    3.4543   501.3    3.847      38.007
2015    5       16    11  55    3.4547   501.0    3.850      37.988
2015    5       16    12   1    3.4550   500.8    3.853      37.970
2015    5       16    12   7    3.4554   500.6    3.856      37.952
2015    5       16    12  12    3.4558   500.4    3.858      37.934
2015    5       16    12  18    3.4562   500.2    3.861      37.915
2015    5       16    12  24    3.4565   500.0    3.864      37.897
2015    5       16    12  30    3.4569   499.8    3.867      37.878
2015    5       16    12  36    3.4573   499.6    3.870      37.860
2015    5       16    12  42    3.4577   499.4    3.872      37.842
2015    5       16    12  47    3.4581   499.2    3.875      37.823
2015    5       16    12  53    3.4585   499.0    3.878      37.804
2015    5       16    12  59    3.4588   498.7    3.881      37.786
2015    5       16    13   5    3.4592   498.5    3.884      37.767
2015    5       16    13  11    3.4596   498.3    3.887      37.749
2015    5       16    13  17    3.4601   498.1    3.890      37.730
2015    5       16    13  22    3.4605   497.9    3.893      37.711
2015    5       16    13  28    3.4609   497.7    3.895      37.693
2015    5       16    13  34    3.4613   497.5    3.898      37.674
2015    5       16    13  40    3.4618   497.3    3.901      37.655
2015    5       16    13  46    3.4622   497.1    3.904      37.636
2015    5       16    13  52    3.4627   496.9    3.907      37.618
2015    5       16    13  57    3.4631   496.6    3.910      37.599
2015    5       16    14   3    3.4636   496.4    3.913      37.580
2015    5       16    14   9    3.4641   496.2    3.917      37.562
2015    5       16    14  15    3.4646   496.0    3.920      37.543
2015    5       16    14  21    3.4650   495.8    3.923      37.524
2015    5       16    14  27    3.4655   495.6    3.926      37.505
2015    5       16    14  33    3.4661   495.4    3.929      37.487
2015    5       16    14  38    3.4666   495.2    3.932      37.468
2015    5       16    14  44    3.4671   494.9    3.936      37.450
2015    5       16    14  50    3.4677   494.7    3.939      37.432
2015    5       16    14  56    3.4682   494.5    3.942      37.414
2015    5       16    15   2    3.4688   494.3    3.945      37.396
2015    5       16    15   8    3.4693   494.1    3.949      37.378
2015    5       16    15  13    3.4699   493.9    3.952      37.360
2015    5       16    15  19    3.4705   493.7    3.956      37.342
2015    5       16    15  25    3.4711   493.5    3.959      37.325
2015    5       16    15  31    3.4717   493.3    3.962      37.307
2015    5       16    15  37    3.4723   493.1    3.966      37.290
2015    5       16    15  43    3.4729   492.9    3.969      37.273
2015    5       16    15  48    3.4735   492.6    3.973      37.255
2015    5       16    15  54    3.4741   492.4    3.976      37.239
2015    5       16    16   0    3.4747   492.2    3.980      37.222
2015    5       16    16   6    3.4753   492.0    3.984      37.205
2015    5       16    16  12    3.4759   491.8    3.987      37.188
2015    5       16    16  18    3.4765   491.6    3.991      37.171
2015    5       16    16  23    3.4771   491.4    3.994      37.155
2015    5       16    16  29    3.4777   491.2    3.998      37.138
2015    5       16    16  35    3.4783   491.0    4.002      37.122
2015    5       16    16  41    3.4788   490.8    4.005      37.105
2015    5       16    16  47    3.4794   490.6    4.009      37.089
2015    5       16    16  53    3.4800   490.4    4.013      37.072
2015    5       16    16  59    3.4805   490.2    4.016      37.056
2015    5       16    17   4    3.4811   490.0    4.020      37.039
2015    5       16    17  10    3.4816   489.8    4.023      37.022
2015    5       16    17  16    3.4822   489.6    4.027      37.005
2015    5       16    17  22    3.4827   489.3    4.031      36.989
2015    5       16    17  28    3.4833   489.1    4.034      36.972
2015    5       16    17  34    3.4838   488.9    4.038      36.955
2015    5       16    17  39    3.4844   488.7    4.041      36.938
2015    5       16    17  45    3.4849   488.5    4.045      36.921
2015    5       16    17  51    3.4854   488.3    4.048      36.904
2015    5       16    17  57    3.4860   488.1    4.052      36.887
2015    5       16    18   3    3.4865   487.9    4.055      36.870
2015    5       16    18   9    3.4870   487.7    4.059      36.853
2015    5       16    18  14    3.4876   487.5    4.062      36.835
2015    5       16    18  20    3.4881   487.3    4.066      36.818
2015    5       16    18  26    3.4887   487.1    4.069      36.801
2015    5       16    18  32    3.4892   486.9    4.073      36.783
2015    5       16    18  38    3.4898   486.7    4.076      36.766
2015    5       16    18  44    3.4903   486.5    4.080      36.748
2015    5       16    18  49    3.4909   486.3    4.083      36.731
2015    5       16    18  55    3.4915   486.1    4.086      36.713
2015    5       16    19   1    3.4920   485.9    4.090      36.696
2015    5       16    19   7    3.4926   485.6    4.093      36.678
2015    5       16    19  13    3.4932   485.4    4.097      36.660
2015    5       16    19  19    3.4938   485.2    4.100      36.643
2015    5       16    19  25    3.4944   485.0    4.104      36.625
2015    5       16    19  30    3.4950   484.8    4.107      36.608
2015    5       16    19  36    3.4956   484.6    4.110      36.590
2015    5       16    19  42    3.4962   484.4    4.114      36.572
2015    5       16    19  48    3.4968   484.2    4.117      36.554
2015    5       16    19  54    3.4974   484.0    4.121      36.536
2015    5       16    20   0    3.4980   483.8    4.124      36.518
2015    5       16    20   5    3.4987   483.6    4.127      36.500
2015    5       16    20  11    3.4993   483.4    4.131      36.482
2015    5       16    20  17    3.5000   483.2    4.134      36.464
2015    5       16    20  23    3.5006   483.0    4.138      36.446
2015    5       16    20  29    3.5013   482.8    4.141      36.428
2015    5       16    20  35    3.5019   482.6    4.144      36.410
2015    5       16    20  40    3.5026   482.4    4.148      36.391
2015    5       16    20  46    3.5033   482.2    4.151      36.373
2015    5       16    20  52    3.5040   482.0    4.155      36.355
2015    5       16    20  58    3.5046   481.7    4.158      36.337
2015    5       16    21   4    3.5053   481.5    4.162      36.318
2015    5       16    21  10    3.5061   481.3    4.165      36.300
2015    5       16    21  15    3.5067   481.1    4.168      36.282
2015    5       16    21  21    3.5075   480.9    4.172      36.263
2015    5       16    21  27    3.5082   480.7    4.175      36.245
2015    5       16    21  33    3.5089   480.5    4.179      36.227
2015    5       16    21  39    3.5096   480.3    4.182      36.208
2015    5       16    21  45    3.5104   480.1    4.186      36.190
2015    5       16    21  51    3.5111   479.9    4.189      36.172
2015    5       16    21  56    3.5118   479.7    4.193      36.153
2015    5       16    22   2    3.5126   479.5    4.196      36.135
2015    5       16    22   8    3.5133   479.3    4.200      36.117
2015    5       16    22  14    3.5141   479.1    4.203      36.098
2015    5       16    22  20    3.5148   478.9    4.207      36.080
2015    5       16    22  26    3.5155   478.7    4.210      36.061
2015    5       16    22  31    3.5162   478.5    4.214      36.043
2015    5       16    22  37    3.5170   478.3    4.217      36.024
2015    5       16    22  43    3.5177   478.0    4.221      36.005
2015    5       16    22  49    3.5184   477.8    4.224      35.987
2015    5       16    22  55    3.5191   477.6    4.228      35.968
2015    5       16    23   1    3.5198   477.4    4.231      35.949
2015    5       16    23   6    3.5205   477.2    4.235      35.930
2015    5       16    23  12    3.5212   477.0    4.238      35.911
2015    5       16    23  18    3.5219   476.8    4.242      35.892
2015    5       16    23  24    3.5225   476.6    4.245      35.873
2015    5       16    23  30    3.5232   476.4    4.249      35.853
2015    5       16    23  36    3.5238   476.2    4.252      35.834
2015    5       16    23  41    3.5245   476.0    4.256      35.814
2015    5       16    23  47    3.5251   475.8    4.259      35.795
2015    5       16    23  53    3.5257   475.6    4.262      35.775
2015    5       16    23  59    3.5264   475.4    4.266      35.755
2015    5       17     0   5    3.5270   475.2    4.269      35.735
2015    5       17     0  11    3.5276   475.0    4.272      35.715
2015    5       17     0  17    3.5282   474.8    4.276      35.694
2015    5       17     0  22    3.5288   474.6    4.279      35.674
2015    5       17     0  28    3.5294   474.3    4.282      35.653
2015    5       17     0  34    3.5300   474.1    4.285      35.633
2015    5       17     0  40    3.5305   473.9    4.289      35.612
2015    5       17     0  46    3.5311   473.7    4.292      35.591
2015    5       17     0  52    3.5316   473.5    4.295      35.570
2015    5       17     0  57    3.5322   473.3    4.298      35.549
2015    5       17     1   3    3.5327   473.1    4.302      35.528
2015    5       17     1   9    3.5333   472.9    4.305      35.507
2015    5       17     1  15    3.5338   472.7    4.308      35.485
2015    5       17     1  21    3.5343   472.5    4.311      35.464
2015    5       17     1  27    3.5348   472.3    4.314      35.442
2015    5       17     1  32    3.5353   472.1    4.318      35.421
2015    5       17     1  38    3.5358   471.9    4.321      35.399
2015    5       17     1  44    3.5363   471.6    4.324      35.378
2015    5       17     1  50    3.5367   471.4    4.327      35.356
2015    5       17     1  56    3.5372   471.2    4.330      35.334
2015    5       17     2   2    3.5376   471.0    4.334      35.313
2015    5       17     2   7    3.5381   470.8    4.337      35.291
2015    5       17     2  13    3.5385   470.6    4.340      35.269
2015    5       17     2  19    3.5389   470.4    4.343      35.247
2015    5       17     2  25    3.5393   470.2    4.346      35.225
2015    5       17     2  31    3.5397   470.0    4.350      35.203
2015    5       17     2  37    3.5401   469.8    4.353      35.181
2015    5       17     2  42    3.5405   469.6    4.356      35.159
2015    5       17     2  48    3.5408   469.3    4.359      35.137
2015    5       17     2  54    3.5412   469.1    4.363      35.115
2015    5       17     3   0    3.5415   468.9    4.366      35.093
2015    5       17     3   6    3.5418   468.7    4.369      35.071
2015    5       17     3  12    3.5421   468.5    4.372      35.049
2015    5       17     3  18    3.5424   468.3    4.375      35.026
2015    5       17     3  23    3.5426   468.1    4.379      35.004
2015    5       17     3  29    3.5428   467.9    4.382      34.982
2015    5       17     3  35    3.5430   467.7    4.385      34.960
2015    5       17     3  41    3.5432   467.4    4.389      34.938
2015    5       17     3  47    3.5434   467.2    4.392      34.916
2015    5       17     3  53    3.5435   467.0    4.395      34.895
2015    5       17     3  58    3.5436   466.8    4.399      34.873
2015    5       17     4   4    3.5437   466.6    4.402      34.851
2015    5       17     4  10    3.5438   466.4    4.405      34.830
2015    5       17     4  16    3.5438   466.2    4.409      34.809
2015    5       17     4  22    3.5438   466.0    4.412      34.788
2015    5       17     4  28    3.5438   465.8    4.416      34.767
2015    5       17     4  33    3.5438   465.6    4.419      34.746
2015    5       17     4  39    3.5438   465.4    4.423      34.726
2015    5       17     4  45    3.5437   465.2    4.426      34.706
2015    5       17     4  51    3.5437   464.9    4.430      34.686
2015    5       17     4  57    3.5436   464.7    4.434      34.666
2015    5       17     5   3    3.5435   464.5    4.437      34.647
2015    5       17     5   8    3.5433   464.3    4.441      34.628
2015    5       17     5  14    3.5432   464.1    4.445      34.610
2015    5       17     5  20    3.5431   463.9    4.449      34.591
2015    5       17     5  26    3.5429   463.7    4.453      34.574
2015    5       17     5  32    3.5427   463.5    4.457      34.556
2015    5       17     5  38    3.5426   463.3    4.461      34.539
2015    5       17     5  43    3.5423   463.1    4.465      34.522
2015    5       17     5  49    3.5422   462.9    4.470      34.506
2015    5       17     5  55    3.5419   462.8    4.474      34.489
2015    5       17     6   1    3.5417   462.6    4.478      34.474
2015    5       17     6   7    3.5415   462.4    4.483      34.459
2015    5       17     6  13    3.5413   462.2    4.487      34.444
2015    5       17     6  19    3.5410   462.0    4.492      34.429
2015    5       17     6  24    3.5408   461.8    4.497      34.415
2015    5       17     6  30    3.5405   461.6    4.502      34.401
2015    5       17     6  36    3.5403   461.4    4.506      34.388
2015    5       17     6  42    3.5400   461.2    4.511      34.375
2015    5       17     6  48    3.5398   461.0    4.517      34.363
2015    5       17     6  54    3.5396   460.9    4.522      34.351
2015    5       17     6  59    3.5393   460.7    4.527      34.340
2015    5       17     7   5    3.5391   460.5    4.533      34.328
2015    5       17     7  11    3.5388   460.3    4.538      34.318
2015    5       17     7  17    3.5386   460.1    4.544      34.308
2015    5       17     7  23    3.5384   460.0    4.550      34.299
2015    5       17     7  29    3.5382   459.8    4.556      34.291
2015    5       17     7  34    3.5380   459.6    4.562      34.283
2015    5       17     7  40    3.5378   459.4    4.568      34.276
2015    5       17     7  46    3.5377   459.2    4.575      34.269
2015    5       17     7  52    3.5375   459.1    4.581      34.264
2015    5       17     7  58    3.5375   458.9    4.588      34.259
2015    5       17     8   4    3.5374   458.7    4.595      34.255
2015    5       17     8   9    3.5374   458.5    4.603      34.252
2015    5       17     8  15    3.5374   458.4    4.610      34.251
2015    5       17     8  21    3.5374   458.2    4.618      34.250
2015    5       17     8  27    3.5375   458.0    4.626      34.250
2015    5       17     8  33    3.5377   457.9    4.634      34.252
2015    5       17     8  39    3.5379   457.7    4.643      34.255
2015    5       17     8  44    3.5381   457.5    4.652      34.259
2015    5       17     8  50    3.5385   457.4    4.661      34.264
2015    5       17     8  56    3.5388   457.2    4.671      34.270
2015    5       17     9   2    3.5393   457.1    4.681      34.278
2015    5       17     9   8    3.5398   456.9    4.691      34.287
2015    5       17     9  14    3.5404   456.8    4.701      34.298
2015    5       17     9  20    3.5410   456.6    4.712      34.309
2015    5       17     9  25    3.5417   456.5    4.723      34.322
2015    5       17     9  31    3.5425   456.3    4.735      34.337
2015    5       17     9  37    3.5434   456.2    4.746      34.352
2015    5       17     9  43    3.5443   456.1    4.759      34.368
2015    5       17     9  49    3.5454   455.9    4.771      34.386
2015    5       17     9  55    3.5464   455.8    4.784      34.405
2015    5       17    10   0    3.5476   455.6    4.797      34.425
2015    5       17    10   6    3.5488   455.5    4.811      34.446
2015    5       17    10  12    3.5502   455.4    4.825      34.468
2015    5       17    10  18    3.5515   455.3    4.839      34.491
2015    5       17    10  24    3.5530   455.1    4.854      34.515
2015    5       17    10  30    3.5546   455.0    4.869      34.540
2015    5       17    10  35    3.5562   454.9    4.884      34.566
2015    5       17    10  41    3.5579   454.8    4.900      34.592
2015    5       17    10  47    3.5597   454.6    4.916      34.619
2015    5       17    10  53    3.5616   454.5    4.933      34.647
2015    5       17    10  59    3.5636   454.4    4.950      34.675
2015    5       17    11   5    3.5656   454.3    4.967      34.704
2015    5       17    11  10    3.5678   454.1    4.985      34.734
2015    5       17    11  16    3.5701   454.0    5.003      34.764
2015    5       17    11  22    3.5724   453.9    5.021      34.794
2015    5       17    11  28    3.5749   453.8    5.040      34.825
2015    5       17    11  34    3.5774   453.7    5.060      34.857
2015    5       17    11  40    3.5800   453.5    5.080      34.888
2015    5       17    11  45    3.5828   453.4    5.100      34.920
2015    5       17    11  51    3.5856   453.3    5.121      34.952
2015    5       17    11  57    3.5886   453.2    5.142      34.985
2015    5       17    12   3    3.5917   453.1    5.164      35.017
2015    5       17    12   9    3.5949   452.9    5.186      35.050
2015    5       17    12  15    3.5982   452.8    5.209      35.082
2015    5       17    12  21    3.6016   452.7    5.233      35.115
2015    5       17    12  26    3.6052   452.6    5.257      35.148
2015    5       17    12  32    3.6089   452.5    5.281      35.180
2015    5       17    12  38    3.6126   452.4    5.307      35.213
2015    5       17    12  44    3.6166   452.3    5.333      35.245
2015    5       17    12  50    3.6206   452.2    5.360      35.276
2015    5       17    12  56    3.6247   452.0    5.387      35.308
2015    5       17    13   1    3.6289   451.9    5.416      35.339
2015    5       17    13   7    3.6332   451.8    5.445      35.369
2015    5       17    13  13    3.6376   451.8    5.475      35.398
2015    5       17    13  19    3.6421   451.7    5.506      35.424
2015    5       17    13  25    3.6466   451.6    5.537      35.450
2015    5       17    13  31    3.6512   451.5    5.570      35.475
2015    5       17    13  36    3.6557   451.4    5.603      35.500
2015    5       17    13  42    3.6603   451.3    5.636      35.526
2015    5       17    13  48    3.6647   451.2    5.670      35.552
2015    5       17    13  54    3.6691   451.2    5.703      35.581
2015    5       17    14   0    3.6734   451.1    5.737      35.612
2015    5       17    14   6    3.6777   451.0    5.770      35.647
2015    5       17    14  11    3.6818   450.9    5.804      35.683
2015    5       17    14  17    3.6860   450.8    5.837      35.722
2015    5       17    14  23    3.6899   450.7    5.871      35.762
2015    5       17    14  29    3.6939   450.6    5.904      35.804
2015    5       17    14  35    3.6976   450.5    5.937      35.847
2015    5       17    14  41    3.7014   450.5    5.969      35.891
2015    5       17    14  46    3.7049   450.4    6.002      35.936
2015    5       17    14  52    3.7085   450.3    6.034      35.980
2015    5       17    14  58    3.7119   450.2    6.066      36.025
2015    5       17    15   4    3.7153   450.1    6.097      36.069
2015    5       17    15  10    3.7185   450.0    6.129      36.112
2015    5       17    15  16    3.7218   449.9    6.160      36.154
2015    5       17    15  22    3.7249   449.7    6.191      36.198
2015    5       17    15  27    3.7281   449.6    6.221      36.241
2015    5       17    15  33    3.7311   449.5    6.251      36.285
2015    5       17    15  39    3.7342   449.3    6.280      36.332
2015    5       17    15  45    3.7371   449.2    6.308      36.380
2015    5       17    15  51    3.7400   449.0    6.335      36.431
2015    5       17    15  57    3.7428   448.9    6.362      36.484
2015    5       17    16   2    3.7457   448.7    6.387      36.539
2015    5       17    16   8    3.7485   448.5    6.412      36.597
2015    5       17    16  14    3.7513   448.3    6.436      36.657
2015    5       17    16  20    3.7541   448.2    6.459      36.720
2015    5       17    16  26    3.7569   448.0    6.481      36.786
2015    5       17    16  32    3.7595   447.8    6.502      36.855
2015    5       17    16  37    3.7623   447.6    6.522      36.927
2015    5       17    16  43    3.7649   447.4    6.542      37.002
2015    5       17    16  49    3.7677   447.2    6.561      37.079
2015    5       17    16  55    3.7703   447.0    6.579      37.159
2015    5       17    17   1    3.7730   446.8    6.596      37.242
2015    5       17    17   7    3.7756   446.6    6.612      37.328
2015    5       17    17  12    3.7782   446.4    6.628      37.416
2015    5       17    17  18    3.7808   446.2    6.643      37.507
2015    5       17    17  24    3.7834   446.0    6.658      37.600
2015    5       17    17  30    3.7860   445.8    6.672      37.696
2015    5       17    17  36    3.7886   445.6    6.685      37.795
2015    5       17    17  42    3.7911   445.3    6.698      37.896
2015    5       17    17  47    3.7937   445.1    6.710      38.000
2015    5       17    17  53    3.7963   444.9    6.722      38.106
2015    5       17    17  59    3.7989   444.7    6.733      38.215
2015    5       17    18   5    3.8015   444.4    6.744      38.328
2015    5       17    18  11    3.8041   444.2    6.755      38.443
2015    5       17    18  17    3.8067   444.0    6.765      38.561
2015    5       17    18  22    3.8094   443.8    6.775      38.682
2015    5       17    18  28    3.8121   443.5    6.784      38.807
2015    5       17    18  34    3.8148   443.3    6.793      38.935
2015    5       17    18  40    3.8175   443.0    6.802      39.068
2015    5       17    18  46    3.8203   442.8    6.811      39.204
2015    5       17    18  52    3.8231   442.5    6.820      39.345
2015    5       17    18  58    3.8260   442.3    6.828      39.493
2015    5       17    19   3    3.8290   442.0    6.836      39.648
2015    5       17    19   9    3.8320   441.8    6.844      39.811
2015    5       17    19  15    3.8352   441.5    6.851      39.981
2015    5       17    19  21    3.8384   441.2    6.859      40.156
2015    5       17    19  27    3.8418   441.0    6.865      40.336
2015    5       17    19  33    3.8452   440.7    6.872      40.521
2015    5       17    19  38    3.8489   440.5    6.878      40.711
2015    5       17    19  44    3.8527   440.2    6.884      40.901
2015    5       17    19  50    3.8566   440.0    6.890      41.092
2015    5       17    19  56    3.8606   439.7    6.895      41.282
2015    5       17    20   2    3.8647   439.5    6.899      41.471
2015    5       17    20   8    3.8689   439.3    6.903      41.658
2015    5       17    20  13    3.8731   439.0    6.907      41.841
2015    5       17    20  19    3.8773   438.8    6.910      42.018
2015    5       17    20  25    3.8816   438.6    6.912      42.189
2015    5       17    20  31    3.8859   438.3    6.914      42.353
2015    5       17    20  37    3.8902   438.1    6.914      42.510
2015    5       17    20  43    3.8944   437.9    6.915      42.659
2015    5       17    20  48    3.8987   437.7    6.914      42.801
2015    5       17    20  54    3.9030   437.5    6.913      42.935
2015    5       17    21   0    3.9074   437.3    6.911      43.061
2015    5       17    21   6    3.9118   437.2    6.908      43.178
2015    5       17    21  12    3.9161   437.0    6.904      43.286
2015    5       17    21  18    3.9204   436.8    6.900      43.386
2015    5       17    21  23    3.9247   436.7    6.894      43.477
2015    5       17    21  29    3.9290   436.5    6.888      43.559
2015    5       17    21  35    3.9331   436.4    6.882      43.632
2015    5       17    21  41    3.9371   436.3    6.874      43.697
2015    5       17    21  47    3.9411   436.2    6.866      43.753
2015    5       17    21  53    3.9450   436.0    6.857      43.803
2015    5       17    21  59    3.9488   435.9    6.848      43.846
2015    5       17    22   4    3.9525   435.8    6.837      43.882
2015    5       17    22  10    3.9561   435.6    6.826      43.914
2015    5       17    22  16    3.9597   435.5    6.814      43.942
2015    5       17    22  22    3.9633   435.4    6.801      43.967
2015    5       17    22  28    3.9667   435.3    6.787      43.989
2015    5       17    22  34    3.9702   435.1    6.772      44.009
2015    5       17    22  39    3.9735   435.0    6.756      44.025
2015    5       17    22  45    3.9769   434.9    6.740      44.039
2015    5       17    22  51    3.9802   434.7    6.723      44.048
2015    5       17    22  57    3.9835   434.6    6.706      44.054
2015    5       17    23   3    3.9868   434.4    6.689      44.057
2015    5       17    23   9    3.9902   434.3    6.672      44.055
2015    5       17    23  14    3.9935   434.2    6.655      44.049
2015    5       17    23  20    3.9970   434.0    6.638      44.041
2015    5       17    23  26    4.0004   433.9    6.622      44.032
2015    5       17    23  32    4.0040   433.7    6.605      44.022
2015    5       17    23  38    4.0076   433.6    6.588      44.013
2015    5       17    23  44    4.0114   433.4    6.571      44.005
2015    5       17    23  49    4.0151   433.2    6.554      43.999
2015    5       17    23  55    4.0190   433.1    6.537      43.996
2015    5       18     0   1    4.0229   432.9    6.520      43.997
2015    5       18     0   7    4.0270   432.7    6.502      44.002
2015    5       18     0  13    4.0311   432.6    6.484      44.011
2015    5       18     0  19    4.0354   432.4    6.466      44.026
2015    5       18     0  24    4.0397   432.2    6.448      44.046
2015    5       18     0  30    4.0442   432.1    6.430      44.071
2015    5       18     0  36    4.0487   431.9    6.412      44.100
2015    5       18     0  42    4.0534   431.7    6.394      44.134
2015    5       18     0  48    4.0582   431.6    6.377      44.174
2015    5       18     0  54    4.0632   431.4    6.359      44.217
2015    5       18     1   0    4.0682   431.3    6.342      44.262
2015    5       18     1   5    4.0734   431.2    6.325      44.309
2015    5       18     1  11    4.0787   431.0    6.308      44.359
2015    5       18     1  17    4.0841   430.9    6.292      44.409
2015    5       18     1  23    4.0896   430.8    6.276      44.458
2015    5       18     1  29    4.0952   430.6    6.260      44.507
2015    5       18     1  35    4.1008   430.5    6.244      44.554
2015    5       18     1  40    4.1066   430.4    6.229      44.601
2015    5       18     1  46    4.1124   430.3    6.214      44.646
2015    5       18     1  52    4.1183   430.2    6.199      44.690
2015    5       18     1  58    4.1242   430.0    6.184      44.733
2015    5       18     2   4    4.1302   429.9    6.170      44.773
2015    5       18     2  10    4.1361   429.8    6.156      44.812
2015    5       18     2  15    4.1421   429.7    6.142      44.849
2015    5       18     2  21    4.1481   429.6    6.128      44.883
2015    5       18     2  27    4.1541   429.5    6.115      44.914
2015    5       18     2  33    4.1601   429.4    6.101      44.943
2015    5       18     2  39    4.1661   429.3    6.088      44.970
2015    5       18     2  45    4.1721   429.2    6.075      44.995
2015    5       18     2  50    4.1780   429.0    6.062      45.017
2015    5       18     2  56    4.1840   428.9    6.050      45.037
2015    5       18     3   2    4.1899   428.8    6.038      45.055
2015    5       18     3   8    4.1959   428.7    6.026      45.071
2015    5       18     3  14    4.2018   428.6    6.014      45.084
2015    5       18     3  20    4.2077   428.5    6.002      45.095
2015    5       18     3  25    4.2135   428.4    5.990      45.103
2015    5       18     3  31    4.2194   428.3    5.979      45.108
2015    5       18     3  37    4.2252   428.2    5.968      45.111
2015    5       18     3  43    4.2311   428.1    5.957      45.111
2015    5       18     3  49    4.2369   428.0    5.946      45.110
2015    5       18     3  55    4.2427   427.9    5.935      45.105
2015    5       18     4   1    4.2485   427.8    5.924      45.099
2015    5       18     4   6    4.2542   427.7    5.914      45.090
2015    5       18     4  12    4.2599   427.6    5.903      45.079
2015    5       18     4  18    4.2656   427.5    5.893      45.066
2015    5       18     4  24    4.2712   427.4    5.883      45.050
2015    5       18     4  30    4.2767   427.3    5.873      45.033
2015    5       18     4  36    4.2823   427.2    5.863      45.012
2015    5       18     4  41    4.2877   427.1    5.853      44.990
2015    5       18     4  47    4.2931   427.0    5.843      44.965
2015    5       18     4  53    4.2984   426.9    5.833      44.939
2015    5       18     4  59    4.3037   426.8    5.824      44.910
2015    5       18     5   5    4.3089   426.7    5.815      44.881
2015    5       18     5  11    4.3141   426.6    5.806      44.849
2015    5       18     5  16    4.3192   426.5    5.797      44.817
2015    5       18     5  22    4.3243   426.4    5.789      44.784
2015    5       18     5  28    4.3294   426.3    5.781      44.750
2015    5       18     5  34    4.3345   426.2    5.773      44.716
2015    5       18     5  40    4.3396   426.1    5.765      44.681
2015    5       18     5  46    4.3446   426.1    5.758      44.646
2015    5       18     5  51    4.3497   426.0    5.751      44.611
2015    5       18     5  57    4.3548   425.9    5.745      44.577
2015    5       18     6   3    4.3598   425.8    5.738      44.542
2015    5       18     6   9    4.3649   425.7    5.733      44.508
2015    5       18     6  15    4.3700   425.7    5.727      44.473
2015    5       18     6  21    4.3750   425.6    5.722      44.440
2015    5       18     6  26    4.3801   425.5    5.717      44.407
2015    5       18     6  32    4.3851   425.4    5.713      44.373
2015    5       18     6  38    4.3901   425.4    5.709      44.340
2015    5       18     6  44    4.3951   425.3    5.705      44.305
2015    5       18     6  50    4.4000   425.2    5.702      44.269
2015    5       18     6  56    4.4049   425.2    5.699      44.231
2015    5       18     7   2    4.4097   425.1    5.697      44.190
2015    5       18     7   7    4.4145   425.0    5.695      44.146
2015    5       18     7  13    4.4193   425.0    5.694      44.098
2015    5       18     7  19    4.4240   424.9    5.692      44.048
2015    5       18     7  25    4.4287   424.9    5.692      43.994
2015    5       18     7  31    4.4333   424.8    5.691      43.937
2015    5       18     7  37    4.4378   424.8    5.691      43.877
2015    5       18     7  42    4.4424   424.7    5.692      43.814
2015    5       18     7  48    4.4468   424.7    5.693      43.748
2015    5       18     7  54    4.4512   424.7    5.694      43.679
2015    5       18     8   0    4.4556   424.6    5.695      43.608
2015    5       18     8   6    4.4599   424.6    5.697      43.534
2015    5       18     8  12    4.4641   424.6    5.699      43.457
2015    5       18     8  17    4.4683   424.5    5.701      43.378
2015    5       18     8  23    4.4724   424.5    5.704      43.297
2015    5       18     8  29    4.4765   424.5    5.707      43.214
2015    5       18     8  35    4.4805   424.5    5.710      43.129
2015    5       18     8  41    4.4845   424.4    5.714      43.042
2015    5       18     8  47    4.4884   424.4    5.717      42.954
2015    5       18     8  52    4.4923   424.4    5.721      42.864
2015    5       18     8  58    4.4961   424.4    5.726      42.773
2015    5       18     9   4    4.4999   424.3    5.730      42.680
2015    5       18     9  10    4.5036   424.3    5.735      42.586
2015    5       18     9  16    4.5072   424.3    5.740      42.491
2015    5       18     9  22    4.5108   424.3    5.745      42.395
2015    5       18     9  27    4.5144   424.3    5.751      42.298
2015    5       18     9  33    4.5179   424.2    5.757      42.200
2015    5       18     9  39    4.5214   424.2    5.763      42.101
2015    5       18     9  45    4.5248   424.2    5.769      42.002
2015    5       18     9  51    4.5282   424.2    5.776      41.902
2015    5       18     9  57    4.5316   424.2    5.783      41.801
2015    5       18    10   3    4.5349   424.1    5.791      41.699
2015    5       18    10   8    4.5381   424.1    5.799      41.597
2015    5       18    10  14    4.5414   424.1    5.807      41.494
2015    5       18    10  20    4.5446   424.1    5.816      41.391
2015    5       18    10  26    4.5477   424.1    5.825      41.287
2015    5       18    10  32    4.5509   424.0    5.834      41.182
2015    5       18    10  38    4.5540   424.0    5.844      41.077
2015    5       18    10  43    4.5571   424.0    5.855      40.972
2015    5       18    10  49    4.5601   424.0    5.866      40.865
2015    5       18    10  55    4.5632   423.9    5.878      40.759
2015    5       18    11   1    4.5661   423.9    5.890      40.651
2015    5       18    11   7    4.5691   423.9    5.903      40.543
2015    5       18    11  13    4.5720   423.9    5.916      40.435
2015    5       18    11  18    4.5749   423.8    5.930      40.326
2015    5       18    11  24    4.5778   423.8    5.944      40.217
2015    5       18    11  30    4.5807   423.8    5.960      40.107
2015    5       18    11  36    4.5835   423.8    5.976      39.997
2015    5       18    11  42    4.5863   423.8    5.992      39.887
2015    5       18    11  48    4.5891   423.7    6.010      39.776
2015    5       18    11  53    4.5918   423.7    6.028      39.667
2015    5       18    11  59    4.5945   423.7    6.047      39.558
2015    5       18    12   5    4.5972   423.7    6.067      39.449
2015    5       18    12  11    4.5999   423.6    6.088      39.339
2015    5       18    12  17    4.6025   423.6    6.109      39.228
2015    5       18    12  23    4.6052   423.6    6.131      39.117
2015    5       18    12  28    4.6078   423.6    6.154      39.007
2015    5       18    12  34    4.6104   423.6    6.178      38.895
2015    5       18    12  40    4.6129   423.6    6.202      38.783
2015    5       18    12  46    4.6154   423.6    6.226      38.671
2015    5       18    12  52    4.6179   423.6    6.251      38.561
2015    5       18    12  58    4.6204   423.6    6.275      38.452
2015    5       18    13   4    4.6227   423.6    6.300      38.345
2015    5       18    13   9    4.6251   423.6    6.326      38.240
2015    5       18    13  15    4.6274   423.6    6.351      38.136
2015    5       18    13  21    4.6296   423.7    6.376      38.035
2015    5       18    13  27    4.6318   423.7    6.402      37.935
2015    5       18    13  33    4.6339   423.7    6.428      37.837
2015    5       18    13  39    4.6360   423.7    6.453      37.740
2015    5       18    13  44    4.6380   423.7    6.479      37.646
2015    5       18    13  50    4.6400   423.7    6.505      37.554
2015    5       18    13  56    4.6420   423.7    6.531      37.466
2015    5       18    14   2    4.6440   423.7    6.556      37.381
2015    5       18    14   8    4.6459   423.7    6.582      37.299
2015    5       18    14  14    4.6479   423.8    6.607      37.220
2015    5       18    14  19    4.6498   423.8    6.632      37.145
2015    5       18    14  25    4.6517   423.8    6.657      37.074
2015    5       18    14  31    4.6536   423.8    6.681      37.007
2015    5       18    14  37    4.6555   423.8    6.705      36.943
2015    5       18    14  43    4.6574   423.8    6.729      36.883
2015    5       18    14  49    4.6594   423.8    6.752      36.825
2015    5       18    14  54    4.6613   423.8    6.776      36.770
2015    5       18    15   0    4.6633   423.8    6.799      36.718
2015    5       18    15   6    4.6652   423.8    6.821      36.669
2015    5       18    15  12    4.6672   423.8    6.844      36.623
2015    5       18    15  18    4.6693   423.8    6.866      36.578
2015    5       18    15  24    4.6713   423.8    6.888      36.537
2015    5       18    15  29    4.6734   423.8    6.909      36.498
2015    5       18    15  35    4.6755   423.8    6.931      36.461
2015    5       18    15  41    4.6777   423.8    6.952      36.426
2015    5       18    15  47    4.6799   423.8    6.973      36.395
2015    5       18    15  53    4.6821   423.8    6.994      36.365
2015    5       18    15  59    4.6844   423.8    7.014      36.338
2015    5       18    16   5    4.6867   423.8    7.034      36.314
2015    5       18    16  10    4.6891   423.8    7.055      36.292
2015    5       18    16  16    4.6916   423.8    7.074      36.272
2015    5       18    16  22    4.6941   423.8    7.094      36.255
2015    5       18    16  28    4.6967   423.8    7.114      36.240
2015    5       18    16  34    4.6993   423.8    7.133      36.228
2015    5       18    16  40    4.7021   423.8    7.152      36.218
2015    5       18    16  45    4.7049   423.8    7.171      36.211
2015    5       18    16  51    4.7077   423.8    7.190      36.207
2015    5       18    16  57    4.7107   423.8    7.208      36.205
2015    5       18    17   3    4.7137   423.8    7.227      36.206
2015    5       18    17   9    4.7169   423.8    7.245      36.211
2015    5       18    17  15    4.7201   423.8    7.263      36.218
2015    5       18    17  20    4.7234   423.8    7.281      36.228
2015    5       18    17  26    4.7268   423.8    7.299      36.241
2015    5       18    17  32    4.7304   423.8    7.316      36.258
2015    5       18    17  38    4.7340   423.8    7.334      36.277
2015    5       18    17  44    4.7378   423.8    7.351      36.300
2015    5       18    17  50    4.7417   423.8    7.368      36.326
2015    5       18    17  55    4.7458   423.8    7.385      36.355
2015    5       18    18   1    4.7499   423.8    7.402      36.388
2015    5       18    18   7    4.7542   423.8    7.418      36.423
2015    5       18    18  13    4.7586   423.8    7.435      36.462
2015    5       18    18  19    4.7632   423.8    7.451      36.503
2015    5       18    18  25    4.7678   423.8    7.467      36.547
2015    5       18    18  30    4.7727   423.8    7.483      36.594
2015    5       18    18  36    4.7776   423.8    7.499      36.644
2015    5       18    18  42    4.7827   423.8    7.514      36.696
2015    5       18    18  48    4.7879   423.8    7.530      36.751
2015    5       18    18  54    4.7933   423.8    7.545      36.807
2015    5       18    19   0    4.7988   423.8    7.560      36.865
2015    5       18    19   6    4.8044   423.8    7.576      36.925
2015    5       18    19  11    4.8102   423.8    7.591      36.987
2015    5       18    19  17    4.8161   423.8    7.605      37.050
2015    5       18    19  23    4.8221   423.8    7.620      37.115
2015    5       18    19  29    4.8282   423.8    7.635      37.180
2015    5       18    19  35    4.8345   423.8    7.650      37.246
2015    5       18    19  41    4.8409   423.8    7.664      37.313
2015    5       18    19  46    4.8473   423.8    7.679      37.380
2015    5       18    19  52    4.8540   423.8    7.693      37.447
2015    5       18    19  58    4.8607   423.8    7.708      37.514
2015    5       18    20   4    4.8676   423.8    7.722      37.582
2015    5       18    20  10    4.8746   423.7    7.737      37.650
2015    5       18    20  16    4.8818   423.7    7.751      37.717
2015    5       18    20  21    4.8890   423.7    7.766      37.784
2015    5       18    20  27    4.8964   423.7    7.781      37.852
2015    5       18    20  33    4.9039   423.7    7.796      37.919
2015    5       18    20  39    4.9116   423.7    7.811      37.987
2015    5       18    20  45    4.9193   423.7    7.826      38.055
2015    5       18    20  51    4.9272   423.7    7.841      38.123
2015    5       18    20  56    4.9353   423.7    7.856      38.191
2015    5       18    21   2    4.9435   423.7    7.871      38.258
2015    5       18    21   8    4.9517   423.7    7.885      38.325
2015    5       18    21  14    4.9600   423.7    7.900      38.391
2015    5       18    21  20    4.9684   423.7    7.915      38.456
2015    5       18    21  26    4.9768   423.7    7.930      38.520
2015    5       18    21  31    4.9852   423.7    7.945      38.584
2015    5       18    21  37    4.9935   423.7    7.959      38.647
2015    5       18    21  43    5.0018   423.7    7.974      38.710
2015    5       18    21  49    5.0101   423.7    7.988      38.773
2015    5       18    21  55    5.0182   423.7    8.002      38.835
2015    5       18    22   1    5.0263   423.8    8.016      38.897
2015    5       18    22   7    5.0344   423.8    8.029      38.959
2015    5       18    22  12    5.0423   423.8    8.042      39.019
2015    5       18    22  18    5.0503   423.9    8.055      39.078
2015    5       18    22  24    5.0581   423.9    8.068      39.137
2015    5       18    22  30    5.0658   423.9    8.080      39.195
2015    5       18    22  36    5.0735   423.9    8.092      39.251
2015    5       18    22  42    5.0810   424.0    8.104      39.307
2015    5       18    22  47    5.0885   424.0    8.115      39.362
2015    5       18    22  53    5.0960   424.1    8.126      39.417
2015    5       18    22  59    5.1033   424.1    8.136      39.470
2015    5       18    23   5    5.1106   424.1    8.147      39.523
2015    5       18    23  11    5.1179   424.2    8.157      39.575
2015    5       18    23  17    5.1251   424.2    8.166      39.626
2015    5       18    23  22    5.1322   424.2    8.176      39.677
2015    5       18    23  28    5.1393   424.3    8.185      39.727
2015    5       18    23  34    5.1464   424.3    8.194      39.777
2015    5       18    23  40    5.1534   424.3    8.203      39.826
2015    5       18    23  46    5.1603   424.4    8.212      39.874
2015    5       18    23  52    5.1672   424.4    8.220      39.922
2015    5       18    23  57    5.1741   424.5    8.228      39.970
2015    5       19     0   3    5.1809   424.5    8.236      40.017
2015    5       19     0   9    5.1876   424.6    8.244      40.063
2015    5       19     0  15    5.1943   424.6    8.251      40.109
2015    5       19     0  21    5.2009   424.7    8.259      40.155
2015    5       19     0  27    5.2075   424.7    8.266      40.200
2015    5       19     0  33    5.2140   424.8    8.273      40.245
2015    5       19     0  38    5.2204   424.8    8.280      40.290
2015    5       19     0  44    5.2268   424.9    8.286      40.334
2015    5       19     0  50    5.2331   424.9    8.293      40.377
2015    5       19     0  56    5.2393   425.0    8.299      40.421
2015    5       19     1   2    5.2455   425.0    8.305      40.464
2015    5       19     1   8    5.2516   425.1    8.311      40.506
2015    5       19     1  13    5.2576   425.1    8.317      40.548
2015    5       19     1  19    5.2636   425.2    8.323      40.590
2015    5       19     1  25    5.2694   425.3    8.328      40.632
2015    5       19     1  31    5.2752   425.4    8.333      40.673
2015    5       19     1  37    5.2810   425.4    8.338      40.713
2015    5       19     1  43    5.2866   425.5    8.343      40.754
2015    5       19     1  48    5.2922   425.6    8.348      40.794
2015    5       19     1  54    5.2977   425.6    8.352      40.834
2015    5       19     2   0    5.3032   425.7    8.357      40.873
2015    5       19     2   6    5.3085   425.8    8.361      40.912
2015    5       19     2  12    5.3138   425.9    8.365      40.951
2015    5       19     2  18    5.3190   426.0    8.369      40.990
2015    5       19     2  23    5.3241   426.1    8.373      41.028
2015    5       19     2  29    5.3292   426.2    8.376      41.067
2015    5       19     2  35    5.3341   426.3    8.380      41.105
2015    5       19     2  41    5.3390   426.4    8.383      41.143
2015    5       19     2  47    5.3438   426.4    8.386      41.181
2015    5       19     2  53    5.3486   426.6    8.389      41.219
2015    5       19     2  58    5.3532   426.7    8.392      41.257
2015    5       19     3   4    5.3578   426.8    8.395      41.294
2015    5       19     3  10    5.3623   426.9    8.398      41.332
2015    5       19     3  16    5.3667   427.0    8.400      41.369
2015    5       19     3  22    5.3711   427.1    8.403      41.407
2015    5       19     3  28    5.3753   427.2    8.405      41.444
2015    5       19     3  34    5.3795   427.3    8.407      41.482
2015    5       19     3  39    5.3836   427.4    8.409      41.519
2015    5       19     3  45    5.3876   427.6    8.411      41.556
2015    5       19     3  51    5.3916   427.7    8.413      41.594
2015    5       19     3  57    5.3954   427.8    8.415      41.631
2015    5       19     4   3    5.3992   427.9    8.417      41.668
2015    5       19     4   9    5.4029   428.1    8.419      41.705
2015    5       19     4  14    5.4066   428.2    8.420      41.742
2015    5       19     4  20    5.4101   428.3    8.422      41.778
2015    5       19     4  26    5.4136   428.4    8.424      41.815
2015    5       19     4  32    5.4171   428.6    8.425      41.852
2015    5       19     4  38    5.4204   428.7    8.427      41.889
2015    5       19     4  44    5.4237   428.8    8.428      41.926
2015    5       19     4  49    5.4269   429.0    8.430      41.964
2015    5       19     4  55    5.4300   429.1    8.431      42.003
2015    5       19     5   1    5.4330   429.3    8.432      42.043
2015    5       19     5   7    5.4359   429.4    8.433      42.083
2015    5       19     5  13    5.4387   429.6    8.433      42.124
2015    5       19     5  19    5.4415   429.7    8.434      42.166
2015    5       19     5  24    5.4441   429.9    8.434      42.207
2015    5       19     5  30    5.4466   430.0    8.434      42.248
2015    5       19     5  36    5.4489   430.2    8.433      42.288
2015    5       19     5  42    5.4512   430.4    8.432      42.328
2015    5       19     5  48    5.4533   430.5    8.431      42.367
2015    5       19     5  54    5.4553   430.7    8.429      42.405
2015    5       19     5  59    5.4572   430.9    8.427      42.443
2015    5       19     6   5    5.4590   431.0    8.425      42.479
2015    5       19     6  11    5.4607   431.2    8.423      42.515
2015    5       19     6  17    5.4623   431.4    8.420      42.550
2015    5       19     6  23    5.4638   431.5    8.416      42.584
2015    5       19     6  29    5.4652   431.7    8.413      42.617
2015    5       19     6  35    5.4665   431.9    8.409      42.650
2015    5       19     6  40    5.4677   432.0    8.404      42.682
2015    5       19     6  46    5.4688   432.2    8.400      42.713
2015    5       19     6  52    5.4699   432.4    8.395      42.743
2015    5       19     6  58    5.4710   432.6    8.390      42.773
2015    5       19     7   4    5.4719   432.7    8.385      42.802
2015    5       19     7  10    5.4728   432.9    8.379      42.830
2015    5       19     7  15    5.4737   433.1    8.374      42.858
2015    5       19     7  21    5.4745   433.2    8.368      42.885
2015    5       19     7  27    5.4753   433.4    8.362      42.911
2015    5       19     7  33    5.4761   433.6    8.356      42.938
2015    5       19     7  39    5.4768   433.7    8.349      42.963
2015    5       19     7  45    5.4775   433.9    8.343      42.989
2015    5       19     7  50    5.4782   434.1    8.336      43.014
2015    5       19     7  56    5.4789   434.3    8.329      43.038
2015    5       19     8   2    5.4795   434.4    8.322      43.063
2015    5       19     8   8    5.4801   434.6    8.315      43.087
2015    5       19     8  14    5.4807   434.8    8.308      43.110
2015    5       19     8  20    5.4813   434.9    8.301      43.134
2015    5       19     8  25    5.4820   435.1    8.294      43.158
2015    5       19     8  31    5.4826   435.3    8.286      43.181
2015    5       19     8  37    5.4832   435.4    8.279      43.204
2015    5       19     8  43    5.4838   435.6    8.272      43.227
2015    5       19     8  49    5.4844   435.8    8.264      43.251
2015    5       19     8  55    5.4851   436.0    8.257      43.273
2015    5       19     9   0    5.4857   436.1    8.250      43.297
2015    5       19     9   6    5.4864   436.3    8.242      43.320
2015    5       19     9  12    5.4871   436.5    8.235      43.343
2015    5       19     9  18    5.4878   436.6    8.227      43.366
2015    5       19     9  24    5.4886   436.8    8.220      43.389
2015    5       19     9  30    5.4893   437.0    8.213      43.412
2015    5       19     9  36    5.4901   437.1    8.206      43.436
2015    5       19     9  41    5.4909   437.3    8.198      43.460
2015    5       19     9  47    5.4918   437.5    8.191      43.485
2015    5       19     9  53    5.4927   437.7    8.184      43.510
2015    5       19     9  59    5.4935   437.8    8.177      43.535
2015    5       19    10   5    5.4945   438.0    8.170      43.560
2015    5       19    10  11    5.4954   438.2    8.163      43.587
2015    5       19    10  16    5.4964   438.4    8.157      43.613
2015    5       19    10  22    5.4974   438.5    8.150      43.640
2015    5       19    10  28    5.4984   438.7    8.144      43.667
2015    5       19    10  34    5.4995   438.9    8.137      43.696
2015    5       19    10  40    5.5006   439.1    8.131      43.724
2015    5       19    10  46    5.5017   439.2    8.125      43.753
2015    5       19    10  51    5.5029   439.4    8.120      43.783
2015    5       19    10  57    5.5041   439.6    8.114      43.814
2015    5       19    11   3    5.5053   439.8    8.109      43.845
2015    5       19    11   9    5.5067   440.0    8.104      43.878
2015    5       19    11  15    5.5080   440.1    8.100      43.911
2015    5       19    11  21    5.5095   440.3    8.096      43.945
2015    5       19    11  26    5.5109   440.5    8.092      43.980
2015    5       19    11  32    5.5125   440.7    8.088      44.016
2015    5       19    11  38    5.5140   440.9    8.085      44.055
2015    5       19    11  44    5.5157   441.0    8.082      44.095
2015    5       19    11  50    5.5174   441.2    8.079      44.138
2015    5       19    11  56    5.5192   441.4    8.076      44.182
2015    5       19    12   1    5.5210   441.6    8.073      44.228
2015    5       19    12   7    5.5229   441.8    8.070      44.276
2015    5       19    12  13    5.5248   442.0    8.068      44.324
2015    5       19    12  19    5.5267   442.2    8.065      44.373
2015    5       19    12  25    5.5286   442.4    8.062      44.422
2015    5       19    12  31    5.5305   442.6    8.059      44.470
2015    5       19    12  37    5.5324   442.8    8.056      44.519
2015    5       19    12  42    5.5342   443.0    8.053      44.567
2015    5       19    12  48    5.5361   443.2    8.050      44.615
2015    5       19    12  54    5.5379   443.4    8.046      44.664
2015    5       19    13   0    5.5397   443.6    8.043      44.711
2015    5       19    13   6    5.5415   443.8    8.039      44.758
2015    5       19    13  12    5.5432   444.0    8.036      44.805
2015    5       19    13  17    5.5450   444.2    8.033      44.852
2015    5       19    13  23    5.5468   444.3    8.029      44.898
2015    5       19    13  29    5.5485   444.5    8.025      44.944
2015    5       19    13  35    5.5502   444.7    8.022      44.989
2015    5       19    13  41    5.5520   444.9    8.018      45.034
2015    5       19    13  47    5.5537   445.1    8.015      45.079
2015    5       19    13  52    5.5555   445.3    8.012      45.124
2015    5       19    13  58    5.5572   445.5    8.008      45.169
2015    5       19    14   4    5.5589   445.6    8.005      45.214
2015    5       19    14  10    5.5606   445.8    8.001      45.259
2015    5       19    14  16    5.5623   446.0    7.997      45.304
2015    5       19    14  22    5.5640   446.2    7.993      45.349
2015    5       19    14  27    5.5658   446.4    7.989      45.394
2015    5       19    14  33    5.5675   446.6    7.985      45.438
2015    5       19    14  39    5.5692   446.8    7.980      45.481
2015    5       19    14  45    5.5709   447.0    7.975      45.524
2015    5       19    14  51    5.5725   447.2    7.970      45.566
2015    5       19    14  57    5.5742   447.4    7.965      45.608
2015    5       19    15   2    5.5759   447.6    7.959      45.649
2015    5       19    15   8    5.5775   447.8    7.954      45.689
2015    5       19    15  14    5.5791   448.0    7.948      45.729
2015    5       19    15  20    5.5807   448.2    7.942      45.769
2015    5       19    15  26    5.5822   448.4    7.935      45.808
2015    5       19    15  32    5.5837   448.6    7.929      45.846
2015    5       19    15  38    5.5852   448.8    7.922      45.884
2015    5       19    15  43    5.5867   449.0    7.916      45.922
2015    5       19    15  49    5.5882   449.2    7.909      45.959
2015    5       19    15  55    5.5896   449.4    7.902      45.996
2015    5       19    16   1    5.5911   449.6    7.895      46.033
2015    5       19    16   7    5.5925   449.8    7.888      46.069
2015    5       19    16  13    5.5939   450.1    7.881      46.106
2015    5       19    16  18    5.5954   450.3    7.874      46.143
2015    5       19    16  24    5.5969   450.5    7.868      46.179
2015    5       19    16  30    5.5984   450.7    7.861      46.216
2015    5       19    16  36    5.6000   450.9    7.855      46.254
2015    5       19    16  42    5.6016   451.1    7.848      46.292
2015    5       19    16  48    5.6033   451.3    7.842      46.331
2015    5       19    16  53    5.6051   451.5    7.837      46.371
2015    5       19    16  59    5.6069   451.7    7.831      46.410
2015    5       19    17   5    5.6089   451.9    7.826      46.453
2015    5       19    17  11    5.6110   452.1    7.821      46.498
2015    5       19    17  17    5.6131   452.4    7.817      46.545
2015    5       19    17  23    5.6152   452.6    7.812      46.593
2015    5       19    17  28    5.6173   452.8    7.808      46.644
2015    5       19    17  34    5.6194   453.1    7.803      46.695
2015    5       19    17  40    5.6215   453.3    7.798      46.746
2015    5       19    17  46    5.6235   453.6    7.793      46.796
2015    5       19    17  52    5.6254   453.8    7.787      46.845
2015    5       19    17  58    5.6272   454.1    7.782      46.893
2015    5       19    18   4    5.6290   454.3    7.776      46.940
2015    5       19    18   9    5.6307   454.6    7.770      46.986
2015    5       19    18  15    5.6324   454.8    7.764      47.029
2015    5       19    18  21    5.6340   455.0    7.758      47.072
2015    5       19    18  27    5.6355   455.3    7.752      47.114
2015    5       19    18  33    5.6370   455.5    7.746      47.156
2015    5       19    18  39    5.6383   455.7    7.740      47.199
2015    5       19    18  44    5.6397   455.9    7.734      47.242
2015    5       19    18  50    5.6409   456.2    7.728      47.288
2015    5       19    18  56    5.6421   456.4    7.721      47.335
2015    5       19    19   2    5.6431   456.7    7.715      47.383
2015    5       19    19   8    5.6441   456.9    7.708      47.432
2015    5       19    19  14    5.6450   457.1    7.701      47.480
2015    5       19    19  19    5.6458   457.4    7.693      47.528
2015    5       19    19  25    5.6464   457.6    7.686      47.574
2015    5       19    19  31    5.6471   457.9    7.678      47.620
2015    5       19    19  37    5.6476   458.1    7.669      47.664
2015    5       19    19  43    5.6480   458.3    7.661      47.708
2015    5       19    19  49    5.6484   458.6    7.652      47.750
2015    5       19    19  54    5.6486   458.8    7.642      47.791
2015    5       19    20   0    5.6489   459.1    7.633      47.831
2015    5       19    20   6    5.6490   459.3    7.623      47.869
2015    5       19    20  12    5.6491   459.6    7.612      47.906
2015    5       19    20  18    5.6491   459.8    7.602      47.941
2015    5       19    20  24    5.6490   460.0    7.591      47.975
2015    5       19    20  29    5.6490   460.3    7.580      48.008
2015    5       19    20  35    5.6488   460.5    7.569      48.040
2015    5       19    20  41    5.6486   460.8    7.558      48.070
2015    5       19    20  47    5.6484   461.0    7.547      48.100
2015    5       19    20  53    5.6481   461.2    7.535      48.129
2015    5       19    20  59    5.6478   461.5    7.523      48.156
2015    5       19    21   5    5.6475   461.7    7.511      48.183
2015    5       19    21  10    5.6470   462.0    7.499      48.208
2015    5       19    21  16    5.6466   462.2    7.486      48.232
2015    5       19    21  22    5.6460   462.5    7.474      48.256
2015    5       19    21  28    5.6455   462.7    7.461      48.278
2015    5       19    21  34    5.6448   463.0    7.448      48.300
2015    5       19    21  40    5.6441   463.3    7.435      48.321
2015    5       19    21  45    5.6433   463.5    7.421      48.342
2015    5       19    21  51    5.6425   463.8    7.407      48.364
2015    5       19    21  57    5.6416   464.1    7.393      48.386
2015    5       19    22   3    5.6407   464.4    7.379      48.407
2015    5       19    22   9    5.6397   464.7    7.364      48.428
2015    5       19    22  15    5.6386   465.0    7.349      48.449
2015    5       19    22  20    5.6373   465.4    7.333      48.472
2015    5       19    22  26    5.6358   465.7    7.316      48.490
2015    5       19    22  32    5.6340   466.0    7.298      48.502
2015    5       19    22  38    5.6320   466.3    7.280      48.511
2015    5       19    22  44    5.6299   466.6    7.262      48.517
2015    5       19    22  50    5.6276   466.9    7.244      48.520
2015    5       19    22  55    5.6252   467.1    7.225      48.519
2015    5       19    23   1    5.6227   467.4    7.207      48.514
2015    5       19    23   7    5.6202   467.6    7.190      48.510
2015    5       19    23  13    5.6179   467.8    7.173      48.507
2015    5       19    23  19    5.6156   468.1    7.156      48.506
2015    5       19    23  25    5.6134   468.3    7.140      48.506
2015    5       19    23  30    5.6112   468.5    7.125      48.507
2015    5       19    23  36    5.6091   468.7    7.110      48.508
2015    5       19    23  42    5.6071   468.9    7.095      48.510
2015    5       19    23  48    5.6052   469.1    7.082      48.514
2015    5       19    23  54    5.6033   469.3    7.068      48.519
2015    5       20     0   0    5.6016   469.5    7.056      48.526
2015    5       20     0   6    5.6000   469.7    7.044      48.533
2015    5       20     0  11    5.5985   469.8    7.033      48.542
2015    5       20     0  17    5.5971   470.0    7.022      48.554
2015    5       20     0  23    5.5959   470.2    7.012      48.570
2015    5       20     0  29    5.5948   470.4    7.002      48.590
2015    5       20     0  35    5.5937   470.6    6.992      48.614
2015    5       20     0  41    5.5927   470.9    6.983      48.644
2015    5       20     0  46    5.5916   471.1    6.973      48.677
2015    5       20     0  52    5.5904   471.4    6.963      48.711
2015    5       20     0  58    5.5892   471.7    6.953      48.745
2015    5       20     1   4    5.5879   472.0    6.942      48.778
2015    5       20     1  10    5.5864   472.3    6.932      48.810
2015    5       20     1  16    5.5847   472.5    6.921      48.839
2015    5       20     1  21    5.5828   472.8    6.909      48.864
2015    5       20     1  27    5.5808   473.0    6.897      48.885
2015    5       20     1  33    5.5786   473.3    6.885      48.904
2015    5       20     1  39    5.5763   473.5    6.873      48.919
2015    5       20     1  45    5.5739   473.8    6.860      48.933
2015    5       20     1  51    5.5714   474.0    6.847      48.945
2015    5       20     1  56    5.5688   474.3    6.834      48.955
2015    5       20     2   2    5.5661   474.5    6.821      48.964
2015    5       20     2   8    5.5634   474.7    6.807      48.972
2015    5       20     2  14    5.5606   475.0    6.794      48.979
2015    5       20     2  20    5.5577   475.2    6.780      48.984
2015    5       20     2  26    5.5548   475.4    6.767      48.989
2015    5       20     2  31    5.5519   475.6    6.753      48.992
2015    5       20     2  37    5.5489   475.8    6.740      48.995
2015    5       20     2  43    5.5459   476.0    6.727      48.996
2015    5       20     2  49    5.5428   476.2    6.713      48.997
2015    5       20     2  55    5.5398   476.4    6.700      48.997
2015    5       20     3   1    5.5367   476.6    6.687      48.997
2015    5       20     3   7    5.5336   476.9    6.674      48.997
2015    5       20     3  12    5.5305   477.1    6.660      48.996
2015    5       20     3  18    5.5273   477.3    6.647      48.995
2015    5       20     3  24    5.5242   477.5    6.634      48.992
2015    5       20     3  30    5.5210   477.7    6.621      48.989
2015    5       20     3  36    5.5178   477.9    6.608      48.984
2015    5       20     3  42    5.5146   478.1    6.594      48.977
2015    5       20     3  47    5.5114   478.4    6.581      48.969
2015    5       20     3  53    5.5081   478.6    6.568      48.961
2015    5       20     3  59    5.5048   478.8    6.555      48.950
2015    5       20     4   5    5.5015   479.0    6.541      48.938
2015    5       20     4  11    5.4980   479.2    6.528      48.926
2015    5       20     4  17    5.4946   479.5    6.515      48.912
2015    5       20     4  22    5.4911   479.7    6.501      48.897
2015    5       20     4  28    5.4874   479.9    6.488      48.881
2015    5       20     4  34    5.4837   480.1    6.474      48.864
2015    5       20     4  40    5.4800   480.3    6.460      48.846
2015    5       20     4  46    5.4761   480.5    6.447      48.827
2015    5       20     4  52    5.4722   480.7    6.433      48.808
2015    5       20     4  57    5.4682   481.0    6.420      48.788
2015    5       20     5   3    5.4642   481.2    6.406      48.767
2015    5       20     5   9    5.4600   481.4    6.392      48.747
2015    5       20     5  15    5.4559   481.7    6.378      48.728
2015    5       20     5  21    5.4518   481.9    6.364      48.709
2015    5       20     5  27    5.4476   482.2    6.349      48.689
2015    5       20     5  33    5.4433   482.4    6.334      48.669
2015    5       20     5  38    5.4390   482.7    6.319      48.649
2015    5       20     5  44    5.4346   483.0    6.304      48.631
2015    5       20     5  50    5.4300   483.3    6.287      48.609
2015    5       20     5  56    5.4252   483.5    6.270      48.581
2015    5       20     6   2    5.4202   483.8    6.253      48.547
2015    5       20     6   8    5.4150   484.0    6.235      48.510
2015    5       20     6  13    5.4098   484.2    6.218      48.469
2015    5       20     6  19    5.4045   484.4    6.200      48.426
2015    5       20     6  25    5.3992   484.6    6.184      48.377
2015    5       20     6  31    5.3938   484.8    6.168      48.328
2015    5       20     6  37    5.3887   484.9    6.152      48.281
2015    5       20     6  43    5.3836   485.0    6.138      48.236
2015    5       20     6  48    5.3787   485.2    6.124      48.195
2015    5       20     6  54    5.3738   485.3    6.111      48.156
2015    5       20     7   0    5.3691   485.4    6.099      48.119
2015    5       20     7   6    5.3645   485.5    6.088      48.083
2015    5       20     7  12    5.3600   485.6    6.077      48.050
2015    5       20     7  18    5.3557   485.7    6.068      48.021
2015    5       20     7  23    5.3514   485.8    6.059      47.995
2015    5       20     7  29    5.3473   485.8    6.051      47.972
2015    5       20     7  35    5.3433   485.9    6.043      47.950
2015    5       20     7  41    5.3394   486.0    6.035      47.931
2015    5       20     7  47    5.3356   486.1    6.028      47.914
2015    5       20     7  53    5.3319   486.2    6.021      47.899
2015    5       20     7  58    5.3283   486.2    6.014      47.887
2015    5       20     8   4    5.3247   486.4    6.007      47.877
2015    5       20     8  10    5.3212   486.5    6.000      47.871
2015    5       20     8  16    5.3177   486.6    5.993      47.866
2015    5       20     8  22    5.3142   486.7    5.986      47.862
2015    5       20     8  28    5.3106   486.9    5.978      47.858
2015    5       20     8  34    5.3070   487.0    5.971      47.855
2015    5       20     8  39    5.3033   487.2    5.964      47.852
2015    5       20     8  45    5.2995   487.3    5.956      47.846
2015    5       20     8  51    5.2957   487.4    5.949      47.837
2015    5       20     8  57    5.2918   487.5    5.941      47.826
2015    5       20     9   3    5.2878   487.6    5.933      47.813
2015    5       20     9   9    5.2837   487.8    5.925      47.799
2015    5       20     9  14    5.2797   487.9    5.917      47.784
2015    5       20     9  20    5.2755   488.0    5.908      47.769
2015    5       20     9  26    5.2713   488.1    5.900      47.752
2015    5       20     9  32    5.2671   488.3    5.891      47.735
2015    5       20     9  38    5.2628   488.4    5.882      47.717
2015    5       20     9  44    5.2585   488.5    5.874      47.699
2015    5       20     9  49    5.2542   488.6    5.865      47.679
2015    5       20     9  55    5.2499   488.7    5.856      47.659
2015    5       20    10   1    5.2455   488.8    5.848      47.638
2015    5       20    10   7    5.2411   488.9    5.840      47.615
2015    5       20    10  13    5.2367   489.0    5.831      47.593
2015    5       20    10  19    5.2324   489.1    5.823      47.571
2015    5       20    10  24    5.2280   489.2    5.815      47.548
2015    5       20    10  30    5.2236   489.3    5.806      47.526
2015    5       20    10  36    5.2192   489.4    5.798      47.503
2015    5       20    10  42    5.2148   489.5    5.790      47.480
2015    5       20    10  48    5.2104   489.6    5.782      47.457
2015    5       20    10  54    5.2060   489.7    5.774      47.432
2015    5       20    10  59    5.2016   489.8    5.766      47.407
2015    5       20    11   5    5.1973   489.9    5.758      47.381
2015    5       20    11  11    5.1929   490.0    5.750      47.354
2015    5       20    11  17    5.1885   490.2    5.742      47.326
2015    5       20    11  23    5.1841   490.3    5.735      47.298
2015    5       20    11  29    5.1797   490.4    5.727      47.268
2015    5       20    11  35    5.1752   490.5    5.719      47.238
2015    5       20    11  40    5.1708   490.6    5.711      47.207
2015    5       20    11  46    5.1663   490.7    5.703      47.176
2015    5       20    11  52    5.1617   490.7    5.695      47.144
2015    5       20    11  58    5.1571   490.8    5.687      47.112
2015    5       20    12   4    5.1525   490.9    5.679      47.079
2015    5       20    12  10    5.1479   491.0    5.671      47.046
2015    5       20    12  15    5.1433   491.1    5.663      47.013
2015    5       20    12  21    5.1386   491.2    5.655      46.980
2015    5       20    12  27    5.1340   491.3    5.647      46.946
2015    5       20    12  33    5.1294   491.3    5.639      46.912
2015    5       20    12  39    5.1247   491.4    5.631      46.878
2015    5       20    12  45    5.1202   491.5    5.624      46.844
2015    5       20    12  50    5.1156   491.6    5.616      46.810
2015    5       20    12  56    5.1111   491.6    5.608      46.776
2015    5       20    13   2    5.1066   491.7    5.601      46.741
2015    5       20    13   8    5.1022   491.7    5.594      46.707
2015    5       20    13  14    5.0978   491.8    5.586      46.673
2015    5       20    13  20    5.0935   491.9    5.579      46.639
2015    5       20    13  25    5.0892   491.9    5.573      46.606
2015    5       20    13  31    5.0850   491.9    5.566      46.573
2015    5       20    13  37    5.0808   492.0    5.560      46.540
2015    5       20    13  43    5.0768   492.0    5.554      46.509
2015    5       20    13  49    5.0728   492.1    5.548      46.478
2015    5       20    13  55    5.0689   492.1    5.542      46.449
2015    5       20    14   0    5.0650   492.1    5.537      46.421
2015    5       20    14   6    5.0612   492.1    5.533      46.394
2015    5       20    14  12    5.0575   492.1    5.529      46.370
2015    5       20    14  18    5.0538   492.1    5.525      46.347
2015    5       20    14  24    5.0503   492.2    5.521      46.327
2015    5       20    14  30    5.0468   492.2    5.519      46.307
2015    5       20    14  36    5.0433   492.2    5.516      46.291
2015    5       20    14  41    5.0400   492.2    5.514      46.277
2015    5       20    14  47    5.0367   492.2    5.512      46.266
2015    5       20    14  53    5.0335   492.2    5.511      46.257
2015    5       20    14  59    5.0304   492.2    5.509      46.250
2015    5       20    15   5    5.0274   492.2    5.508      46.243
2015    5       20    15  11    5.0244   492.3    5.506      46.238
2015    5       20    15  16    5.0214   492.3    5.505      46.234
2015    5       20    15  22    5.0184   492.3    5.503      46.229
2015    5       20    15  28    5.0155   492.3    5.502      46.223
2015    5       20    15  34    5.0126   492.4    5.500      46.216
2015    5       20    15  40    5.0096   492.4    5.498      46.207
2015    5       20    15  46    5.0066   492.4    5.496      46.198
2015    5       20    15  51    5.0036   492.4    5.493      46.188
2015    5       20    15  57    5.0006   492.5    5.491      46.177
2015    5       20    16   3    4.9975   492.5    5.488      46.165
2015    5       20    16   9    4.9945   492.5    5.485      46.152
2015    5       20    16  15    4.9914   492.5    5.483      46.138
2015    5       20    16  21    4.9883   492.5    5.479      46.123
2015    5       20    16  26    4.9852   492.6    5.476      46.107
2015    5       20    16  32    4.9821   492.6    5.473      46.090
2015    5       20    16  38    4.9789   492.6    5.470      46.073
2015    5       20    16  44    4.9758   492.6    5.466      46.056
2015    5       20    16  50    4.9727   492.6    5.463      46.038
2015    5       20    16  56    4.9695   492.7    5.459      46.019
2015    5       20    17   1    4.9664   492.7    5.456      46.000
2015    5       20    17   7    4.9633   492.7    5.452      45.980
2015    5       20    17  13    4.9601   492.7    5.449      45.960
2015    5       20    17  19    4.9570   492.7    5.445      45.940
2015    5       20    17  25    4.9539   492.8    5.441      45.920
2015    5       20    17  31    4.9508   492.8    5.438      45.899
2015    5       20    17  37    4.9477   492.8    5.434      45.878
2015    5       20    17  42    4.9446   492.8    5.430      45.856
2015    5       20    17  48    4.9416   492.8    5.426      45.835
2015    5       20    17  54    4.9385   492.8    5.422      45.813
2015    5       20    18   0    4.9354   492.8    5.418      45.791
2015    5       20    18   6    4.9324   492.9    5.415      45.768
2015    5       20    18  12    4.9293   492.9    5.411      45.746
2015    5       20    18  17    4.9263   492.9    5.407      45.723
2015    5       20    18  23    4.9233   492.9    5.403      45.700
2015    5       20    18  29    4.9202   492.9    5.399      45.676
2015    5       20    18  35    4.9172   492.9    5.395      45.653
2015    5       20    18  41    4.9142   492.9    5.391      45.629
2015    5       20    18  47    4.9112   492.9    5.387      45.605
2015    5       20    18  52    4.9082   493.0    5.382      45.581
2015    5       20    18  58    4.9052   493.0    5.378      45.557
2015    5       20    19   4    4.9022   493.0    5.374      45.532
2015    5       20    19  10    4.8993   493.0    5.370      45.507
2015    5       20    19  16    4.8963   493.0    5.366      45.483
2015    5       20    19  22    4.8933   493.0    5.362      45.458
2015    5       20    19  27    4.8904   493.0    5.358      45.432
2015    5       20    19  33    4.8874   493.0    5.354      45.407
2015    5       20    19  39    4.8845   493.0    5.350      45.382
2015    5       20    19  45    4.8816   493.0    5.345      45.356
2015    5       20    19  51    4.8786   493.0    5.341      45.330
2015    5       20    19  57    4.8757   493.0    5.337      45.305
2015    5       20    20   2    4.8728   493.0    5.333      45.279
2015    5       20    20   8    4.8699   493.0    5.329      45.253
2015    5       20    20  14    4.8670   493.0    5.325      45.228
2015    5       20    20  20    4.8642   493.0    5.321      45.202
2015    5       20    20  26    4.8613   493.0    5.318      45.177
2015    5       20    20  32    4.8585   493.0    5.314      45.152
2015    5       20    20  38    4.8557   493.0    5.310      45.128
2015    5       20    20  43    4.8529   493.0    5.307      45.103
2015    5       20    20  49    4.8501   492.9    5.303      45.079
2015    5       20    20  55    4.8474   492.9    5.300      45.056
2015    5       20    21   1    4.8447   492.9    5.297      45.033
2015    5       20    21   7    4.8421   492.9    5.293      45.010
2015    5       20    21  13    4.8395   492.9    5.290      44.988
2015    5       20    21  18    4.8369   492.9    5.287      44.967
2015    5       20    21  24    4.8343   492.8    5.285      44.946
2015    5       20    21  30    4.8318   492.8    5.282      44.925
2015    5       20    21  36    4.8293   492.8    5.279      44.905
2015    5       20    21  42    4.8269   492.8    5.277      44.886
2015    5       20    21  48    4.8245   492.8    5.275      44.867
2015    5       20    21  53    4.8221   492.7    5.273      44.849
2015    5       20    21  59    4.8198   492.7    5.270      44.832
2015    5       20    22   5    4.8175   492.7    5.268      44.815
2015    5       20    22  11    4.8152   492.7    5.267      44.798
2015    5       20    22  17    4.8130   492.7    5.265      44.782
2015    5       20    22  23    4.8107   492.6    5.263      44.765
2015    5       20    22  28    4.8084   492.6    5.261      44.749
2015    5       20    22  34    4.8062   492.6    5.260      44.733
2015    5       20    22  40    4.8039   492.6    5.258      44.717
2015    5       20    22  46    4.8017   492.5    5.257      44.701
2015    5       20    22  52    4.7994   492.5    5.255      44.684
2015    5       20    22  58    4.7971   492.5    5.253      44.667
2015    5       20    23   4    4.7948   492.5    5.251      44.650
2015    5       20    23   9    4.7925   492.4    5.250      44.632
2015    5       20    23  15    4.7903   492.4    5.248      44.614
2015    5       20    23  21    4.7880   492.4    5.246      44.596
2015    5       20    23  27    4.7857   492.3    5.244      44.577
2015    5       20    23  33    4.7834   492.3    5.242      44.558
2015    5       20    23  39    4.7810   492.3    5.241      44.539
2015    5       20    23  44    4.7787   492.3    5.239      44.519
2015    5       20    23  50    4.7764   492.2    5.237      44.499
2015    5       20    23  56    4.7741   492.2    5.235      44.478
2015    5       21     0   2    4.7718   492.2    5.233      44.458
2015    5       21     0   8    4.7695   492.1    5.231      44.437
2015    5       21     0  14    4.7672   492.1    5.228      44.415
2015    5       21     0  19    4.7649   492.1    5.226      44.394
2015    5       21     0  25    4.7626   492.0    5.224      44.372
2015    5       21     0  31    4.7603   492.0    5.222      44.350
2015    5       21     0  37    4.7581   492.0    5.220      44.327
2015    5       21     0  43    4.7558   491.9    5.217      44.305
2015    5       21     0  49    4.7535   491.9    5.215      44.282
2015    5       21     0  54    4.7513   491.9    5.213      44.260
2015    5       21     1   0    4.7490   491.8    5.211      44.237
2015    5       21     1   6    4.7468   491.8    5.208      44.214
2015    5       21     1  12    4.7445   491.8    5.206      44.190
2015    5       21     1  18    4.7423   491.7    5.204      44.167
2015    5       21     1  24    4.7401   491.7    5.201      44.144
2015    5       21     1  29    4.7378   491.7    5.199      44.120
2015    5       21     1  35    4.7356   491.6    5.197      44.097
2015    5       21     1  41    4.7334   491.6    5.194      44.073
2015    5       21     1  47    4.7312   491.5    5.192      44.050
2015    5       21     1  53    4.7290   491.5    5.189      44.026
2015    5       21     1  59    4.7267   491.5    5.187      44.003
2015    5       21     2   5    4.7245   491.4    5.185      43.979
2015    5       21     2  10    4.7223   491.4    5.182      43.956
2015    5       21     2  16    4.7201   491.3    5.180      43.932
2015    5       21     2  22    4.7180   491.3    5.177      43.909
2015    5       21     2  28    4.7158   491.3    5.175      43.886
2015    5       21     2  34    4.7136   491.2    5.173      43.863
2015    5       21     2  40    4.7114   491.2    5.170      43.840
2015    5       21     2  45    4.7092   491.1    5.168      43.817
2015    5       21     2  51    4.7070   491.1    5.166      43.794
2015    5       21     2  57    4.7049   491.0    5.163      43.771
2015    5       21     3   3    4.7027   491.0    5.161      43.749
2015    5       21     3   9    4.7005   490.9    5.159      43.726
2015    5       21     3  15    4.6984   490.9    5.157      43.704
2015    5       21     3  20    4.6962   490.9    5.154      43.682
2015    5       21     3  26    4.6941   490.8    5.152      43.661
2015    5       21     3  32    4.6919   490.8    5.150      43.639
2015    5       21     3  38    4.6898   490.7    5.148      43.618
2015    5       21     3  44    4.6877   490.6    5.146      43.597
2015    5       21     3  50    4.6856   490.6    5.144      43.577
2015    5       21     3  55    4.6835   490.5    5.142      43.556
2015    5       21     4   1    4.6814   490.5    5.140      43.536
2015    5       21     4   7    4.6794   490.4    5.138      43.516
2015    5       21     4  13    4.6774   490.4    5.136      43.497
2015    5       21     4  19    4.6753   490.3    5.134      43.477
2015    5       21     4  25    4.6733   490.3    5.133      43.458
2015    5       21     4  30    4.6714   490.2    5.131      43.440
2015    5       21     4  36    4.6694   490.2    5.129      43.421
2015    5       21     4  42    4.6674   490.1    5.128      43.403
2015    5       21     4  48    4.6655   490.0    5.126      43.385
2015    5       21     4  54    4.6636   490.0    5.125      43.367
2015    5       21     5   0    4.6617   489.9    5.123      43.349
2015    5       21     5   6    4.6598   489.9    5.122      43.331
2015    5       21     5  11    4.6580   489.8    5.121      43.314
2015    5       21     5  17    4.6561   489.8    5.119      43.297
2015    5       21     5  23    4.6543   489.7    5.118      43.279
2015    5       21     5  29    4.6525   489.6    5.117      43.262
2015    5       21     5  35    4.6507   489.6    5.115      43.245
2015    5       21     5  41    4.6489   489.5    5.114      43.227
2015    5       21     5  46    4.6471   489.5    5.113      43.210
2015    5       21     5  52    4.6453   489.4    5.112      43.193
2015    5       21     5  58    4.6435   489.3    5.111      43.176
2015    5       21     6   4    4.6417   489.3    5.110      43.158
2015    5       21     6  10    4.6399   489.2    5.108      43.141
2015    5       21     6  16    4.6381   489.1    5.107      43.123
2015    5       21     6  21    4.6363   489.1    5.106      43.106
2015    5       21     6  27    4.6345   489.0    5.105      43.088
2015    5       21     6  33    4.6327   489.0    5.104      43.070
2015    5       21     6  39    4.6309   488.9    5.103      43.052
2015    5       21     6  45    4.6291   488.8    5.102      43.034
2015    5       21     6  51    4.6273   488.8    5.101      43.016
2015    5       21     6  56    4.6255   488.7    5.100      42.997
2015    5       21     7   2    4.6237   488.6    5.099      42.979
2015    5       21     7   8    4.6219   488.6    5.098      42.960
2015    5       21     7  14    4.6201   488.5    5.097      42.941
2015    5       21     7  20    4.6183   488.5    5.096      42.923
2015    5       21     7  26    4.6165   488.4    5.095      42.904
2015    5       21     7  32    4.6147   488.3    5.094      42.885
2015    5       21     7  37    4.6129   488.3    5.093      42.865
2015    5       21     7  43    4.6112   488.2    5.092      42.846
2015    5       21     7  49    4.6094   488.1    5.091      42.827
2015    5       21     7  55    4.6076   488.1    5.090      42.808
2015    5       21     8   1    4.6058   488.0    5.090      42.789
2015    5       21     8   7    4.6040   488.0    5.089      42.770
2015    5       21     8  12    4.6023   487.9    5.088      42.751
2015    5       21     8  18    4.6005   487.8    5.087      42.731
2015    5       21     8  24    4.5987   487.8    5.086      42.712
2015    5       21     8  30    4.5970   487.7    5.085      42.693
2015    5       21     8  36    4.5952   487.6    5.084      42.674
2015    5       21     8  42    4.5935   487.6    5.083      42.655
2015    5       21     8  47    4.5917   487.5    5.082      42.636
2015    5       21     8  53    4.5899   487.5    5.082      42.617
2015    5       21     8  59    4.5882   487.4    5.081      42.598
2015    5       21     9   5    4.5864   487.3    5.080      42.580
2015    5       21     9  11    4.5847   487.3    5.079      42.561
2015    5       21     9  17    4.5829   487.2    5.078      42.542
2015    5       21     9  22    4.5811   487.1    5.077      42.523
2015    5       21     9  28    4.5794   487.1    5.076      42.505
2015    5       21     9  34    4.5776   487.0    5.075      42.486
2015    5       21     9  40    4.5758   486.9    5.074      42.468
2015    5       21     9  46    4.5741   486.9    5.073      42.450
2015    5       21     9  52    4.5723   486.8    5.073      42.431
2015    5       21     9  57    4.5705   486.7    5.072      42.413
2015    5       21    10   3    4.5688   486.7    5.071      42.396
2015    5       21    10   9    4.5670   486.6    5.070      42.378
2015    5       21    10  15    4.5652   486.5    5.069      42.360
2015    5       21    10  21    4.5635   486.5    5.068      42.343
2015    5       21    10  27    4.5617   486.4    5.067      42.325
2015    5       21    10  32    4.5600   486.3    5.066      42.308
2015    5       21    10  38    4.5582   486.3    5.066      42.291
2015    5       21    10  44    4.5565   486.2    5.065      42.274
2015    5       21    10  50    4.5547   486.1    5.064      42.257
2015    5       21    10  56    4.5530   486.0    5.063      42.241
2015    5       21    11   2    4.5513   486.0    5.062      42.225
2015    5       21    11   8    4.5496   485.9    5.061      42.208
2015    5       21    11  13    4.5479   485.8    5.061      42.192
2015    5       21    11  19    4.5462   485.7    5.060      42.177
2015    5       21    11  25    4.5445   485.7    5.059      42.161
2015    5       21    11  31    4.5429   485.6    5.058      42.145
2015    5       21    11  37    4.5412   485.5    5.058      42.130
2015    5       21    11  43    4.5396   485.4    5.057      42.115
2015    5       21    11  48    4.5380   485.4    5.056      42.100
2015    5       21    11  54    4.5364   485.3    5.056      42.085
2015    5       21    12   0    4.5348   485.2    5.055      42.070
2015    5       21    12   6    4.5332   485.1    5.054      42.056
2015    5       21    12  12    4.5317   485.1    5.054      42.041
2015    5       21    12  18    4.5301   485.0    5.053      42.027
2015    5       21    12  23    4.5286   484.9    5.053      42.012
2015    5       21    12  29    4.5271   484.8    5.052      41.998
2015    5       21    12  35    4.5256   484.7    5.052      41.984
2015    5       21    12  41    4.5241   484.7    5.051      41.969
2015    5       21    12  47    4.5225   484.6    5.051      41.955
2015    5       21    12  53    4.5210   484.5    5.050      41.941
2015    5       21    12  58    4.5195   484.4    5.050      41.926
2015    5       21    13   4    4.5180   484.4    5.049      41.912
2015    5       21    13  10    4.5165   484.3    5.049      41.898
2015    5       21    13  16    4.5150   484.2    5.048      41.883
2015    5       21    13  22    4.5134   484.1    5.048      41.869
2015    5       21    13  28    4.5119   484.1    5.047      41.855
2015    5       21    13  34    4.5104   484.0    5.047      41.840
2015    5       21    13  39    4.5088   483.9    5.046      41.825
2015    5       21    13  45    4.5073   483.8    5.046      41.811
2015    5       21    13  51    4.5057   483.7    5.046      41.796
2015    5       21    13  57    4.5042   483.7    5.045      41.781
2015    5       21    14   3    4.5026   483.6    5.045      41.766
2015    5       21    14   9    4.5010   483.5    5.044      41.751
2015    5       21    14  14    4.4995   483.4    5.044      41.736
2015    5       21    14  20    4.4979   483.4    5.043      41.721
2015    5       21    14  26    4.4963   483.3    5.043      41.706
2015    5       21    14  32    4.4948   483.2    5.042      41.690
2015    5       21    14  38    4.4932   483.1    5.042      41.675
2015    5       21    14  44    4.4916   483.1    5.042      41.660
2015    5       21    14  49    4.4901   483.0    5.041      41.644
2015    5       21    14  55    4.4885   482.9    5.041      41.629
2015    5       21    15   1    4.4869   482.8    5.040      41.613
2015    5       21    15   7    4.4854   482.7    5.040      41.598
2015    5       21    15  13    4.4838   482.7    5.040      41.582
2015    5       21    15  19    4.4822   482.6    5.039      41.567
2015    5       21    15  24    4.4806   482.5    5.039      41.551
2015    5       21    15  30    4.4791   482.4    5.038      41.536
2015    5       21    15  36    4.4775   482.4    5.038      41.521
2015    5       21    15  42    4.4759   482.3    5.038      41.506
2015    5       21    15  48    4.4743   482.2    5.038      41.491
2015    5       21    15  54    4.4728   482.1    5.037      41.476
2015    5       21    15  59    4.4712   482.1    5.037      41.461
2015    5       21    16   5    4.4696   482.0    5.037      41.447
2015    5       21    16  11    4.4680   481.9    5.037      41.432
2015    5       21    16  17    4.4665   481.8    5.036      41.417
2015    5       21    16  23    4.4649   481.8    5.036      41.403
2015    5       21    16  29    4.4633   481.7    5.036      41.388
2015    5       21    16  35    4.4617   481.6    5.036      41.374
2015    5       21    16  40    4.4602   481.5    5.036      41.360
2015    5       21    16  46    4.4586   481.5    5.036      41.345
2015    5       21    16  52    4.4570   481.4    5.035      41.331
2015    5       21    16  58    4.4555   481.3    5.035      41.317
2015    5       21    17   4    4.4539   481.2    5.035      41.302
2015    5       21    17  10    4.4523   481.1    5.035      41.288
2015    5       21    17  15    4.4508   481.1    5.035      41.274
2015    5       21    17  21    4.4492   481.0    5.035      41.259
2015    5       21    17  27    4.4477   480.9    5.035      41.245
2015    5       21    17  33    4.4462   480.8    5.034      41.230
2015    5       21    17  39    4.4446   480.8    5.034      41.216
2015    5       21    17  45    4.4431   480.7    5.034      41.201
2015    5       21    17  50    4.4416   480.6    5.034      41.186
2015    5       21    17  56    4.4401   480.5    5.033      41.171
2015    5       21    18   2    4.4386   480.4    5.033      41.156
2015    5       21    18   8    4.4372   480.4    5.033      41.141
2015    5       21    18  14    4.4357   480.3    5.033      41.126
2015    5       21    18  20    4.4343   480.2    5.032      41.111
2015    5       21    18  25    4.4329   480.1    5.032      41.096
2015    5       21    18  31    4.4315   480.0    5.032      41.081
2015    5       21    18  37    4.4301   480.0    5.031      41.065
2015    5       21    18  43    4.4287   479.9    5.031      41.050
2015    5       21    18  49    4.4274   479.8    5.031      41.035
2015    5       21    18  55    4.4261   479.7    5.030      41.019
2015    5       21    19   0    4.4248   479.6    5.030      41.004
2015    5       21    19   6    4.4235   479.5    5.030      40.988
2015    5       21    19  12    4.4223   479.5    5.030      40.973
2015    5       21    19  18    4.4211   479.4    5.029      40.957
2015    5       21    19  24    4.4199   479.3    5.029      40.942
2015    5       21    19  30    4.4187   479.2    5.029      40.927
2015    5       21    19  36    4.4175   479.1    5.028      40.911
2015    5       21    19  41    4.4164   479.1    5.028      40.896
2015    5       21    19  47    4.4153   479.0    5.028      40.880
2015    5       21    19  53    4.4141   478.9    5.028      40.865
2015    5       21    19  59    4.4130   478.8    5.028      40.850
2015    5       21    20   5    4.4118   478.7    5.027      40.835
2015    5       21    20  11    4.4107   478.7    5.027      40.820
2015    5       21    20  16    4.4095   478.6    5.027      40.806
2015    5       21    20  22    4.4083   478.5    5.027      40.791
2015    5       21    20  28    4.4071   478.4    5.026      40.776
2015    5       21    20  34    4.4059   478.3    5.026      40.762
2015    5       21    20  40    4.4046   478.3    5.026      40.748
2015    5       21    20  46    4.4033   478.2    5.026      40.734
2015    5       21    20  51    4.4021   478.1    5.025      40.719
2015    5       21    20  57    4.4008   478.0    5.025      40.705
2015    5       21    21   3    4.3994   477.9    5.025      40.691
2015    5       21    21   9    4.3981   477.9    5.024      40.676
2015    5       21    21  15    4.3968   477.8    5.024      40.661
2015    5       21    21  21    4.3954   477.7    5.023      40.646
2015    5       21    21  26    4.3940   477.6    5.023      40.631
2015    5       21    21  32    4.3926   477.5    5.022      40.616
2015    5       21    21  38    4.3912   477.5    5.022      40.600
2015    5       21    21  44    4.3898   477.4    5.021      40.584
2015    5       21    21  50    4.3883   477.3    5.021      40.568
2015    5       21    21  56    4.3869   477.2    5.020      40.551
2015    5       21    22   1    4.3854   477.1    5.019      40.534
2015    5       21    22   7    4.3840   477.1    5.019      40.517
2015    5       21    22  13    4.3825   477.0    5.018      40.500
2015    5       21    22  19    4.3810   476.9    5.017      40.482
2015    5       21    22  25    4.3795   476.8    5.016      40.465
2015    5       21    22  31    4.3780   476.7    5.015      40.446
2015    5       21    22  37    4.3765   476.6    5.015      40.428
2015    5       21    22  42    4.3750   476.5    5.014      40.410
2015    5       21    22  48    4.3735   476.5    5.013      40.391
2015    5       21    22  54    4.3719   476.4    5.012      40.372
2015    5       21    23   0    4.3704   476.3    5.011      40.353
2015    5       21    23   6    4.3689   476.2    5.010      40.334
2015    5       21    23  12    4.3673   476.1    5.009      40.315
2015    5       21    23  17    4.3658   476.0    5.008      40.295
2015    5       21    23  23    4.3642   475.9    5.007      40.275
2015    5       21    23  29    4.3627   475.9    5.006      40.256
2015    5       21    23  35    4.3611   475.8    5.006      40.236
2015    5       21    23  41    4.3595   475.7    5.005      40.216
2015    5       21    23  47    4.3580   475.6    5.004      40.196
2015    5       21    23  52    4.3564   475.5    5.003      40.175
2015    5       21    23  58    4.3549   475.4    5.002      40.155
2015    5       22     0   4    4.3533   475.3    5.001      40.135
2015    5       22     0  10    4.3518   475.2    5.001      40.114
2015    5       22     0  16    4.3502   475.1    5.000      40.093
2015    5       22     0  22    4.3487   475.0    4.999      40.073
2015    5       22     0  27    4.3472   474.9    4.998      40.052
2015    5       22     0  33    4.3457   474.8    4.998      40.032
2015    5       22     0  39    4.3442   474.7    4.997      40.011
2015    5       22     0  45    4.3427   474.6    4.997      39.991
2015    5       22     0  51    4.3412   474.5    4.997      39.970
2015    5       22     0  57    4.3397   474.4    4.996      39.950
2015    5       22     1   2    4.3383   474.3    4.996      39.930
2015    5       22     1   8    4.3369   474.2    4.996      39.910
2015    5       22     1  14    4.3355   474.1    4.996      39.891
2015    5       22     1  20    4.3341   474.0    4.996      39.871
2015    5       22     1  26    4.3328   473.9    4.996      39.852
2015    5       22     1  32    4.3315   473.8    4.997      39.834
2015    5       22     1  38    4.3302   473.7    4.997      39.815
2015    5       22     1  43    4.3289   473.6    4.998      39.797
2015    5       22     1  49    4.3277   473.5    4.998      39.780
2015    5       22     1  55    4.3265   473.4    4.999      39.763
2015    5       22     2   1    4.3254   473.3    5.000      39.746
2015    5       22     2   7    4.3243   473.1    5.001      39.731
2015    5       22     2  13    4.3232   473.0    5.002      39.715
2015    5       22     2  18    4.3222   472.9    5.004      39.700
2015    5       22     2  24    4.3212   472.8    5.005      39.685
2015    5       22     2  30    4.3202   472.7    5.007      39.672
2015    5       22     2  36    4.3193   472.6    5.008      39.659
2015    5       22     2  42    4.3184   472.5    5.010      39.647
2015    5       22     2  48    4.3176   472.4    5.012      39.635
2015    5       22     2  53    4.3167   472.3    5.014      39.623
2015    5       22     2  59    4.3159   472.2    5.015      39.612
2015    5       22     3   5    4.3150   472.1    5.017      39.600
2015    5       22     3  11    4.3142   472.0    5.018      39.588
2015    5       22     3  17    4.3133   471.9    5.019      39.575
2015    5       22     3  23    4.3125   471.8    5.021      39.562
2015    5       22     3  28    4.3116   471.7    5.022      39.549
2015    5       22     3  34    4.3106   471.6    5.023      39.535
2015    5       22     3  40    4.3097   471.5    5.024      39.520
2015    5       22     3  46    4.3088   471.4    5.025      39.505
2015    5       22     3  52    4.3078   471.3    5.026      39.490
2015    5       22     3  58    4.3068   471.2    5.026      39.475
2015    5       22     4   4    4.3058   471.1    5.027      39.459
2015    5       22     4   9    4.3047   471.0    5.027      39.443
2015    5       22     4  15    4.3037   470.9    5.028      39.426
2015    5       22     4  21    4.3026   470.8    5.028      39.409
2015    5       22     4  27    4.3015   470.7    5.028      39.392
2015    5       22     4  33    4.3004   470.6    5.029      39.374
2015    5       22     4  39    4.2993   470.5    5.029      39.356
2015    5       22     4  44    4.2982   470.4    5.029      39.337
2015    5       22     4  50    4.2970   470.3    5.029      39.318
2015    5       22     4  56    4.2959   470.2    5.029      39.299
2015    5       22     5   2    4.2947   470.1    5.029      39.279
2015    5       22     5   8    4.2935   470.0    5.029      39.258
2015    5       22     5  14    4.2923   469.9    5.028      39.237
2015    5       22     5  19    4.2911   469.8    5.028      39.216
2015    5       22     5  25    4.2899   469.7    5.028      39.195
2015    5       22     5  31    4.2887   469.6    5.028      39.173
2015    5       22     5  37    4.2875   469.5    5.027      39.150
2015    5       22     5  43    4.2863   469.4    5.027      39.127
2015    5       22     5  49    4.2851   469.2    5.026      39.104
2015    5       22     5  54    4.2838   469.1    5.026      39.081
2015    5       22     6   0    4.2826   469.0    5.025      39.057
2015    5       22     6   6    4.2813   468.9    5.025      39.033
2015    5       22     6  12    4.2801   468.8    5.024      39.009
2015    5       22     6  18    4.2789   468.7    5.023      38.984
2015    5       22     6  24    4.2777   468.6    5.023      38.959
2015    5       22     6  29    4.2764   468.5    5.022      38.934
2015    5       22     6  35    4.2752   468.4    5.021      38.908
2015    5       22     6  41    4.2739   468.3    5.021      38.882
2015    5       22     6  47    4.2727   468.2    5.020      38.856
2015    5       22     6  53    4.2715   468.1    5.019      38.830
2015    5       22     6  59    4.2703   468.0    5.018      38.803
2015    5       22     7   5    4.2690   467.9    5.017      38.776
2015    5       22     7  10    4.2678   467.8    5.017      38.749
2015    5       22     7  16    4.2666   467.7    5.016      38.721
2015    5       22     7  22    4.2654   467.6    5.015      38.694
2015    5       22     7  28    4.2642   467.5    5.014      38.666
2015    5       22     7  34    4.2630   467.4    5.013      38.637
2015    5       22     7  40    4.2618   467.3    5.012      38.609
2015    5       22     7  45    4.2606   467.1    5.011      38.580
2015    5       22     7  51    4.2594   467.0    5.010      38.552
2015    5       22     7  57    4.2582   466.9    5.010      38.523
2015    5       22     8   3    4.2571   466.8    5.009      38.494
2015    5       22     8   9    4.2559   466.7    5.008      38.465
2015    5       22     8  15    4.2548   466.6    5.007      38.436
2015    5       22     8  20    4.2537   466.5    5.007      38.407
2015    5       22     8  26    4.2526   466.3    5.006      38.378
2015    5       22     8  32    4.2515   466.2    5.006      38.349
2015    5       22     8  38    4.2504   466.1    5.005      38.320
2015    5       22     8  44    4.2494   466.0    5.005      38.292
2015    5       22     8  50    4.2484   465.9    5.005      38.264
2015    5       22     8  55    4.2474   465.8    5.005      38.236
2015    5       22     9   1    4.2464   465.6    5.005      38.208
2015    5       22     9   7    4.2455   465.5    5.005      38.181
2015    5       22     9  13    4.2446   465.4    5.005      38.154
2015    5       22     9  19    4.2437   465.3    5.005      38.128
2015    5       22     9  25    4.2428   465.2    5.006      38.103
2015    5       22     9  30    4.2420   465.0    5.006      38.078
2015    5       22     9  36    4.2412   464.9    5.007      38.053
2015    5       22     9  42    4.2404   464.8    5.008      38.029
2015    5       22     9  48    4.2396   464.7    5.009      38.007
2015    5       22     9  54    4.2389   464.5    5.010      37.985
2015    5       22    10   0    4.2382   464.4    5.012      37.964
2015    5       22    10   6    4.2375   464.3    5.013      37.944
2015    5       22    10  11    4.2368   464.2    5.014      37.924
2015    5       22    10  17    4.2362   464.1    5.016      37.904
2015    5       22    10  23    4.2355   463.9    5.017      37.886
2015    5       22    10  29    4.2348   463.8    5.019      37.866
2015    5       22    10  35    4.2342   463.7    5.020      37.847
2015    5       22    10  41    4.2335   463.6    5.021      37.827
2015    5       22    10  46    4.2328   463.5    5.023      37.808
2015    5       22    10  52    4.2321   463.3    5.024      37.788
2015    5       22    10  58    4.2314   463.2    5.026      37.768
2015    5       22    11   4    4.2307   463.1    5.027      37.748
2015    5       22    11  10    4.2300   463.0    5.028      37.728
2015    5       22    11  16    4.2293   462.9    5.030      37.707
2015    5       22    11  21    4.2286   462.7    5.031      37.687
2015    5       22    11  27    4.2279   462.6    5.032      37.666
2015    5       22    11  33    4.2272   462.5    5.034      37.645
2015    5       22    11  39    4.2265   462.4    5.035      37.625
2015    5       22    11  45    4.2258   462.2    5.037      37.604
2015    5       22    11  51    4.2251   462.1    5.038      37.583
2015    5       22    11  56    4.2244   462.0    5.039      37.562
2015    5       22    12   2    4.2237   461.9    5.041      37.541
2015    5       22    12   8    4.2230   461.8    5.042      37.519
2015    5       22    12  14    4.2223   461.6    5.044      37.498
2015    5       22    12  20    4.2216   461.5    5.045      37.476
2015    5       22    12  26    4.2209   461.4    5.047      37.455
2015    5       22    12  31    4.2202   461.3    5.048      37.433
2015    5       22    12  37    4.2195   461.2    5.050      37.411
2015    5       22    12  43    4.2188   461.0    5.051      37.388
2015    5       22    12  49    4.2181   460.9    5.052      37.366
2015    5       22    12  55    4.2174   460.8    5.054      37.343
2015    5       22    13   1    4.2167   460.7    5.055      37.320
2015    5       22    13   7    4.2159   460.5    5.056      37.297
2015    5       22    13  12    4.2152   460.4    5.058      37.273
2015    5       22    13  18    4.2145   460.3    5.059      37.250
2015    5       22    13  24    4.2138   460.2    5.060      37.226
2015    5       22    13  30    4.2130   460.0    5.061      37.202
2015    5       22    13  36    4.2123   459.9    5.062      37.177
2015    5       22    13  42    4.2116   459.8    5.063      37.153
2015    5       22    13  47    4.2109   459.6    5.064      37.128
2015    5       22    13  53    4.2101   459.5    5.065      37.103
2015    5       22    13  59    4.2095   459.4    5.066      37.078
2015    5       22    14   5    4.2088   459.3    5.067      37.053
2015    5       22    14  11    4.2081   459.1    5.067      37.028
2015    5       22    14  17    4.2074   459.0    5.068      37.003
2015    5       22    14  22    4.2068   458.9    5.069      36.978
2015    5       22    14  28    4.2061   458.7    5.070      36.953
2015    5       22    14  34    4.2054   458.6    5.070      36.927
2015    5       22    14  40    4.2048   458.5    5.071      36.902
2015    5       22    14  46    4.2042   458.4    5.071      36.877
2015    5       22    14  52    4.2035   458.2    5.072      36.852
2015    5       22    14  57    4.2029   458.1    5.072      36.826
2015    5       22    15   3    4.2022   458.0    5.073      36.800
2015    5       22    15   9    4.2016   457.8    5.073      36.774
2015    5       22    15  15    4.2009   457.7    5.074      36.748
2015    5       22    15  21    4.2003   457.6    5.074      36.721
2015    5       22    15  27    4.1996   457.4    5.074      36.695
2015    5       22    15  32    4.1990   457.3    5.074      36.668
2015    5       22    15  38    4.1983   457.2    5.075      36.640
2015    5       22    15  44    4.1977   457.1    5.075      36.613
2015    5       22    15  50    4.1970   456.9    5.075      36.585
2015    5       22    15  56    4.1964   456.8    5.075      36.557
2015    5       22    16   2    4.1958   456.7    5.075      36.529
2015    5       22    16   8    4.1951   456.5    5.076      36.500
2015    5       22    16  13    4.1945   456.4    5.076      36.472
2015    5       22    16  19    4.1939   456.3    5.076      36.443
2015    5       22    16  25    4.1932   456.1    5.076      36.413
2015    5       22    16  31    4.1926   456.0    5.076      36.384
2015    5       22    16  37    4.1919   455.9    5.076      36.354
2015    5       22    16  43    4.1913   455.7    5.076      36.324
2015    5       22    16  48    4.1907   455.6    5.076      36.293
2015    5       22    16  54    4.1900   455.5    5.076      36.263
2015    5       22    17   0    4.1894   455.3    5.076      36.232
2015    5       22    17   6    4.1888   455.2    5.076      36.201
2015    5       22    17  12    4.1882   455.1    5.076      36.170
2015    5       22    17  18    4.1875   454.9    5.076      36.140
2015    5       22    17  23    4.1869   454.8    5.076      36.109
2015    5       22    17  29    4.1863   454.6    5.076      36.078
2015    5       22    17  35    4.1857   454.5    5.077      36.047
2015    5       22    17  41    4.1852   454.4    5.077      36.016
2015    5       22    17  47    4.1846   454.2    5.077      35.986
2015    5       22    17  53    4.1841   454.1    5.078      35.955
2015    5       22    17  58    4.1835   453.9    5.078      35.925
2015    5       22    18   4    4.1830   453.8    5.079      35.895
2015    5       22    18  10    4.1825   453.6    5.079      35.865
2015    5       22    18  16    4.1820   453.5    5.080      35.836
2015    5       22    18  22    4.1815   453.4    5.081      35.806
2015    5       22    18  28    4.1810   453.2    5.082      35.778
2015    5       22    18  33    4.1806   453.1    5.083      35.749
2015    5       22    18  39    4.1801   452.9    5.084      35.720
2015    5       22    18  45    4.1797   452.8    5.085      35.692
2015    5       22    18  51    4.1793   452.6    5.086      35.664
2015    5       22    18  57    4.1789   452.5    5.088      35.637
2015    5       22    19   3    4.1786   452.3    5.089      35.609
2015    5       22    19   9    4.1783   452.2    5.091      35.582
2015    5       22    19  14    4.1779   452.0    5.093      35.555
2015    5       22    19  20    4.1776   451.9    5.095      35.529
2015    5       22    19  26    4.1774   451.7    5.097      35.502
2015    5       22    19  32    4.1771   451.6    5.099      35.476
2015    5       22    19  38    4.1769   451.4    5.101      35.450
2015    5       22    19  44    4.1766   451.3    5.104      35.424
2015    5       22    19  49    4.1764   451.1    5.106      35.399
2015    5       22    19  55    4.1762   451.0    5.109      35.373
2015    5       22    20   1    4.1761   450.8    5.111      35.348
2015    5       22    20   7    4.1759   450.7    5.114      35.323
2015    5       22    20  13    4.1758   450.5    5.117      35.298
2015    5       22    20  19    4.1757   450.3    5.120      35.273
2015    5       22    20  24    4.1756   450.2    5.123      35.248
2015    5       22    20  30    4.1756   450.0    5.126      35.224
2015    5       22    20  36    4.1755   449.8    5.129      35.200
2015    5       22    20  42    4.1755   449.7    5.132      35.176
2015    5       22    20  48    4.1755   449.5    5.135      35.153
2015    5       22    20  54    4.1755   449.4    5.139      35.129
2015    5       22    20  59    4.1756   449.2    5.142      35.106
2015    5       22    21   5    4.1757   449.0    5.146      35.084
2015    5       22    21  11    4.1758   448.9    5.149      35.061
2015    5       22    21  17    4.1759   448.7    5.153      35.040
2015    5       22    21  23    4.1761   448.5    5.157      35.018
2015    5       22    21  29    4.1763   448.4    5.160      34.998
2015    5       22    21  35    4.1766   448.2    5.164      34.977
2015    5       22    21  40    4.1768   448.1    5.168      34.957
2015    5       22    21  46    4.1771   447.9    5.172      34.937
2015    5       22    21  52    4.1774   447.7    5.176      34.918
2015    5       22    21  58    4.1777   447.6    5.180      34.899
2015    5       22    22   4    4.1781   447.4    5.184      34.880
2015    5       22    22  10    4.1784   447.3    5.188      34.861
2015    5       22    22  15    4.1788   447.1    5.192      34.842
2015    5       22    22  21    4.1791   446.9    5.196      34.823
2015    5       22    22  27    4.1795   446.8    5.200      34.805
2015    5       22    22  33    4.1799   446.6    5.205      34.786
2015    5       22    22  39    4.1803   446.4    5.209      34.768
2015    5       22    22  45    4.1807   446.3    5.213      34.750
2015    5       22    22  50    4.1811   446.1    5.217      34.731
2015    5       22    22  56    4.1815   446.0    5.221      34.713
2015    5       22    23   2    4.1819   445.8    5.226      34.694
2015    5       22    23   8    4.1823   445.6    5.230      34.676
2015    5       22    23  14    4.1828   445.5    5.234      34.658
2015    5       22    23  20    4.1832   445.3    5.238      34.639
2015    5       22    23  25    4.1836   445.1    5.242      34.621
2015    5       22    23  31    4.1841   445.0    5.246      34.602
2015    5       22    23  37    4.1845   444.8    5.250      34.583
2015    5       22    23  43    4.1850   444.7    5.255      34.565
2015    5       22    23  49    4.1855   444.5    5.259      34.546
2015    5       22    23  55    4.1860   444.3    5.263      34.527
2015    5       23     0   1    4.1865   444.2    5.267      34.508
