year    month   day   hour  minute  B_enl V_enl   n_enl       T_enl
[year] [month] [day] [hour][minute] [nT]  [km/s]  [cm-3]      [kK]
2015    5       23     0   0    3.7900   370.8    7.694      28.621
2015    5       23     0   6    3.7927   370.7    7.703      28.626
2015    5       23     0  12    3.7954   370.7    7.711      28.631
2015    5       23     0  18    3.7980   370.6    7.720      28.635
2015    5       23     0  24    3.8008   370.6    7.728      28.640
2015    5       23     0  31    3.8035   370.5    7.736      28.645
2015    5       23     0  37    3.8062   370.5    7.745      28.649
2015    5       23     0  43    3.8089   370.4    7.753      28.654
2015    5       23     0  49    3.8117   370.3    7.761      28.659
2015    5       23     0  55    3.8145   370.3    7.770      28.664
2015    5       23     1   1    3.8173   370.2    7.778      28.669
2015    5       23     1   7    3.8201   370.2    7.786      28.673
2015    5       23     1  13    3.8230   370.1    7.795      28.678
2015    5       23     1  19    3.8258   370.1    7.803      28.683
2015    5       23     1  26    3.8287   370.0    7.811      28.688
2015    5       23     1  32    3.8316   370.0    7.820      28.694
2015    5       23     1  38    3.8346   369.9    7.828      28.699
2015    5       23     1  44    3.8375   369.9    7.837      28.704
2015    5       23     1  50    3.8405   369.8    7.845      28.709
2015    5       23     1  56    3.8436   369.8    7.854      28.715
2015    5       23     2   2    3.8466   369.7    7.862      28.720
2015    5       23     2   8    3.8497   369.7    7.871      28.726
2015    5       23     2  15    3.8528   369.6    7.880      28.731
2015    5       23     2  21    3.8559   369.6    7.888      28.737
2015    5       23     2  27    3.8591   369.5    7.897      28.743
2015    5       23     2  33    3.8623   369.5    7.906      28.749
2015    5       23     2  39    3.8655   369.4    7.915      28.755
2015    5       23     2  45    3.8688   369.4    7.923      28.761
2015    5       23     2  51    3.8721   369.3    7.932      28.768
2015    5       23     2  57    3.8754   369.3    7.942      28.774
2015    5       23     3   4    3.8788   369.2    7.951      28.781
2015    5       23     3  10    3.8822   369.2    7.960      28.787
2015    5       23     3  16    3.8856   369.1    7.969      28.794
2015    5       23     3  22    3.8890   369.1    7.979      28.801
2015    5       23     3  28    3.8925   369.1    7.988      28.808
2015    5       23     3  34    3.8960   369.0    7.998      28.815
2015    5       23     3  40    3.8996   369.0    8.007      28.823
2015    5       23     3  46    3.9032   368.9    8.017      28.830
2015    5       23     3  53    3.9068   368.9    8.027      28.838
2015    5       23     3  59    3.9104   368.8    8.037      28.846
2015    5       23     4   5    3.9141   368.8    8.047      28.854
2015    5       23     4  11    3.9178   368.7    8.057      28.862
2015    5       23     4  17    3.9216   368.7    8.067      28.871
2015    5       23     4  23    3.9254   368.7    8.078      28.879
2015    5       23     4  29    3.9292   368.6    8.088      28.888
2015    5       23     4  35    3.9330   368.6    8.099      28.897
2015    5       23     4  41    3.9369   368.5    8.110      28.906
2015    5       23     4  48    3.9409   368.5    8.121      28.916
2015    5       23     4  54    3.9448   368.4    8.132      28.925
2015    5       23     5   0    3.9488   368.4    8.143      28.936
2015    5       23     5   6    3.9529   368.4    8.154      28.946
2015    5       23     5  12    3.9570   368.3    8.166      28.957
2015    5       23     5  18    3.9612   368.3    8.178      28.968
2015    5       23     5  24    3.9654   368.2    8.190      28.979
2015    5       23     5  30    3.9696   368.2    8.202      28.991
2015    5       23     5  37    3.9738   368.2    8.214      29.003
2015    5       23     5  43    3.9781   368.1    8.226      29.016
2015    5       23     5  49    3.9824   368.1    8.238      29.030
2015    5       23     5  55    3.9867   368.1    8.251      29.044
2015    5       23     6   1    3.9910   368.0    8.263      29.058
2015    5       23     6   7    3.9953   368.0    8.275      29.074
2015    5       23     6  13    3.9996   368.0    8.287      29.089
2015    5       23     6  19    4.0039   368.0    8.299      29.105
2015    5       23     6  26    4.0082   367.9    8.310      29.121
2015    5       23     6  32    4.0125   367.9    8.322      29.137
2015    5       23     6  38    4.0168   367.9    8.334      29.152
2015    5       23     6  44    4.0212   367.9    8.345      29.167
2015    5       23     6  50    4.0255   367.8    8.357      29.183
2015    5       23     6  56    4.0298   367.8    8.368      29.198
2015    5       23     7   2    4.0341   367.8    8.380      29.213
2015    5       23     7   8    4.0385   367.8    8.391      29.228
2015    5       23     7  15    4.0428   367.7    8.402      29.242
2015    5       23     7  21    4.0472   367.7    8.413      29.257
2015    5       23     7  27    4.0515   367.7    8.424      29.271
2015    5       23     7  33    4.0559   367.7    8.435      29.286
2015    5       23     7  39    4.0603   367.6    8.446      29.300
2015    5       23     7  45    4.0647   367.6    8.456      29.314
2015    5       23     7  51    4.0691   367.6    8.467      29.328
2015    5       23     7  57    4.0735   367.6    8.478      29.341
2015    5       23     8   3    4.0780   367.5    8.489      29.355
2015    5       23     8  10    4.0824   367.5    8.499      29.369
2015    5       23     8  16    4.0869   367.5    8.510      29.382
2015    5       23     8  22    4.0914   367.5    8.520      29.395
2015    5       23     8  28    4.0959   367.5    8.531      29.409
2015    5       23     8  34    4.1004   367.4    8.541      29.422
2015    5       23     8  40    4.1050   367.4    8.552      29.434
2015    5       23     8  46    4.1096   367.4    8.562      29.447
2015    5       23     8  52    4.1142   367.4    8.572      29.460
2015    5       23     8  59    4.1188   367.3    8.583      29.473
2015    5       23     9   5    4.1234   367.3    8.593      29.486
2015    5       23     9  11    4.1281   367.3    8.603      29.498
2015    5       23     9  17    4.1328   367.3    8.614      29.511
2015    5       23     9  23    4.1376   367.3    8.624      29.524
2015    5       23     9  29    4.1424   367.2    8.635      29.536
2015    5       23     9  35    4.1472   367.2    8.645      29.549
2015    5       23     9  41    4.1521   367.2    8.656      29.562
2015    5       23     9  48    4.1570   367.2    8.666      29.575
2015    5       23     9  54    4.1619   367.2    8.677      29.587
2015    5       23    10   0    4.1669   367.2    8.687      29.600
2015    5       23    10   6    4.1720   367.1    8.698      29.613
2015    5       23    10  12    4.1771   367.1    8.709      29.626
2015    5       23    10  18    4.1822   367.1    8.720      29.640
2015    5       23    10  24    4.1874   367.1    8.731      29.653
2015    5       23    10  30    4.1926   367.1    8.742      29.666
2015    5       23    10  37    4.1979   367.1    8.753      29.680
2015    5       23    10  43    4.2033   367.1    8.764      29.694
2015    5       23    10  49    4.2087   367.0    8.775      29.708
2015    5       23    10  55    4.2141   367.0    8.787      29.722
2015    5       23    11   1    4.2196   367.0    8.799      29.737
2015    5       23    11   7    4.2252   367.0    8.811      29.751
2015    5       23    11  13    4.2308   367.0    8.823      29.766
2015    5       23    11  19    4.2365   367.0    8.835      29.782
2015    5       23    11  25    4.2422   367.0    8.848      29.797
2015    5       23    11  32    4.2480   367.0    8.860      29.813
2015    5       23    11  38    4.2539   367.0    8.873      29.829
2015    5       23    11  44    4.2598   367.0    8.886      29.846
2015    5       23    11  50    4.2658   367.0    8.900      29.862
2015    5       23    11  56    4.2718   367.0    8.913      29.879
2015    5       23    12   2    4.2779   367.0    8.927      29.896
2015    5       23    12   8    4.2841   367.0    8.941      29.914
2015    5       23    12  14    4.2903   367.0    8.956      29.933
2015    5       23    12  21    4.2965   367.0    8.970      29.952
2015    5       23    12  27    4.3029   367.0    8.985      29.972
2015    5       23    12  33    4.3092   367.0    9.000      29.993
2015    5       23    12  39    4.3155   367.0    9.015      30.015
2015    5       23    12  45    4.3219   367.0    9.030      30.038
2015    5       23    12  51    4.3283   367.0    9.045      30.063
2015    5       23    12  57    4.3347   367.0    9.060      30.089
2015    5       23    13   3    4.3411   367.0    9.075      30.116
2015    5       23    13  10    4.3475   367.0    9.090      30.143
2015    5       23    13  16    4.3539   367.1    9.104      30.172
2015    5       23    13  22    4.3603   367.1    9.119      30.201
2015    5       23    13  28    4.3666   367.1    9.133      30.231
2015    5       23    13  34    4.3730   367.1    9.146      30.261
2015    5       23    13  40    4.3793   367.1    9.160      30.291
2015    5       23    13  46    4.3856   367.2    9.173      30.320
2015    5       23    13  52    4.3919   367.2    9.187      30.350
2015    5       23    13  59    4.3982   367.2    9.200      30.379
2015    5       23    14   5    4.4045   367.2    9.212      30.408
2015    5       23    14  11    4.4108   367.2    9.225      30.437
2015    5       23    14  17    4.4171   367.3    9.237      30.466
2015    5       23    14  23    4.4234   367.3    9.249      30.494
2015    5       23    14  29    4.4297   367.3    9.261      30.522
2015    5       23    14  35    4.4360   367.3    9.273      30.550
2015    5       23    14  41    4.4423   367.4    9.285      30.577
2015    5       23    14  47    4.4486   367.4    9.296      30.604
2015    5       23    14  54    4.4549   367.4    9.308      30.631
2015    5       23    15   0    4.4612   367.5    9.319      30.657
2015    5       23    15   6    4.4675   367.5    9.330      30.683
2015    5       23    15  12    4.4738   367.5    9.341      30.709
2015    5       23    15  18    4.4802   367.5    9.352      30.734
2015    5       23    15  24    4.4866   367.6    9.363      30.760
2015    5       23    15  30    4.4929   367.6    9.373      30.785
2015    5       23    15  36    4.4993   367.6    9.384      30.809
2015    5       23    15  43    4.5057   367.7    9.395      30.834
2015    5       23    15  49    4.5121   367.7    9.405      30.858
2015    5       23    15  55    4.5186   367.7    9.416      30.882
2015    5       23    16   1    4.5250   367.7    9.426      30.906
2015    5       23    16   7    4.5315   367.8    9.436      30.929
2015    5       23    16  13    4.5380   367.8    9.447      30.953
2015    5       23    16  19    4.5445   367.8    9.457      30.976
2015    5       23    16  25    4.5511   367.9    9.467      30.998
2015    5       23    16  32    4.5577   367.9    9.477      31.021
2015    5       23    16  38    4.5643   367.9    9.488      31.044
2015    5       23    16  44    4.5709   368.0    9.498      31.066
2015    5       23    16  50    4.5776   368.0    9.508      31.089
2015    5       23    16  56    4.5843   368.0    9.518      31.111
2015    5       23    17   2    4.5911   368.1    9.528      31.134
2015    5       23    17   8    4.5979   368.1    9.539      31.156
2015    5       23    17  14    4.6047   368.1    9.549      31.179
2015    5       23    17  21    4.6116   368.2    9.560      31.201
2015    5       23    17  27    4.6185   368.2    9.570      31.224
2015    5       23    17  33    4.6256   368.2    9.581      31.247
2015    5       23    17  39    4.6326   368.3    9.591      31.270
2015    5       23    17  45    4.6398   368.3    9.602      31.293
2015    5       23    17  51    4.6469   368.3    9.613      31.317
2015    5       23    17  57    4.6542   368.4    9.624      31.341
2015    5       23    18   3    4.6615   368.4    9.635      31.365
2015    5       23    18   9    4.6689   368.5    9.647      31.389
2015    5       23    18  16    4.6763   368.5    9.659      31.414
2015    5       23    18  22    4.6838   368.6    9.671      31.439
2015    5       23    18  28    4.6914   368.6    9.683      31.465
2015    5       23    18  34    4.6991   368.7    9.695      31.491
2015    5       23    18  40    4.7068   368.7    9.708      31.517
2015    5       23    18  46    4.7146   368.8    9.720      31.544
2015    5       23    18  52    4.7225   368.8    9.734      31.572
2015    5       23    18  58    4.7304   368.9    9.747      31.599
2015    5       23    19   5    4.7384   368.9    9.761      31.627
2015    5       23    19  11    4.7465   369.0    9.775      31.656
2015    5       23    19  17    4.7546   369.0    9.789      31.684
2015    5       23    19  23    4.7627   369.1    9.804      31.714
2015    5       23    19  29    4.7709   369.2    9.819      31.743
2015    5       23    19  35    4.7791   369.2    9.835      31.774
2015    5       23    19  41    4.7872   369.3    9.850      31.805
2015    5       23    19  47    4.7953   369.4    9.866      31.837
2015    5       23    19  54    4.8034   369.4    9.881      31.871
2015    5       23    20   0    4.8115   369.5    9.897      31.907
2015    5       23    20   6    4.8196   369.6    9.912      31.944
2015    5       23    20  12    4.8276   369.7    9.927      31.983
2015    5       23    20  18    4.8356   369.7    9.942      32.024
2015    5       23    20  24    4.8436   369.8    9.957      32.067
2015    5       23    20  30    4.8515   369.9    9.971      32.110
2015    5       23    20  36    4.8594   370.0    9.985      32.155
2015    5       23    20  43    4.8672   370.0    9.998      32.200
2015    5       23    20  49    4.8750   370.1   10.012      32.245
2015    5       23    20  55    4.8827   370.2   10.025      32.291
2015    5       23    21   1    4.8904   370.3   10.037      32.337
2015    5       23    21   7    4.8981   370.4   10.049      32.382
2015    5       23    21  13    4.9057   370.5   10.061      32.428
2015    5       23    21  19    4.9133   370.5   10.073      32.473
2015    5       23    21  25    4.9209   370.6   10.084      32.518
2015    5       23    21  31    4.9285   370.7   10.095      32.563
2015    5       23    21  38    4.9361   370.8   10.106      32.607
2015    5       23    21  44    4.9436   370.9   10.116      32.651
2015    5       23    21  50    4.9511   370.9   10.126      32.694
2015    5       23    21  56    4.9586   371.0   10.136      32.738
2015    5       23    22   2    4.9661   371.1   10.146      32.780
2015    5       23    22   8    4.9736   371.2   10.155      32.823
2015    5       23    22  14    4.9811   371.3   10.164      32.865
2015    5       23    22  20    4.9885   371.4   10.173      32.907
2015    5       23    22  27    4.9960   371.5   10.182      32.948
2015    5       23    22  33    5.0034   371.6   10.190      32.989
2015    5       23    22  39    5.0109   371.6   10.198      33.029
2015    5       23    22  45    5.0183   371.7   10.206      33.070
2015    5       23    22  51    5.0258   371.8   10.214      33.110
2015    5       23    22  57    5.0332   371.9   10.222      33.149
2015    5       23    23   3    5.0407   372.0   10.229      33.188
2015    5       23    23   9    5.0481   372.1   10.237      33.227
2015    5       23    23  16    5.0555   372.2   10.244      33.266
2015    5       23    23  22    5.0629   372.3   10.251      33.304
2015    5       23    23  28    5.0703   372.4   10.258      33.342
2015    5       23    23  34    5.0777   372.5   10.265      33.380
2015    5       23    23  40    5.0852   372.6   10.271      33.417
2015    5       23    23  46    5.0926   372.7   10.278      33.454
2015    5       23    23  52    5.1000   372.8   10.284      33.490
2015    5       23    23  58    5.1074   372.9   10.290      33.527
2015    5       24     0   5    5.1149   373.0   10.296      33.563
2015    5       24     0  11    5.1223   373.1   10.303      33.599
2015    5       24     0  17    5.1298   373.2   10.309      33.635
2015    5       24     0  23    5.1372   373.3   10.315      33.670
2015    5       24     0  29    5.1447   373.4   10.320      33.706
2015    5       24     0  35    5.1522   373.5   10.326      33.741
2015    5       24     0  41    5.1597   373.6   10.332      33.776
2015    5       24     0  47    5.1673   373.7   10.338      33.812
2015    5       24     0  53    5.1748   373.8   10.344      33.847
2015    5       24     1   0    5.1824   373.9   10.350      33.882
2015    5       24     1   6    5.1900   374.0   10.356      33.917
2015    5       24     1  12    5.1977   374.1   10.362      33.952
2015    5       24     1  18    5.2053   374.2   10.368      33.988
2015    5       24     1  24    5.2130   374.3   10.375      34.023
2015    5       24     1  30    5.2207   374.5   10.381      34.059
2015    5       24     1  36    5.2285   374.6   10.387      34.094
2015    5       24     1  42    5.2363   374.7   10.394      34.130
2015    5       24     1  49    5.2442   374.8   10.401      34.166
2015    5       24     1  55    5.2521   374.9   10.408      34.202
2015    5       24     2   1    5.2600   375.0   10.415      34.239
2015    5       24     2   7    5.2680   375.1   10.422      34.275
2015    5       24     2  13    5.2761   375.2   10.430      34.312
2015    5       24     2  19    5.2842   375.4   10.437      34.349
2015    5       24     2  25    5.2924   375.5   10.446      34.387
2015    5       24     2  31    5.3006   375.6   10.454      34.425
2015    5       24     2  38    5.3089   375.7   10.463      34.464
2015    5       24     2  44    5.3173   375.8   10.472      34.502
2015    5       24     2  50    5.3257   375.9   10.482      34.541
2015    5       24     2  56    5.3342   376.1   10.492      34.581
2015    5       24     3   2    5.3427   376.2   10.502      34.622
2015    5       24     3   8    5.3512   376.3   10.513      34.663
2015    5       24     3  14    5.3598   376.4   10.525      34.705
2015    5       24     3  20    5.3684   376.6   10.536      34.749
2015    5       24     3  27    5.3769   376.7   10.548      34.796
2015    5       24     3  33    5.3855   376.9   10.559      34.846
2015    5       24     3  39    5.3939   377.0   10.571      34.898
2015    5       24     3  45    5.4023   377.2   10.582      34.954
2015    5       24     3  51    5.4106   377.3   10.593      35.012
2015    5       24     3  57    5.4189   377.5   10.603      35.072
2015    5       24     4   3    5.4270   377.6   10.613      35.133
2015    5       24     4   9    5.4351   377.8   10.622      35.196
2015    5       24     4  15    5.4431   377.9   10.631      35.259
2015    5       24     4  22    5.4510   378.1   10.640      35.321
2015    5       24     4  28    5.4588   378.3   10.648      35.383
2015    5       24     4  34    5.4665   378.4   10.655      35.445
2015    5       24     4  40    5.4741   378.6   10.662      35.506
2015    5       24     4  46    5.4816   378.7   10.669      35.566
2015    5       24     4  52    5.4890   378.9   10.674      35.627
2015    5       24     4  58    5.4964   379.0   10.680      35.686
2015    5       24     5   4    5.5037   379.2   10.685      35.745
2015    5       24     5  11    5.5110   379.4   10.690      35.803
2015    5       24     5  17    5.5182   379.5   10.694      35.861
2015    5       24     5  23    5.5254   379.7   10.698      35.918
2015    5       24     5  29    5.5325   379.8   10.702      35.974
2015    5       24     5  35    5.5395   380.0   10.705      36.029
2015    5       24     5  41    5.5466   380.1   10.708      36.084
2015    5       24     5  47    5.5536   380.3   10.710      36.139
2015    5       24     5  53    5.5605   380.4   10.713      36.192
2015    5       24     6   0    5.5675   380.6   10.715      36.245
2015    5       24     6   6    5.5744   380.8   10.717      36.298
2015    5       24     6  12    5.5812   380.9   10.718      36.350
2015    5       24     6  18    5.5881   381.1   10.720      36.401
2015    5       24     6  24    5.5949   381.2   10.721      36.452
2015    5       24     6  30    5.6017   381.4   10.721      36.502
2015    5       24     6  36    5.6085   381.6   10.722      36.551
2015    5       24     6  42    5.6152   381.7   10.722      36.600
2015    5       24     6  49    5.6219   381.9   10.723      36.649
2015    5       24     6  55    5.6287   382.0   10.723      36.697
2015    5       24     7   1    5.6353   382.2   10.723      36.745
2015    5       24     7   7    5.6420   382.4   10.722      36.791
2015    5       24     7  13    5.6486   382.5   10.722      36.838
2015    5       24     7  19    5.6553   382.7   10.721      36.884
2015    5       24     7  25    5.6619   382.9   10.720      36.930
2015    5       24     7  31    5.6685   383.0   10.720      36.975
2015    5       24     7  37    5.6751   383.2   10.719      37.020
2015    5       24     7  44    5.6816   383.4   10.718      37.064
2015    5       24     7  50    5.6882   383.5   10.717      37.108
2015    5       24     7  56    5.6947   383.7   10.715      37.152
2015    5       24     8   2    5.7012   383.8   10.714      37.195
2015    5       24     8   8    5.7077   384.0   10.713      37.238
2015    5       24     8  14    5.7142   384.2   10.712      37.281
2015    5       24     8  20    5.7207   384.3   10.710      37.323
2015    5       24     8  26    5.7271   384.5   10.709      37.365
2015    5       24     8  33    5.7336   384.7   10.708      37.407
2015    5       24     8  39    5.7400   384.8   10.706      37.449
2015    5       24     8  45    5.7465   385.0   10.705      37.490
2015    5       24     8  51    5.7529   385.2   10.703      37.531
2015    5       24     8  57    5.7593   385.3   10.702      37.572
2015    5       24     9   3    5.7657   385.5   10.701      37.613
2015    5       24     9   9    5.7722   385.7   10.700      37.654
2015    5       24     9  15    5.7786   385.8   10.699      37.694
2015    5       24     9  22    5.7851   386.0   10.698      37.734
2015    5       24     9  28    5.7916   386.1   10.697      37.775
2015    5       24     9  34    5.7981   386.3   10.697      37.815
2015    5       24     9  40    5.8047   386.5   10.697      37.856
2015    5       24     9  46    5.8113   386.6   10.697      37.897
2015    5       24     9  52    5.8180   386.8   10.698      37.938
2015    5       24     9  58    5.8248   387.0   10.699      37.979
2015    5       24    10   4    5.8316   387.1   10.701      38.021
2015    5       24    10  10    5.8385   387.3   10.703      38.063
2015    5       24    10  17    5.8456   387.4   10.705      38.106
2015    5       24    10  23    5.8527   387.6   10.709      38.150
2015    5       24    10  29    5.8598   387.8   10.713      38.194
2015    5       24    10  35    5.8671   387.9   10.718      38.239
2015    5       24    10  41    5.8744   388.1   10.723      38.287
2015    5       24    10  47    5.8817   388.3   10.729      38.337
2015    5       24    10  53    5.8891   388.5   10.735      38.390
2015    5       24    10  59    5.8965   388.6   10.742      38.447
2015    5       24    11   6    5.9039   388.8   10.749      38.505
2015    5       24    11  12    5.9114   389.0   10.757      38.566
2015    5       24    11  18    5.9189   389.2   10.765      38.628
2015    5       24    11  24    5.9264   389.4   10.773      38.694
2015    5       24    11  30    5.9339   389.6   10.781      38.763
2015    5       24    11  36    5.9413   389.8   10.789      38.834
2015    5       24    11  42    5.9487   390.0   10.797      38.907
2015    5       24    11  48    5.9559   390.2   10.805      38.981
2015    5       24    11  55    5.9631   390.4   10.812      39.058
2015    5       24    12   1    5.9701   390.6   10.819      39.138
2015    5       24    12   7    5.9770   390.9   10.825      39.218
2015    5       24    12  13    5.9838   391.1   10.830      39.298
2015    5       24    12  19    5.9905   391.3   10.835      39.377
2015    5       24    12  25    5.9971   391.5   10.839      39.455
2015    5       24    12  31    6.0035   391.8   10.843      39.532
2015    5       24    12  37    6.0099   392.0   10.846      39.608
2015    5       24    12  44    6.0161   392.2   10.849      39.682
2015    5       24    12  50    6.0222   392.4   10.851      39.756
2015    5       24    12  56    6.0282   392.6   10.853      39.830
2015    5       24    13   2    6.0342   392.9   10.854      39.901
2015    5       24    13   8    6.0400   393.1   10.854      39.972
2015    5       24    13  14    6.0458   393.3   10.855      40.042
2015    5       24    13  20    6.0515   393.5   10.855      40.112
2015    5       24    13  26    6.0572   393.8   10.854      40.180
2015    5       24    13  32    6.0629   394.0   10.853      40.247
2015    5       24    13  39    6.0684   394.2   10.852      40.314
2015    5       24    13  45    6.0740   394.4   10.851      40.380
2015    5       24    13  51    6.0795   394.7   10.849      40.445
2015    5       24    13  57    6.0850   394.9   10.847      40.510
2015    5       24    14   3    6.0904   395.1   10.845      40.575
2015    5       24    14   9    6.0958   395.3   10.842      40.638
2015    5       24    14  15    6.1011   395.6   10.839      40.702
2015    5       24    14  21    6.1064   395.8   10.836      40.765
2015    5       24    14  28    6.1117   396.0   10.833      40.827
2015    5       24    14  34    6.1169   396.3   10.829      40.889
2015    5       24    14  40    6.1220   396.5   10.825      40.951
2015    5       24    14  46    6.1271   396.7   10.821      41.012
2015    5       24    14  52    6.1322   397.0   10.816      41.072
2015    5       24    14  58    6.1372   397.2   10.812      41.131
2015    5       24    15   4    6.1421   397.4   10.807      41.190
2015    5       24    15  10    6.1470   397.6   10.802      41.248
2015    5       24    15  17    6.1519   397.9   10.796      41.306
2015    5       24    15  23    6.1567   398.1   10.791      41.363
2015    5       24    15  29    6.1615   398.4   10.785      41.420
2015    5       24    15  35    6.1662   398.6   10.779      41.476
2015    5       24    15  41    6.1709   398.8   10.773      41.532
2015    5       24    15  47    6.1755   399.1   10.766      41.587
2015    5       24    15  53    6.1801   399.3   10.760      41.641
2015    5       24    15  59    6.1847   399.5   10.753      41.695
2015    5       24    16   6    6.1892   399.8   10.747      41.748
2015    5       24    16  12    6.1937   400.0   10.740      41.801
2015    5       24    16  18    6.1982   400.2   10.733      41.853
2015    5       24    16  24    6.2027   400.5   10.726      41.906
2015    5       24    16  30    6.2071   400.7   10.719      41.957
2015    5       24    16  36    6.2115   400.9   10.712      42.008
2015    5       24    16  42    6.2160   401.2   10.706      42.059
2015    5       24    16  48    6.2204   401.4   10.699      42.109
2015    5       24    16  54    6.2248   401.6   10.692      42.160
2015    5       24    17   1    6.2292   401.9   10.686      42.210
2015    5       24    17   7    6.2337   402.1   10.680      42.259
2015    5       24    17  13    6.2381   402.3   10.673      42.309
2015    5       24    17  19    6.2426   402.6   10.668      42.359
2015    5       24    17  25    6.2471   402.8   10.662      42.409
2015    5       24    17  31    6.2517   403.0   10.657      42.459
2015    5       24    17  37    6.2563   403.3   10.652      42.509
2015    5       24    17  43    6.2609   403.5   10.647      42.559
2015    5       24    17  50    6.2656   403.7   10.643      42.610
2015    5       24    17  56    6.2704   403.9   10.639      42.662
2015    5       24    18   2    6.2752   404.2   10.636      42.714
2015    5       24    18   8    6.2801   404.4   10.633      42.767
2015    5       24    18  14    6.2850   404.6   10.630      42.821
2015    5       24    18  20    6.2901   404.9   10.628      42.874
2015    5       24    18  26    6.2952   405.1   10.627      42.928
2015    5       24    18  32    6.3003   405.3   10.626      42.983
2015    5       24    18  39    6.3055   405.5   10.626      43.042
2015    5       24    18  45    6.3107   405.8   10.625      43.102
2015    5       24    18  51    6.3159   406.0   10.625      43.166
2015    5       24    18  57    6.3210   406.3   10.625      43.230
2015    5       24    19   3    6.3261   406.6   10.625      43.298
2015    5       24    19   9    6.3310   406.8   10.624      43.367
2015    5       24    19  15    6.3359   407.1   10.623      43.438
2015    5       24    19  21    6.3406   407.4   10.621      43.510
2015    5       24    19  27    6.3452   407.6   10.619      43.582
2015    5       24    19  34    6.3497   407.9   10.617      43.652
2015    5       24    19  40    6.3540   408.2   10.614      43.721
2015    5       24    19  46    6.3582   408.5   10.610      43.790
2015    5       24    19  52    6.3623   408.7   10.606      43.858
2015    5       24    19  58    6.3662   409.0   10.602      43.924
2015    5       24    20   4    6.3700   409.3   10.597      43.990
2015    5       24    20  10    6.3736   409.6   10.592      44.055
2015    5       24    20  16    6.3771   409.9   10.586      44.119
2015    5       24    20  23    6.3805   410.1   10.580      44.181
2015    5       24    20  29    6.3838   410.4   10.573      44.243
2015    5       24    20  35    6.3869   410.7   10.567      44.304
2015    5       24    20  41    6.3900   411.0   10.560      44.364
2015    5       24    20  47    6.3931   411.2   10.552      44.423
2015    5       24    20  53    6.3960   411.5   10.544      44.481
2015    5       24    20  59    6.3989   411.8   10.536      44.539
2015    5       24    21   5    6.4016   412.1   10.528      44.596
2015    5       24    21  12    6.4043   412.3   10.520      44.653
2015    5       24    21  18    6.4070   412.6   10.511      44.709
2015    5       24    21  24    6.4096   412.9   10.502      44.765
2015    5       24    21  30    6.4121   413.1   10.492      44.821
2015    5       24    21  36    6.4145   413.4   10.482      44.876
2015    5       24    21  42    6.4169   413.7   10.472      44.930
2015    5       24    21  48    6.4192   414.0   10.462      44.984
2015    5       24    21  54    6.4214   414.2   10.451      45.037
2015    5       24    22   1    6.4236   414.5   10.440      45.090
2015    5       24    22   7    6.4257   414.8   10.429      45.141
2015    5       24    22  13    6.4277   415.1   10.417      45.192
2015    5       24    22  19    6.4296   415.3   10.405      45.242
2015    5       24    22  25    6.4315   415.6   10.393      45.291
2015    5       24    22  31    6.4333   415.9   10.380      45.338
2015    5       24    22  37    6.4350   416.1   10.367      45.385
2015    5       24    22  43    6.4367   416.4   10.354      45.430
2015    5       24    22  49    6.4383   416.7   10.341      45.474
2015    5       24    22  56    6.4398   417.0   10.326      45.518
2015    5       24    23   2    6.4412   417.3   10.312      45.562
2015    5       24    23   8    6.4424   417.6   10.297      45.604
2015    5       24    23  14    6.4435   417.9   10.282      45.647
2015    5       24    23  20    6.4445   418.2   10.267      45.688
2015    5       24    23  26    6.4453   418.5   10.251      45.728
2015    5       24    23  32    6.4460   418.8   10.235      45.766
2015    5       24    23  38    6.4467   419.1   10.219      45.802
2015    5       24    23  45    6.4473   419.4   10.204      45.837
2015    5       24    23  51    6.4479   419.6   10.189      45.870
2015    5       24    23  57    6.4486   419.9   10.174      45.901
2015    5       25     0   3    6.4493   420.2   10.159      45.932
2015    5       25     0   9    6.4501   420.4   10.145      45.964
2015    5       25     0  15    6.4510   420.6   10.131      45.997
2015    5       25     0  21    6.4519   420.9   10.117      46.030
2015    5       25     0  27    6.4527   421.1   10.104      46.064
2015    5       25     0  34    6.4536   421.4   10.091      46.100
2015    5       25     0  40    6.4546   421.6   10.078      46.140
2015    5       25     0  46    6.4556   421.9   10.065      46.184
2015    5       25     0  52    6.4566   422.2   10.053      46.230
2015    5       25     0  58    6.4576   422.5   10.040      46.279
2015    5       25     1   4    6.4586   422.8   10.027      46.329
2015    5       25     1  10    6.4596   423.1   10.015      46.380
2015    5       25     1  16    6.4607   423.4   10.002      46.432
2015    5       25     1  23    6.4616   423.7    9.990      46.483
2015    5       25     1  29    6.4625   424.0    9.977      46.531
2015    5       25     1  35    6.4633   424.3    9.965      46.577
2015    5       25     1  41    6.4640   424.6    9.952      46.622
2015    5       25     1  47    6.4647   424.8    9.939      46.666
2015    5       25     1  53    6.4652   425.1    9.925      46.709
2015    5       25     1  59    6.4657   425.4    9.912      46.751
2015    5       25     2   5    6.4660   425.7    9.897      46.793
2015    5       25     2  11    6.4661   426.0    9.883      46.834
2015    5       25     2  18    6.4662   426.3    9.868      46.876
2015    5       25     2  24    6.4661   426.6    9.852      46.917
2015    5       25     2  30    6.4658   426.9    9.837      46.959
2015    5       25     2  36    6.4653   427.3    9.821      47.000
2015    5       25     2  42    6.4647   427.6    9.805      47.040
2015    5       25     2  48    6.4639   427.9    9.788      47.079
2015    5       25     2  54    6.4630   428.2    9.772      47.117
2015    5       25     3   0    6.4620   428.5    9.756      47.153
2015    5       25     3   7    6.4609   428.8    9.740      47.188
2015    5       25     3  13    6.4596   429.1    9.724      47.222
2015    5       25     3  19    6.4584   429.4    9.708      47.255
2015    5       25     3  25    6.4571   429.7    9.692      47.288
2015    5       25     3  31    6.4558   430.0    9.676      47.320
2015    5       25     3  37    6.4544   430.3    9.660      47.352
2015    5       25     3  43    6.4529   430.6    9.645      47.384
2015    5       25     3  49    6.4514   430.8    9.629      47.418
2015    5       25     3  56    6.4498   431.1    9.614      47.453
2015    5       25     4   2    6.4481   431.4    9.598      47.488
2015    5       25     4   8    6.4464   431.7    9.582      47.523
2015    5       25     4  14    6.4447   432.0    9.567      47.558
2015    5       25     4  20    6.4430   432.4    9.551      47.593
2015    5       25     4  26    6.4411   432.7    9.536      47.626
2015    5       25     4  32    6.4393   433.0    9.520      47.658
2015    5       25     4  38    6.4374   433.3    9.504      47.688
2015    5       25     4  44    6.4354   433.6    9.488      47.715
2015    5       25     4  51    6.4334   433.8    9.472      47.742
2015    5       25     4  57    6.4312   434.1    9.456      47.767
2015    5       25     5   3    6.4290   434.4    9.439      47.791
2015    5       25     5   9    6.4266   434.7    9.422      47.814
2015    5       25     5  15    6.4241   435.0    9.404      47.837
2015    5       25     5  21    6.4214   435.2    9.386      47.859
2015    5       25     5  27    6.4186   435.5    9.368      47.880
2015    5       25     5  33    6.4157   435.8    9.350      47.900
2015    5       25     5  40    6.4126   436.1    9.332      47.918
2015    5       25     5  46    6.4096   436.4    9.314      47.934
2015    5       25     5  52    6.4065   436.6    9.296      47.947
2015    5       25     5  58    6.4034   436.9    9.278      47.959
2015    5       25     6   4    6.4003   437.2    9.259      47.969
2015    5       25     6  10    6.3973   437.4    9.241      47.979
2015    5       25     6  16    6.3941   437.7    9.223      47.987
2015    5       25     6  22    6.3910   438.0    9.204      47.997
2015    5       25     6  29    6.3878   438.2    9.186      48.006
2015    5       25     6  35    6.3845   438.5    9.167      48.016
2015    5       25     6  41    6.3811   438.8    9.149      48.026
2015    5       25     6  47    6.3777   439.1    9.131      48.036
2015    5       25     6  53    6.3742   439.3    9.113      48.047
2015    5       25     6  59    6.3709   439.6    9.096      48.058
2015    5       25     7   5    6.3675   439.9    9.079      48.070
2015    5       25     7  11    6.3642   440.1    9.063      48.082
2015    5       25     7  18    6.3610   440.4    9.047      48.095
2015    5       25     7  24    6.3579   440.7    9.032      48.108
2015    5       25     7  30    6.3548   440.9    9.016      48.121
2015    5       25     7  36    6.3517   441.1    9.002      48.134
2015    5       25     7  42    6.3486   441.4    8.987      48.147
2015    5       25     7  48    6.3454   441.6    8.972      48.161
2015    5       25     7  54    6.3422   441.9    8.958      48.179
2015    5       25     8   0    6.3389   442.1    8.943      48.202
2015    5       25     8   6    6.3355   442.4    8.929      48.227
2015    5       25     8  13    6.3321   442.7    8.915      48.255
2015    5       25     8  19    6.3287   443.0    8.901      48.284
2015    5       25     8  25    6.3252   443.3    8.886      48.314
2015    5       25     8  31    6.3217   443.6    8.872      48.346
2015    5       25     8  37    6.3181   443.9    8.858      48.375
2015    5       25     8  43    6.3144   444.2    8.844      48.401
2015    5       25     8  49    6.3108   444.4    8.830      48.425
2015    5       25     8  55    6.3070   444.7    8.816      48.447
2015    5       25     9   2    6.3032   444.9    8.801      48.467
2015    5       25     9   8    6.2993   445.2    8.786      48.486
2015    5       25     9  14    6.2954   445.5    8.771      48.504
2015    5       25     9  20    6.2913   445.7    8.756      48.521
2015    5       25     9  26    6.2872   446.0    8.740      48.537
2015    5       25     9  32    6.2830   446.3    8.724      48.553
2015    5       25     9  38    6.2787   446.5    8.708      48.570
2015    5       25     9  44    6.2742   446.8    8.691      48.586
2015    5       25     9  51    6.2696   447.1    8.675      48.602
2015    5       25     9  57    6.2649   447.4    8.658      48.618
2015    5       25    10   3    6.2602   447.7    8.642      48.633
2015    5       25    10   9    6.2553   448.0    8.625      48.647
2015    5       25    10  15    6.2505   448.3    8.609      48.660
2015    5       25    10  21    6.2456   448.5    8.593      48.672
2015    5       25    10  27    6.2408   448.8    8.577      48.683
2015    5       25    10  33    6.2360   449.0    8.562      48.694
2015    5       25    10  39    6.2313   449.3    8.547      48.706
2015    5       25    10  46    6.2265   449.5    8.532      48.716
2015    5       25    10  52    6.2218   449.8    8.517      48.727
2015    5       25    10  58    6.2171   450.0    8.502      48.739
2015    5       25    11   4    6.2125   450.2    8.488      48.754
2015    5       25    11  10    6.2078   450.5    8.473      48.769
2015    5       25    11  16    6.2031   450.8    8.459      48.786
2015    5       25    11  22    6.1985   451.0    8.445      48.804
2015    5       25    11  28    6.1939   451.3    8.431      48.822
2015    5       25    11  35    6.1893   451.6    8.417      48.840
2015    5       25    11  41    6.1847   451.9    8.403      48.858
2015    5       25    11  47    6.1802   452.2    8.389      48.873
2015    5       25    11  53    6.1756   452.4    8.376      48.887
2015    5       25    11  59    6.1710   452.7    8.362      48.899
2015    5       25    12   5    6.1664   452.9    8.348      48.909
2015    5       25    12  11    6.1618   453.2    8.335      48.919
2015    5       25    12  17    6.1570   453.4    8.321      48.928
2015    5       25    12  24    6.1523   453.7    8.306      48.938
2015    5       25    12  30    6.1474   454.0    8.292      48.947
2015    5       25    12  36    6.1423   454.2    8.277      48.956
2015    5       25    12  42    6.1372   454.5    8.263      48.966
2015    5       25    12  48    6.1321   454.8    8.248      48.975
2015    5       25    12  54    6.1268   455.1    8.233      48.983
2015    5       25    13   0    6.1216   455.3    8.218      48.990
2015    5       25    13   6    6.1163   455.6    8.204      48.995
2015    5       25    13  13    6.1111   455.8    8.189      48.999
2015    5       25    13  19    6.1059   456.0    8.175      49.002
2015    5       25    13  25    6.1009   456.2    8.162      49.003
2015    5       25    13  31    6.0958   456.5    8.148      49.005
2015    5       25    13  37    6.0909   456.7    8.135      49.006
2015    5       25    13  43    6.0860   456.9    8.122      49.008
2015    5       25    13  49    6.0812   457.1    8.109      49.011
2015    5       25    13  55    6.0764   457.3    8.096      49.016
2015    5       25    14   1    6.0717   457.5    8.083      49.022
2015    5       25    14   8    6.0670   457.8    8.071      49.031
2015    5       25    14  14    6.0623   458.0    8.058      49.043
2015    5       25    14  20    6.0577   458.3    8.047      49.057
2015    5       25    14  26    6.0532   458.5    8.035      49.073
2015    5       25    14  32    6.0486   458.8    8.023      49.090
2015    5       25    14  38    6.0441   459.1    8.012      49.108
2015    5       25    14  44    6.0396   459.3    8.000      49.125
2015    5       25    14  50    6.0351   459.6    7.988      49.141
2015    5       25    14  57    6.0305   459.8    7.977      49.156
2015    5       25    15   3    6.0259   460.1    7.965      49.170
2015    5       25    15   9    6.0212   460.3    7.953      49.183
2015    5       25    15  15    6.0165   460.6    7.941      49.196
2015    5       25    15  21    6.0117   460.8    7.929      49.208
2015    5       25    15  27    6.0068   461.1    7.917      49.221
2015    5       25    15  33    6.0020   461.3    7.905      49.233
2015    5       25    15  39    5.9971   461.6    7.893      49.246
2015    5       25    15  46    5.9921   461.8    7.881      49.259
2015    5       25    15  52    5.9873   462.1    7.868      49.271
2015    5       25    15  58    5.9824   462.3    7.856      49.283
2015    5       25    16   4    5.9775   462.6    7.844      49.295
2015    5       25    16  10    5.9727   462.8    7.832      49.306
2015    5       25    16  16    5.9679   463.0    7.820      49.317
2015    5       25    16  22    5.9631   463.3    7.808      49.327
2015    5       25    16  28    5.9583   463.5    7.796      49.336
2015    5       25    16  34    5.9535   463.7    7.784      49.345
2015    5       25    16  41    5.9488   464.0    7.772      49.353
2015    5       25    16  47    5.9441   464.2    7.760      49.361
2015    5       25    16  53    5.9394   464.4    7.748      49.368
2015    5       25    16  59    5.9347   464.7    7.736      49.376
2015    5       25    17   5    5.9300   464.9    7.724      49.384
2015    5       25    17  11    5.9253   465.1    7.711      49.391
2015    5       25    17  17    5.9207   465.4    7.699      49.399
2015    5       25    17  23    5.9161   465.6    7.687      49.407
2015    5       25    17  30    5.9115   465.8    7.675      49.414
2015    5       25    17  36    5.9070   466.1    7.663      49.422
2015    5       25    17  42    5.9024   466.3    7.651      49.430
2015    5       25    17  48    5.8979   466.6    7.640      49.437
2015    5       25    17  54    5.8935   466.8    7.628      49.445
2015    5       25    18   0    5.8890   467.0    7.616      49.452
2015    5       25    18   6    5.8846   467.2    7.604      49.458
2015    5       25    18  12    5.8802   467.5    7.592      49.464
2015    5       25    18  19    5.8758   467.7    7.581      49.470
2015    5       25    18  25    5.8715   467.9    7.569      49.476
2015    5       25    18  31    5.8672   468.2    7.557      49.482
2015    5       25    18  37    5.8629   468.4    7.545      49.488
2015    5       25    18  43    5.8586   468.6    7.534      49.493
2015    5       25    18  49    5.8543   468.9    7.522      49.499
2015    5       25    18  55    5.8501   469.1    7.510      49.504
2015    5       25    19   1    5.8459   469.3    7.499      49.510
2015    5       25    19   8    5.8417   469.5    7.488      49.515
2015    5       25    19  14    5.8375   469.8    7.476      49.521
2015    5       25    19  20    5.8334   470.0    7.465      49.526
2015    5       25    19  26    5.8292   470.2    7.454      49.532
2015    5       25    19  32    5.8251   470.4    7.443      49.537
2015    5       25    19  38    5.8210   470.7    7.432      49.543
2015    5       25    19  44    5.8170   470.9    7.421      49.548
2015    5       25    19  50    5.8129   471.1    7.410      49.554
2015    5       25    19  56    5.8089   471.3    7.399      49.559
2015    5       25    20   3    5.8048   471.6    7.388      49.565
2015    5       25    20   9    5.8008   471.8    7.378      49.571
2015    5       25    20  15    5.7969   472.0    7.367      49.577
2015    5       25    20  21    5.7929   472.2    7.357      49.583
2015    5       25    20  27    5.7890   472.4    7.346      49.589
2015    5       25    20  33    5.7851   472.7    7.336      49.596
2015    5       25    20  39    5.7812   472.9    7.326      49.602
2015    5       25    20  45    5.7773   473.1    7.316      49.609
2015    5       25    20  52    5.7734   473.3    7.306      49.616
2015    5       25    20  58    5.7696   473.5    7.296      49.623
2015    5       25    21   4    5.7658   473.8    7.286      49.630
2015    5       25    21  10    5.7620   474.0    7.277      49.638
2015    5       25    21  16    5.7582   474.2    7.267      49.645
2015    5       25    21  22    5.7544   474.4    7.257      49.653
2015    5       25    21  28    5.7507   474.6    7.248      49.661
2015    5       25    21  34    5.7469   474.8    7.238      49.669
2015    5       25    21  41    5.7432   475.1    7.229      49.677
2015    5       25    21  47    5.7395   475.3    7.220      49.685
2015    5       25    21  53    5.7358   475.5    7.210      49.694
2015    5       25    21  59    5.7321   475.7    7.201      49.703
2015    5       25    22   5    5.7284   475.9    7.192      49.712
2015    5       25    22  11    5.7247   476.1    7.183      49.721
2015    5       25    22  17    5.7210   476.3    7.173      49.730
2015    5       25    22  23    5.7174   476.6    7.164      49.739
2015    5       25    22  30    5.7137   476.8    7.155      49.748
2015    5       25    22  36    5.7101   477.0    7.146      49.758
2015    5       25    22  42    5.7064   477.2    7.136      49.768
2015    5       25    22  48    5.7028   477.4    7.127      49.777
2015    5       25    22  54    5.6992   477.6    7.118      49.786
2015    5       25    23   0    5.6956   477.8    7.108      49.796
2015    5       25    23   6    5.6920   478.0    7.099      49.805
2015    5       25    23  12    5.6884   478.2    7.090      49.814
2015    5       25    23  18    5.6848   478.4    7.081      49.823
2015    5       25    23  25    5.6813   478.6    7.071      49.832
2015    5       25    23  31    5.6777   478.8    7.062      49.840
2015    5       25    23  37    5.6741   479.1    7.052      49.849
2015    5       25    23  43    5.6706   479.3    7.043      49.857
2015    5       25    23  49    5.6671   479.5    7.034      49.865
2015    5       25    23  55    5.6635   479.7    7.024      49.873
2015    5       26     0   1    5.6600   479.9    7.015      49.881
2015    5       26     0   7    5.6565   480.1    7.005      49.889
2015    5       26     0  14    5.6531   480.3    6.996      49.896
2015    5       26     0  20    5.6496   480.5    6.986      49.903
2015    5       26     0  26    5.6461   480.7    6.977      49.910
2015    5       26     0  32    5.6426   480.9    6.967      49.916
2015    5       26     0  38    5.6392   481.1    6.958      49.923
2015    5       26     0  44    5.6358   481.3    6.948      49.929
2015    5       26     0  50    5.6324   481.5    6.939      49.936
2015    5       26     0  56    5.6290   481.7    6.929      49.942
2015    5       26     1   3    5.6256   481.9    6.920      49.948
2015    5       26     1   9    5.6222   482.1    6.911      49.953
2015    5       26     1  15    5.6189   482.3    6.901      49.959
2015    5       26     1  21    5.6155   482.5    6.892      49.964
2015    5       26     1  27    5.6122   482.7    6.882      49.969
2015    5       26     1  33    5.6089   482.9    6.873      49.975
2015    5       26     1  39    5.6056   483.1    6.863      49.980
2015    5       26     1  45    5.6023   483.3    6.854      49.985
2015    5       26     1  51    5.5991   483.5    6.845      49.989
2015    5       26     1  58    5.5959   483.7    6.836      49.994
2015    5       26     2   4    5.5927   483.9    6.826      49.999
2015    5       26     2  10    5.5895   484.1    6.817      50.004
2015    5       26     2  16    5.5863   484.3    6.808      50.008
2015    5       26     2  22    5.5831   484.5    6.799      50.013
2015    5       26     2  28    5.5800   484.7    6.790      50.017
2015    5       26     2  34    5.5769   484.9    6.782      50.022
2015    5       26     2  40    5.5738   485.1    6.773      50.027
2015    5       26     2  47    5.5707   485.3    6.764      50.032
2015    5       26     2  53    5.5677   485.5    6.756      50.036
2015    5       26     2  59    5.5646   485.7    6.747      50.041
2015    5       26     3   5    5.5616   485.9    6.739      50.047
2015    5       26     3  11    5.5586   486.0    6.730      50.052
2015    5       26     3  17    5.5556   486.2    6.722      50.057
2015    5       26     3  23    5.5526   486.4    6.714      50.063
2015    5       26     3  29    5.5496   486.6    6.706      50.068
2015    5       26     3  36    5.5466   486.8    6.698      50.074
2015    5       26     3  42    5.5437   487.0    6.690      50.080
2015    5       26     3  48    5.5407   487.2    6.682      50.086
2015    5       26     3  54    5.5378   487.4    6.674      50.093
2015    5       26     4   0    5.5348   487.6    6.667      50.099
2015    5       26     4   6    5.5319   487.8    6.659      50.106
2015    5       26     4  12    5.5289   488.0    6.652      50.113
2015    5       26     4  18    5.5260   488.2    6.644      50.119
2015    5       26     4  25    5.5230   488.4    6.637      50.126
2015    5       26     4  31    5.5201   488.6    6.629      50.133
2015    5       26     4  37    5.5171   488.7    6.622      50.141
2015    5       26     4  43    5.5142   488.9    6.615      50.148
2015    5       26     4  49    5.5112   489.1    6.607      50.155
2015    5       26     4  55    5.5083   489.3    6.600      50.162
2015    5       26     5   1    5.5053   489.5    6.593      50.169
2015    5       26     5   7    5.5024   489.7    6.585      50.177
2015    5       26     5  13    5.4994   489.9    6.578      50.184
2015    5       26     5  20    5.4965   490.1    6.571      50.191
2015    5       26     5  26    5.4935   490.3    6.564      50.198
2015    5       26     5  32    5.4906   490.5    6.556      50.205
2015    5       26     5  38    5.4876   490.6    6.549      50.212
2015    5       26     5  44    5.4847   490.8    6.542      50.219
2015    5       26     5  50    5.4817   491.0    6.534      50.226
2015    5       26     5  56    5.4788   491.2    6.527      50.233
2015    5       26     6   2    5.4759   491.4    6.519      50.240
2015    5       26     6   9    5.4729   491.6    6.512      50.247
2015    5       26     6  15    5.4700   491.8    6.504      50.254
2015    5       26     6  21    5.4671   491.9    6.497      50.261
2015    5       26     6  27    5.4642   492.1    6.489      50.267
2015    5       26     6  33    5.4612   492.3    6.482      50.274
2015    5       26     6  39    5.4583   492.5    6.474      50.281
2015    5       26     6  45    5.4554   492.7    6.467      50.287
2015    5       26     6  51    5.4525   492.9    6.459      50.294
2015    5       26     6  58    5.4497   493.0    6.452      50.301
2015    5       26     7   4    5.4468   493.2    6.444      50.307
2015    5       26     7  10    5.4440   493.4    6.436      50.314
2015    5       26     7  16    5.4411   493.6    6.429      50.321
2015    5       26     7  22    5.4383   493.8    6.421      50.328
2015    5       26     7  28    5.4355   493.9    6.414      50.334
2015    5       26     7  34    5.4327   494.1    6.406      50.341
2015    5       26     7  40    5.4299   494.3    6.398      50.348
2015    5       26     7  46    5.4271   494.5    6.391      50.355
2015    5       26     7  53    5.4243   494.7    6.383      50.362
2015    5       26     7  59    5.4216   494.8    6.376      50.369
2015    5       26     8   5    5.4188   495.0    6.368      50.376
2015    5       26     8  11    5.4161   495.2    6.361      50.383
2015    5       26     8  17    5.4134   495.4    6.353      50.390
2015    5       26     8  23    5.4108   495.5    6.346      50.397
2015    5       26     8  29    5.4081   495.7    6.338      50.404
2015    5       26     8  35    5.4054   495.9    6.331      50.411
2015    5       26     8  42    5.4028   496.1    6.324      50.418
2015    5       26     8  48    5.4002   496.2    6.316      50.425
2015    5       26     8  54    5.3976   496.4    6.309      50.432
2015    5       26     9   0    5.3950   496.6    6.302      50.439
2015    5       26     9   6    5.3925   496.8    6.295      50.447
2015    5       26     9  12    5.3899   497.0    6.288      50.454
2015    5       26     9  18    5.3874   497.1    6.281      50.461
2015    5       26     9  24    5.3849   497.3    6.274      50.468
2015    5       26     9  31    5.3824   497.5    6.267      50.475
2015    5       26     9  37    5.3799   497.7    6.260      50.483
2015    5       26     9  43    5.3774   497.8    6.253      50.490
2015    5       26     9  49    5.3750   498.0    6.246      50.497
2015    5       26     9  55    5.3725   498.2    6.240      50.504
2015    5       26    10   1    5.3700   498.4    6.233      50.511
2015    5       26    10   7    5.3676   498.5    6.226      50.518
2015    5       26    10  13    5.3651   498.7    6.220      50.525
2015    5       26    10  20    5.3627   498.9    6.213      50.532
2015    5       26    10  26    5.3602   499.1    6.207      50.539
2015    5       26    10  32    5.3578   499.2    6.201      50.546
2015    5       26    10  38    5.3553   499.4    6.194      50.553
2015    5       26    10  44    5.3529   499.6    6.188      50.559
2015    5       26    10  50    5.3504   499.8    6.182      50.566
2015    5       26    10  56    5.3480   499.9    6.175      50.573
2015    5       26    11   2    5.3455   500.1    6.169      50.580
2015    5       26    11   8    5.3431   500.3    6.163      50.586
2015    5       26    11  15    5.3406   500.5    6.157      50.593
2015    5       26    11  21    5.3381   500.6    6.151      50.599
2015    5       26    11  27    5.3357   500.8    6.144      50.605
2015    5       26    11  33    5.3332   501.0    6.138      50.612
2015    5       26    11  39    5.3307   501.2    6.132      50.618
2015    5       26    11  45    5.3282   501.3    6.126      50.624
2015    5       26    11  51    5.3257   501.5    6.120      50.630
2015    5       26    11  57    5.3232   501.7    6.114      50.636
2015    5       26    12   4    5.3208   501.9    6.108      50.643
2015    5       26    12  10    5.3183   502.0    6.101      50.649
2015    5       26    12  16    5.3158   502.2    6.095      50.655
2015    5       26    12  22    5.3133   502.4    6.089      50.661
2015    5       26    12  28    5.3108   502.6    6.083      50.667
2015    5       26    12  34    5.3083   502.7    6.077      50.674
2015    5       26    12  40    5.3058   502.9    6.071      50.680
2015    5       26    12  46    5.3033   503.1    6.064      50.686
2015    5       26    12  53    5.3008   503.3    6.058      50.692
2015    5       26    12  59    5.2983   503.4    6.052      50.699
2015    5       26    13   5    5.2959   503.6    6.046      50.705
2015    5       26    13  11    5.2934   503.8    6.040      50.712
2015    5       26    13  17    5.2909   503.9    6.033      50.718
2015    5       26    13  23    5.2885   504.1    6.027      50.725
2015    5       26    13  29    5.2860   504.3    6.021      50.732
2015    5       26    13  35    5.2836   504.4    6.015      50.739
2015    5       26    13  41    5.2812   504.6    6.008      50.746
2015    5       26    13  48    5.2788   504.8    6.002      50.754
2015    5       26    13  54    5.2764   504.9    5.996      50.761
2015    5       26    14   0    5.2740   505.1    5.990      50.768
2015    5       26    14   6    5.2716   505.3    5.983      50.776
2015    5       26    14  12    5.2693   505.4    5.977      50.784
2015    5       26    14  18    5.2669   505.6    5.971      50.792
2015    5       26    14  24    5.2646   505.8    5.965      50.800
2015    5       26    14  30    5.2623   505.9    5.958      50.808
2015    5       26    14  37    5.2600   506.1    5.952      50.817
2015    5       26    14  43    5.2577   506.3    5.946      50.825
2015    5       26    14  49    5.2555   506.4    5.940      50.834
2015    5       26    14  55    5.2532   506.6    5.934      50.842
2015    5       26    15   1    5.2510   506.8    5.928      50.851
2015    5       26    15   7    5.2488   506.9    5.922      50.860
2015    5       26    15  13    5.2466   507.1    5.915      50.869
2015    5       26    15  19    5.2444   507.3    5.909      50.878
2015    5       26    15  26    5.2423   507.4    5.903      50.887
2015    5       26    15  32    5.2401   507.6    5.898      50.896
2015    5       26    15  38    5.2380   507.8    5.892      50.905
2015    5       26    15  44    5.2359   507.9    5.886      50.914
2015    5       26    15  50    5.2338   508.1    5.880      50.923
2015    5       26    15  56    5.2317   508.3    5.874      50.933
2015    5       26    16   2    5.2296   508.4    5.868      50.942
2015    5       26    16   8    5.2276   508.6    5.863      50.951
2015    5       26    16  14    5.2256   508.8    5.857      50.960
2015    5       26    16  21    5.2235   508.9    5.851      50.969
2015    5       26    16  27    5.2215   509.1    5.846      50.979
2015    5       26    16  33    5.2195   509.2    5.840      50.988
2015    5       26    16  39    5.2175   509.4    5.835      50.997
2015    5       26    16  45    5.2155   509.6    5.829      51.006
2015    5       26    16  51    5.2135   509.7    5.824      51.015
2015    5       26    16  57    5.2115   509.9    5.818      51.024
2015    5       26    17   3    5.2095   510.1    5.813      51.033
2015    5       26    17  10    5.2075   510.2    5.808      51.041
2015    5       26    17  16    5.2054   510.4    5.802      51.050
2015    5       26    17  22    5.2034   510.6    5.797      51.059
2015    5       26    17  28    5.2014   510.7    5.792      51.067
2015    5       26    17  34    5.1994   510.9    5.786      51.076
2015    5       26    17  40    5.1974   511.0    5.781      51.084
2015    5       26    17  46    5.1954   511.2    5.776      51.093
2015    5       26    17  52    5.1933   511.4    5.771      51.101
2015    5       26    17  59    5.1913   511.5    5.765      51.109
2015    5       26    18   5    5.1893   511.7    5.760      51.117
2015    5       26    18  11    5.1872   511.9    5.755      51.125
2015    5       26    18  17    5.1852   512.0    5.750      51.133
2015    5       26    18  23    5.1832   512.2    5.745      51.141
2015    5       26    18  29    5.1811   512.4    5.740      51.149
2015    5       26    18  35    5.1791   512.5    5.734      51.157
2015    5       26    18  41    5.1770   512.7    5.729      51.165
2015    5       26    18  48    5.1750   512.8    5.724      51.173
2015    5       26    18  54    5.1730   513.0    5.719      51.180
2015    5       26    19   0    5.1709   513.2    5.714      51.188
2015    5       26    19   6    5.1689   513.3    5.708      51.196
2015    5       26    19  12    5.1669   513.5    5.703      51.204
2015    5       26    19  18    5.1649   513.7    5.698      51.212
2015    5       26    19  24    5.1628   513.8    5.693      51.221
2015    5       26    19  30    5.1608   514.0    5.688      51.229
2015    5       26    19  36    5.1588   514.2    5.682      51.237
2015    5       26    19  43    5.1568   514.3    5.677      51.246
2015    5       26    19  49    5.1548   514.5    5.672      51.254
2015    5       26    19  55    5.1528   514.6    5.667      51.263
2015    5       26    20   1    5.1508   514.8    5.662      51.272
2015    5       26    20   7    5.1489   515.0    5.656      51.281
2015    5       26    20  13    5.1469   515.1    5.651      51.290
2015    5       26    20  19    5.1450   515.3    5.646      51.300
2015    5       26    20  25    5.1430   515.5    5.641      51.309
2015    5       26    20  32    5.1411   515.6    5.636      51.319
2015    5       26    20  38    5.1392   515.8    5.631      51.329
2015    5       26    20  44    5.1373   515.9    5.626      51.340
2015    5       26    20  50    5.1354   516.1    5.621      51.350
2015    5       26    20  56    5.1335   516.3    5.615      51.361
2015    5       26    21   2    5.1316   516.4    5.610      51.371
2015    5       26    21   8    5.1298   516.6    5.605      51.382
2015    5       26    21  14    5.1280   516.7    5.600      51.394
2015    5       26    21  21    5.1261   516.9    5.595      51.405
2015    5       26    21  27    5.1243   517.1    5.590      51.416
2015    5       26    21  33    5.1225   517.2    5.585      51.428
2015    5       26    21  39    5.1207   517.4    5.581      51.439
2015    5       26    21  45    5.1189   517.6    5.576      51.451
2015    5       26    21  51    5.1172   517.7    5.571      51.463
2015    5       26    21  57    5.1155   517.9    5.566      51.475
2015    5       26    22   3    5.1137   518.0    5.561      51.487
2015    5       26    22   9    5.1120   518.2    5.556      51.499
2015    5       26    22  16    5.1103   518.4    5.551      51.511
2015    5       26    22  22    5.1086   518.5    5.547      51.523
2015    5       26    22  28    5.1069   518.7    5.542      51.535
2015    5       26    22  34    5.1052   518.8    5.537      51.548
2015    5       26    22  40    5.1036   519.0    5.532      51.560
2015    5       26    22  46    5.1019   519.2    5.528      51.572
2015    5       26    22  52    5.1003   519.3    5.523      51.584
2015    5       26    22  58    5.0987   519.5    5.518      51.596
2015    5       26    23   5    5.0971   519.7    5.514      51.609
2015    5       26    23  11    5.0954   519.8    5.509      51.621
2015    5       26    23  17    5.0938   520.0    5.504      51.633
2015    5       26    23  23    5.0922   520.1    5.500      51.645
2015    5       26    23  29    5.0906   520.3    5.495      51.657
2015    5       26    23  35    5.0890   520.5    5.491      51.669
2015    5       26    23  41    5.0874   520.6    5.486      51.681
2015    5       26    23  47    5.0858   520.8    5.482      51.693
2015    5       26    23  54    5.0843   521.0    5.477      51.705
2015    5       27     0   0    5.0827   521.1    5.473      51.717
2015    5       27     0   6    5.0811   521.3    5.468      51.729
2015    5       27     0  12    5.0795   521.4    5.464      51.741
2015    5       27     0  18    5.0779   521.6    5.459      51.752
2015    5       27     0  24    5.0763   521.8    5.455      51.764
2015    5       27     0  30    5.0747   521.9    5.450      51.776
2015    5       27     0  36    5.0731   522.1    5.446      51.788
2015    5       27     0  42    5.0716   522.2    5.441      51.799
2015    5       27     0  49    5.0700   522.4    5.437      51.811
2015    5       27     0  55    5.0684   522.6    5.432      51.822
2015    5       27     1   1    5.0668   522.7    5.428      51.834
2015    5       27     1   7    5.0652   522.9    5.423      51.846
2015    5       27     1  13    5.0636   523.1    5.419      51.857
2015    5       27     1  19    5.0620   523.2    5.414      51.869
2015    5       27     1  25    5.0604   523.4    5.410      51.881
2015    5       27     1  31    5.0588   523.5    5.405      51.892
2015    5       27     1  38    5.0572   523.7    5.401      51.904
2015    5       27     1  44    5.0556   523.9    5.396      51.916
2015    5       27     1  50    5.0540   524.0    5.392      51.928
2015    5       27     1  56    5.0524   524.2    5.387      51.940
2015    5       27     2   2    5.0508   524.4    5.383      51.952
2015    5       27     2   8    5.0492   524.5    5.379      51.964
2015    5       27     2  14    5.0476   524.7    5.374      51.977
2015    5       27     2  20    5.0460   524.8    5.370      51.989
2015    5       27     2  27    5.0445   525.0    5.365      52.001
2015    5       27     2  33    5.0429   525.2    5.361      52.014
2015    5       27     2  39    5.0413   525.3    5.356      52.027
2015    5       27     2  45    5.0397   525.5    5.352      52.039
2015    5       27     2  51    5.0382   525.6    5.348      52.052
2015    5       27     2  57    5.0366   525.8    5.343      52.066
2015    5       27     3   3    5.0351   526.0    5.339      52.079
2015    5       27     3   9    5.0335   526.1    5.335      52.092
2015    5       27     3  15    5.0320   526.3    5.330      52.105
2015    5       27     3  22    5.0304   526.5    5.326      52.119
2015    5       27     3  28    5.0289   526.6    5.321      52.133
2015    5       27     3  34    5.0274   526.8    5.317      52.147
2015    5       27     3  40    5.0259   526.9    5.313      52.160
2015    5       27     3  46    5.0244   527.1    5.309      52.175
2015    5       27     3  52    5.0229   527.3    5.304      52.189
2015    5       27     3  58    5.0214   527.4    5.300      52.203
2015    5       27     4   4    5.0199   527.6    5.296      52.217
2015    5       27     4  11    5.0185   527.8    5.291      52.232
2015    5       27     4  17    5.0171   527.9    5.287      52.246
2015    5       27     4  23    5.0156   528.1    5.283      52.261
2015    5       27     4  29    5.0142   528.2    5.279      52.276
2015    5       27     4  35    5.0128   528.4    5.274      52.291
2015    5       27     4  41    5.0114   528.6    5.270      52.306
2015    5       27     4  47    5.0100   528.7    5.266      52.321
2015    5       27     4  53    5.0086   528.9    5.262      52.336
2015    5       27     5   0    5.0072   529.1    5.258      52.351
2015    5       27     5   6    5.0058   529.2    5.254      52.366
2015    5       27     5  12    5.0045   529.4    5.250      52.381
2015    5       27     5  18    5.0031   529.6    5.245      52.396
2015    5       27     5  24    5.0018   529.7    5.241      52.412
2015    5       27     5  30    5.0004   529.9    5.237      52.427
2015    5       27     5  36    4.9991   530.1    5.233      52.443
2015    5       27     5  42    4.9978   530.2    5.229      52.458
2015    5       27     5  49    4.9965   530.4    5.225      52.474
2015    5       27     5  55    4.9951   530.6    5.221      52.489
2015    5       27     6   1    4.9938   530.7    5.217      52.505
2015    5       27     6   7    4.9925   530.9    5.213      52.520
2015    5       27     6  13    4.9912   531.1    5.209      52.536
2015    5       27     6  19    4.9899   531.2    5.205      52.552
2015    5       27     6  25    4.9886   531.4    5.201      52.568
2015    5       27     6  31    4.9874   531.6    5.197      52.583
2015    5       27     6  37    4.9861   531.7    5.194      52.599
2015    5       27     6  44    4.9848   531.9    5.190      52.615
2015    5       27     6  50    4.9835   532.1    5.186      52.631
2015    5       27     6  56    4.9822   532.2    5.182      52.647
2015    5       27     7   2    4.9810   532.4    5.178      52.663
2015    5       27     7   8    4.9797   532.6    5.174      52.679
2015    5       27     7  14    4.9784   532.7    5.170      52.695
2015    5       27     7  20    4.9771   532.9    5.167      52.711
2015    5       27     7  26    4.9759   533.1    5.163      52.727
2015    5       27     7  33    4.9746   533.2    5.159      52.744
2015    5       27     7  39    4.9733   533.4    5.155      52.760
2015    5       27     7  45    4.9720   533.6    5.151      52.776
2015    5       27     7  51    4.9707   533.7    5.147      52.793
2015    5       27     7  57    4.9694   533.9    5.144      52.809
2015    5       27     8   3    4.9681   534.1    5.140      52.826
2015    5       27     8   9    4.9668   534.3    5.136      52.843
2015    5       27     8  15    4.9655   534.4    5.132      52.859
2015    5       27     8  22    4.9642   534.6    5.128      52.876
2015    5       27     8  28    4.9629   534.8    5.125      52.893
2015    5       27     8  34    4.9616   534.9    5.121      52.910
2015    5       27     8  40    4.9603   535.1    5.117      52.927
2015    5       27     8  46    4.9589   535.3    5.113      52.944
2015    5       27     8  52    4.9576   535.4    5.109      52.961
2015    5       27     8  58    4.9563   535.6    5.106      52.979
2015    5       27     9   4    4.9550   535.8    5.102      52.996
2015    5       27     9  10    4.9536   536.0    5.098      53.014
2015    5       27     9  17    4.9523   536.1    5.094      53.032
2015    5       27     9  23    4.9510   536.3    5.090      53.050
2015    5       27     9  29    4.9496   536.5    5.086      53.068
2015    5       27     9  35    4.9483   536.6    5.083      53.086
2015    5       27     9  41    4.9469   536.8    5.079      53.104
2015    5       27     9  47    4.9456   537.0    5.075      53.123
2015    5       27     9  53    4.9442   537.2    5.071      53.141
2015    5       27     9  59    4.9429   537.3    5.067      53.159
2015    5       27    10   6    4.9415   537.5    5.063      53.177
2015    5       27    10  12    4.9402   537.7    5.059      53.195
2015    5       27    10  18    4.9388   537.8    5.055      53.213
2015    5       27    10  24    4.9375   538.0    5.051      53.231
2015    5       27    10  30    4.9361   538.2    5.047      53.249
2015    5       27    10  36    4.9348   538.4    5.043      53.267
2015    5       27    10  42    4.9335   538.5    5.039      53.285
2015    5       27    10  48    4.9321   538.7    5.035      53.303
2015    5       27    10  55    4.9308   538.9    5.031      53.321
2015    5       27    11   1    4.9295   539.1    5.028      53.338
2015    5       27    11   7    4.9282   539.2    5.024      53.356
2015    5       27    11  13    4.9270   539.4    5.020      53.374
2015    5       27    11  19    4.9257   539.6    5.016      53.393
2015    5       27    11  25    4.9245   539.8    5.012      53.412
2015    5       27    11  31    4.9232   539.9    5.008      53.431
2015    5       27    11  37    4.9219   540.1    5.004      53.450
2015    5       27    11  44    4.9207   540.3    5.000      53.469
2015    5       27    11  50    4.9194   540.5    4.996      53.488
2015    5       27    11  56    4.9182   540.6    4.992      53.507
2015    5       27    12   2    4.9169   540.8    4.988      53.525
2015    5       27    12   8    4.9156   541.0    4.984      53.543
2015    5       27    12  14    4.9143   541.2    4.980      53.561
2015    5       27    12  20    4.9130   541.4    4.975      53.578
2015    5       27    12  26    4.9117   541.5    4.971      53.596
2015    5       27    12  32    4.9104   541.7    4.967      53.612
2015    5       27    12  39    4.9092   541.9    4.963      53.629
2015    5       27    12  45    4.9079   542.1    4.958      53.645
2015    5       27    12  51    4.9066   542.3    4.954      53.662
2015    5       27    12  57    4.9053   542.4    4.950      53.678
2015    5       27    13   3    4.9040   542.6    4.946      53.694
2015    5       27    13   9    4.9027   542.8    4.941      53.709
2015    5       27    13  15    4.9014   543.0    4.937      53.725
2015    5       27    13  21    4.9001   543.1    4.933      53.740
2015    5       27    13  28    4.8988   543.3    4.929      53.756
2015    5       27    13  34    4.8975   543.5    4.924      53.771
2015    5       27    13  40    4.8962   543.7    4.920      53.786
2015    5       27    13  46    4.8949   543.9    4.916      53.801
2015    5       27    13  52    4.8936   544.0    4.912      53.816
2015    5       27    13  58    4.8923   544.2    4.908      53.831
2015    5       27    14   4    4.8910   544.4    4.903      53.847
2015    5       27    14  10    4.8897   544.6    4.899      53.862
2015    5       27    14  17    4.8884   544.8    4.895      53.877
2015    5       27    14  23    4.8871   544.9    4.891      53.892
2015    5       27    14  29    4.8858   545.1    4.887      53.908
2015    5       27    14  35    4.8845   545.3    4.883      53.923
2015    5       27    14  41    4.8831   545.5    4.879      53.939
2015    5       27    14  47    4.8818   545.7    4.875      53.954
2015    5       27    14  53    4.8805   545.8    4.871      53.970
2015    5       27    14  59    4.8791   546.0    4.867      53.986
2015    5       27    15   5    4.8778   546.2    4.863      54.003
2015    5       27    15  12    4.8764   546.4    4.859      54.020
2015    5       27    15  18    4.8750   546.6    4.855      54.036
2015    5       27    15  24    4.8736   546.8    4.851      54.054
2015    5       27    15  30    4.8723   546.9    4.847      54.071
2015    5       27    15  36    4.8709   547.1    4.843      54.088
2015    5       27    15  42    4.8695   547.3    4.839      54.106
2015    5       27    15  48    4.8680   547.5    4.835      54.124
2015    5       27    15  54    4.8666   547.7    4.831      54.142
2015    5       27    16   1    4.8652   547.8    4.827      54.160
2015    5       27    16   7    4.8637   548.0    4.823      54.178
2015    5       27    16  13    4.8623   548.2    4.819      54.197
2015    5       27    16  19    4.8608   548.4    4.815      54.215
2015    5       27    16  25    4.8594   548.6    4.811      54.234
2015    5       27    16  31    4.8579   548.8    4.807      54.253
2015    5       27    16  37    4.8564   548.9    4.804      54.272
2015    5       27    16  43    4.8549   549.1    4.800      54.291
2015    5       27    16  50    4.8534   549.3    4.796      54.311
2015    5       27    16  56    4.8519   549.5    4.792      54.330
2015    5       27    17   2    4.8503   549.7    4.788      54.349
2015    5       27    17   8    4.8488   549.8    4.784      54.368
2015    5       27    17  14    4.8473   550.0    4.780      54.387
2015    5       27    17  20    4.8457   550.2    4.776      54.406
2015    5       27    17  26    4.8442   550.4    4.772      54.425
2015    5       27    17  32    4.8426   550.6    4.768      54.443
2015    5       27    17  38    4.8410   550.8    4.763      54.461
2015    5       27    17  45    4.8395   550.9    4.759      54.479
2015    5       27    17  51    4.8379   551.1    4.755      54.497
2015    5       27    17  57    4.8363   551.3    4.751      54.515
2015    5       27    18   3    4.8347   551.5    4.747      54.533
2015    5       27    18   9    4.8332   551.7    4.743      54.551
2015    5       27    18  15    4.8316   551.8    4.739      54.568
2015    5       27    18  21    4.8301   552.0    4.735      54.586
2015    5       27    18  27    4.8285   552.2    4.731      54.604
2015    5       27    18  34    4.8269   552.4    4.727      54.622
2015    5       27    18  40    4.8254   552.6    4.723      54.641
2015    5       27    18  46    4.8238   552.8    4.718      54.659
2015    5       27    18  52    4.8222   552.9    4.714      54.678
2015    5       27    18  58    4.8206   553.1    4.710      54.696
2015    5       27    19   4    4.8190   553.3    4.706      54.713
2015    5       27    19  10    4.8174   553.5    4.701      54.730
2015    5       27    19  16    4.8157   553.7    4.697      54.747
2015    5       27    19  23    4.8140   553.9    4.693      54.764
2015    5       27    19  29    4.8124   554.1    4.688      54.780
2015    5       27    19  35    4.8107   554.2    4.684      54.795
2015    5       27    19  41    4.8090   554.4    4.679      54.811
2015    5       27    19  47    4.8073   554.6    4.675      54.826
2015    5       27    19  53    4.8056   554.8    4.670      54.840
2015    5       27    19  59    4.8039   555.0    4.666      54.854
2015    5       27    20   5    4.8022   555.2    4.661      54.868
2015    5       27    20  11    4.8004   555.3    4.657      54.882
2015    5       27    20  18    4.7987   555.5    4.652      54.895
2015    5       27    20  24    4.7970   555.7    4.647      54.908
2015    5       27    20  30    4.7952   555.9    4.643      54.920
2015    5       27    20  36    4.7935   556.1    4.638      54.933
2015    5       27    20  42    4.7917   556.3    4.634      54.945
2015    5       27    20  48    4.7900   556.4    4.629      54.957
2015    5       27    20  54    4.7882   556.6    4.624      54.968
2015    5       27    21   0    4.7864   556.8    4.620      54.980
2015    5       27    21   7    4.7847   557.0    4.615      54.992
2015    5       27    21  13    4.7829   557.2    4.611      55.003
2015    5       27    21  19    4.7811   557.3    4.606      55.014
2015    5       27    21  25    4.7794   557.5    4.601      55.026
2015    5       27    21  31    4.7776   557.7    4.597      55.037
2015    5       27    21  37    4.7758   557.9    4.592      55.048
2015    5       27    21  43    4.7740   558.1    4.588      55.059
2015    5       27    21  49    4.7722   558.2    4.583      55.071
2015    5       27    21  56    4.7704   558.4    4.579      55.083
2015    5       27    22   2    4.7687   558.6    4.575      55.094
2015    5       27    22   8    4.7668   558.8    4.570      55.106
2015    5       27    22  14    4.7650   559.0    4.566      55.119
2015    5       27    22  20    4.7632   559.1    4.561      55.131
2015    5       27    22  26    4.7614   559.3    4.557      55.144
2015    5       27    22  32    4.7596   559.5    4.553      55.156
2015    5       27    22  38    4.7578   559.7    4.549      55.169
2015    5       27    22  44    4.7560   559.9    4.544      55.183
2015    5       27    22  51    4.7541   560.0    4.540      55.196
2015    5       27    22  57    4.7523   560.2    4.536      55.210
2015    5       27    23   3    4.7504   560.4    4.531      55.224
2015    5       27    23   9    4.7486   560.6    4.527      55.238
2015    5       27    23  15    4.7467   560.8    4.523      55.252
2015    5       27    23  21    4.7448   560.9    4.519      55.266
2015    5       27    23  27    4.7429   561.1    4.515      55.281
2015    5       27    23  33    4.7410   561.3    4.511      55.295
2015    5       27    23  40    4.7391   561.5    4.506      55.310
2015    5       27    23  46    4.7371   561.7    4.502      55.324
2015    5       27    23  52    4.7352   561.8    4.498      55.339
2015    5       27    23  58    4.7332   562.0    4.494      55.353
2015    5       28     0   4    4.7312   562.2    4.490      55.368
2015    5       28     0  10    4.7293   562.4    4.486      55.382
2015    5       28     0  16    4.7273   562.5    4.482      55.397
2015    5       28     0  22    4.7252   562.7    4.477      55.411
2015    5       28     0  29    4.7232   562.9    4.473      55.426
2015    5       28     0  35    4.7212   563.1    4.469      55.440
2015    5       28     0  41    4.7192   563.2    4.465      55.454
2015    5       28     0  47    4.7171   563.4    4.461      55.468
2015    5       28     0  53    4.7151   563.6    4.457      55.482
2015    5       28     0  59    4.7130   563.7    4.453      55.496
2015    5       28     1   5    4.7110   563.9    4.449      55.510
2015    5       28     1  11    4.7089   564.1    4.445      55.524
2015    5       28     1  17    4.7069   564.3    4.441      55.538
2015    5       28     1  24    4.7048   564.4    4.437      55.551
2015    5       28     1  30    4.7027   564.6    4.433      55.565
2015    5       28     1  36    4.7006   564.8    4.429      55.579
2015    5       28     1  42    4.6985   564.9    4.425      55.592
2015    5       28     1  48    4.6964   565.1    4.421      55.605
2015    5       28     1  54    4.6944   565.3    4.417      55.619
2015    5       28     2   0    4.6923   565.4    4.413      55.632
2015    5       28     2   6    4.6902   565.6    4.409      55.645
2015    5       28     2  13    4.6881   565.8    4.405      55.658
2015    5       28     2  19    4.6860   565.9    4.402      55.671
2015    5       28     2  25    4.6839   566.1    4.398      55.684
2015    5       28     2  31    4.6818   566.3    4.394      55.696
2015    5       28     2  37    4.6796   566.4    4.390      55.709
2015    5       28     2  43    4.6775   566.6    4.386      55.721
2015    5       28     2  49    4.6754   566.8    4.382      55.733
2015    5       28     2  55    4.6733   566.9    4.378      55.745
2015    5       28     3   2    4.6711   567.1    4.374      55.756
2015    5       28     3   8    4.6690   567.3    4.370      55.767
2015    5       28     3  14    4.6668   567.4    4.366      55.778
2015    5       28     3  20    4.6647   567.6    4.362      55.789
2015    5       28     3  26    4.6625   567.7    4.359      55.800
2015    5       28     3  32    4.6604   567.9    4.355      55.810
2015    5       28     3  38    4.6582   568.1    4.351      55.820
2015    5       28     3  44    4.6561   568.2    4.347      55.830
2015    5       28     3  51    4.6539   568.4    4.343      55.839
2015    5       28     3  57    4.6517   568.5    4.339      55.849
2015    5       28     4   3    4.6495   568.7    4.335      55.858
2015    5       28     4   9    4.6474   568.9    4.331      55.867
2015    5       28     4  15    4.6452   569.0    4.327      55.875
2015    5       28     4  21    4.6430   569.2    4.323      55.884
2015    5       28     4  27    4.6408   569.3    4.319      55.892
2015    5       28     4  33    4.6386   569.5    4.314      55.901
2015    5       28     4  39    4.6364   569.6    4.310      55.909
2015    5       28     4  46    4.6342   569.8    4.306      55.917
2015    5       28     4  52    4.6320   569.9    4.302      55.924
2015    5       28     4  58    4.6298   570.1    4.298      55.932
2015    5       28     5   4    4.6276   570.3    4.294      55.939
2015    5       28     5  10    4.6254   570.4    4.290      55.946
2015    5       28     5  16    4.6232   570.6    4.286      55.953
2015    5       28     5  22    4.6210   570.7    4.282      55.960
2015    5       28     5  28    4.6188   570.9    4.278      55.967
2015    5       28     5  35    4.6166   571.0    4.274      55.974
2015    5       28     5  41    4.6144   571.2    4.270      55.980
2015    5       28     5  47    4.6122   571.3    4.266      55.987
2015    5       28     5  53    4.6100   571.5    4.262      55.993
2015    5       28     5  59    4.6078   571.6    4.258      55.999
2015    5       28     6   5    4.6056   571.8    4.254      56.005
2015    5       28     6  11    4.6034   571.9    4.250      56.012
2015    5       28     6  17    4.6012   572.1    4.246      56.018
2015    5       28     6  24    4.5990   572.2    4.242      56.024
2015    5       28     6  30    4.5968   572.4    4.238      56.030
2015    5       28     6  36    4.5946   572.5    4.234      56.036
2015    5       28     6  42    4.5923   572.7    4.230      56.042
2015    5       28     6  48    4.5901   572.8    4.226      56.048
2015    5       28     6  54    4.5879   573.0    4.222      56.054
2015    5       28     7   0    4.5856   573.1    4.218      56.059
2015    5       28     7   6    4.5833   573.3    4.214      56.065
2015    5       28     7  12    4.5810   573.4    4.210      56.071
2015    5       28     7  19    4.5787   573.5    4.206      56.076
2015    5       28     7  25    4.5764   573.7    4.203      56.082
2015    5       28     7  31    4.5741   573.8    4.199      56.087
2015    5       28     7  37    4.5718   574.0    4.195      56.093
2015    5       28     7  43    4.5695   574.1    4.191      56.098
2015    5       28     7  49    4.5671   574.3    4.187      56.103
2015    5       28     7  55    4.5648   574.4    4.183      56.108
2015    5       28     8   1    4.5625   574.6    4.179      56.114
2015    5       28     8   8    4.5601   574.7    4.175      56.119
2015    5       28     8  14    4.5578   574.8    4.171      56.124
2015    5       28     8  20    4.5554   575.0    4.168      56.129
2015    5       28     8  26    4.5530   575.1    4.164      56.134
2015    5       28     8  32    4.5507   575.2    4.160      56.139
2015    5       28     8  38    4.5483   575.4    4.156      56.144
2015    5       28     8  44    4.5459   575.5    4.152      56.149
2015    5       28     8  50    4.5436   575.7    4.149      56.155
2015    5       28     8  57    4.5412   575.8    4.145      56.160
2015    5       28     9   3    4.5388   575.9    4.141      56.165
2015    5       28     9   9    4.5365   576.1    4.138      56.171
2015    5       28     9  15    4.5341   576.2    4.134      56.176
2015    5       28     9  21    4.5317   576.3    4.131      56.182
2015    5       28     9  27    4.5294   576.5    4.127      56.188
2015    5       28     9  33    4.5270   576.6    4.124      56.193
2015    5       28     9  39    4.5247   576.7    4.120      56.199
2015    5       28     9  45    4.5223   576.8    4.117      56.205
2015    5       28     9  52    4.5199   577.0    4.113      56.211
2015    5       28     9  58    4.5176   577.1    4.110      56.217
2015    5       28    10   4    4.5153   577.2    4.107      56.223
2015    5       28    10  10    4.5129   577.4    4.104      56.229
2015    5       28    10  16    4.5106   577.5    4.100      56.235
2015    5       28    10  22    4.5083   577.6    4.097      56.241
2015    5       28    10  28    4.5059   577.7    4.094      56.247
2015    5       28    10  34    4.5036   577.9    4.091      56.253
2015    5       28    10  41    4.5013   578.0    4.087      56.258
2015    5       28    10  47    4.4990   578.1    4.084      56.264
2015    5       28    10  53    4.4966   578.2    4.081      56.270
2015    5       28    10  59    4.4943   578.4    4.078      56.275
2015    5       28    11   5    4.4920   578.5    4.075      56.280
2015    5       28    11  11    4.4897   578.6    4.072      56.284
2015    5       28    11  17    4.4874   578.7    4.068      56.289
2015    5       28    11  23    4.4851   578.8    4.065      56.293
2015    5       28    11  30    4.4829   579.0    4.062      56.297
2015    5       28    11  36    4.4806   579.1    4.059      56.301
2015    5       28    11  42    4.4783   579.2    4.056      56.304
2015    5       28    11  48    4.4760   579.3    4.052      56.308
2015    5       28    11  54    4.4737   579.4    4.049      56.311
2015    5       28    12   0    4.4715   579.5    4.046      56.314
2015    5       28    12   6    4.4692   579.7    4.043      56.316
2015    5       28    12  12    4.4670   579.8    4.039      56.319
2015    5       28    12  18    4.4647   579.9    4.036      56.321
2015    5       28    12  25    4.4624   580.0    4.033      56.323
2015    5       28    12  31    4.4602   580.1    4.030      56.325
2015    5       28    12  37    4.4580   580.2    4.026      56.326
2015    5       28    12  43    4.4557   580.3    4.023      56.328
2015    5       28    12  49    4.4535   580.5    4.020      56.329
2015    5       28    12  55    4.4512   580.6    4.017      56.330
2015    5       28    13   1    4.4490   580.7    4.013      56.331
2015    5       28    13   7    4.4467   580.8    4.010      56.331
2015    5       28    13  14    4.4445   580.9    4.007      56.331
2015    5       28    13  20    4.4422   581.0    4.003      56.331
2015    5       28    13  26    4.4400   581.1    4.000      56.331
2015    5       28    13  32    4.4377   581.2    3.997      56.331
2015    5       28    13  38    4.4355   581.4    3.993      56.330
2015    5       28    13  44    4.4332   581.5    3.990      56.329
2015    5       28    13  50    4.4309   581.6    3.987      56.328
2015    5       28    13  56    4.4287   581.7    3.984      56.327
2015    5       28    14   3    4.4264   581.8    3.980      56.325
2015    5       28    14   9    4.4241   581.9    3.977      56.324
2015    5       28    14  15    4.4218   582.0    3.974      56.322
2015    5       28    14  21    4.4195   582.1    3.970      56.320
2015    5       28    14  27    4.4173   582.2    3.967      56.317
2015    5       28    14  33    4.4150   582.3    3.964      56.315
2015    5       28    14  39    4.4127   582.5    3.960      56.312
2015    5       28    14  45    4.4104   582.6    3.957      56.309
2015    5       28    14  51    4.4081   582.7    3.954      56.307
2015    5       28    14  58    4.4058   582.8    3.951      56.304
2015    5       28    15   4    4.4035   582.9    3.948      56.300
2015    5       28    15  10    4.4011   583.0    3.944      56.297
2015    5       28    15  16    4.3988   583.1    3.941      56.294
2015    5       28    15  22    4.3965   583.2    3.938      56.291
2015    5       28    15  28    4.3942   583.3    3.935      56.288
2015    5       28    15  34    4.3919   583.4    3.932      56.285
2015    5       28    15  40    4.3895   583.5    3.929      56.282
2015    5       28    15  47    4.3872   583.6    3.925      56.279
2015    5       28    15  53    4.3849   583.7    3.922      56.276
2015    5       28    15  59    4.3826   583.8    3.919      56.273
2015    5       28    16   5    4.3802   583.9    3.916      56.270
2015    5       28    16  11    4.3779   584.0    3.913      56.267
2015    5       28    16  17    4.3756   584.1    3.910      56.264
2015    5       28    16  23    4.3733   584.2    3.907      56.261
2015    5       28    16  29    4.3709   584.3    3.904      56.259
2015    5       28    16  36    4.3686   584.4    3.901      56.256
2015    5       28    16  42    4.3663   584.5    3.898      56.254
2015    5       28    16  48    4.3640   584.6    3.896      56.251
2015    5       28    16  54    4.3617   584.7    3.893      56.249
2015    5       28    17   0    4.3594   584.7    3.890      56.246
2015    5       28    17   6    4.3571   584.8    3.887      56.244
2015    5       28    17  12    4.3548   584.9    3.884      56.242
2015    5       28    17  18    4.3525   585.0    3.881      56.239
2015    5       28    17  24    4.3502   585.1    3.878      56.237
2015    5       28    17  31    4.3479   585.2    3.876      56.234
2015    5       28    17  37    4.3456   585.3    3.873      56.232
2015    5       28    17  43    4.3434   585.4    3.870      56.229
2015    5       28    17  49    4.3411   585.5    3.867      56.227
2015    5       28    17  55    4.3389   585.5    3.864      56.224
2015    5       28    18   1    4.3366   585.6    3.862      56.221
2015    5       28    18   7    4.3344   585.7    3.859      56.218
2015    5       28    18  13    4.3321   585.8    3.856      56.215
2015    5       28    18  20    4.3299   585.9    3.853      56.212
2015    5       28    18  26    4.3277   586.0    3.851      56.209
2015    5       28    18  32    4.3255   586.0    3.848      56.206
2015    5       28    18  38    4.3233   586.1    3.845      56.202
2015    5       28    18  44    4.3211   586.2    3.842      56.199
2015    5       28    18  50    4.3189   586.3    3.840      56.195
2015    5       28    18  56    4.3167   586.4    3.837      56.191
2015    5       28    19   2    4.3145   586.4    3.834      56.187
2015    5       28    19   9    4.3124   586.5    3.832      56.182
2015    5       28    19  15    4.3102   586.6    3.829      56.178
2015    5       28    19  21    4.3080   586.7    3.827      56.173
2015    5       28    19  27    4.3058   586.8    3.824      56.169
2015    5       28    19  33    4.3037   586.8    3.821      56.163
2015    5       28    19  39    4.3015   586.9    3.819      56.158
2015    5       28    19  45    4.2994   587.0    3.816      56.153
2015    5       28    19  51    4.2972   587.1    3.814      56.148
2015    5       28    19  57    4.2950   587.1    3.811      56.142
2015    5       28    20   4    4.2929   587.2    3.808      56.136
2015    5       28    20  10    4.2907   587.3    3.806      56.130
2015    5       28    20  16    4.2886   587.3    3.803      56.124
2015    5       28    20  22    4.2864   587.4    3.801      56.118
2015    5       28    20  28    4.2842   587.5    3.798      56.111
2015    5       28    20  34    4.2821   587.6    3.796      56.105
2015    5       28    20  40    4.2799   587.6    3.793      56.098
2015    5       28    20  46    4.2777   587.7    3.791      56.091
2015    5       28    20  53    4.2755   587.8    3.788      56.084
2015    5       28    20  59    4.2734   587.8    3.786      56.077
2015    5       28    21   5    4.2712   587.9    3.783      56.069
2015    5       28    21  11    4.2690   588.0    3.781      56.062
2015    5       28    21  17    4.2668   588.0    3.778      56.054
2015    5       28    21  23    4.2647   588.1    3.776      56.046
2015    5       28    21  29    4.2625   588.2    3.773      56.038
2015    5       28    21  35    4.2603   588.2    3.771      56.030
2015    5       28    21  42    4.2581   588.3    3.768      56.022
2015    5       28    21  48    4.2559   588.3    3.766      56.014
2015    5       28    21  54    4.2537   588.4    3.763      56.006
2015    5       28    22   0    4.2515   588.5    3.761      55.997
2015    5       28    22   6    4.2493   588.5    3.759      55.989
2015    5       28    22  12    4.2471   588.6    3.756      55.980
2015    5       28    22  18    4.2449   588.7    3.754      55.972
2015    5       28    22  24    4.2427   588.7    3.751      55.963
2015    5       28    22  30    4.2405   588.8    3.749      55.955
2015    5       28    22  37    4.2383   588.8    3.746      55.946
2015    5       28    22  43    4.2361   588.9    3.744      55.937
2015    5       28    22  49    4.2339   588.9    3.742      55.928
2015    5       28    22  55    4.2317   589.0    3.739      55.920
2015    5       28    23   1    4.2296   589.0    3.737      55.911
2015    5       28    23   7    4.2274   589.1    3.735      55.902
2015    5       28    23  13    4.2252   589.2    3.732      55.894
2015    5       28    23  19    4.2230   589.2    3.730      55.885
2015    5       28    23  26    4.2209   589.3    3.728      55.877
2015    5       28    23  32    4.2187   589.3    3.725      55.868
2015    5       28    23  38    4.2165   589.4    3.723      55.860
2015    5       28    23  44    4.2144   589.4    3.721      55.851
2015    5       28    23  50    4.2122   589.5    3.719      55.843
2015    5       28    23  56    4.2101   589.5    3.716      55.834
2015    5       29     0   2    4.2079   589.6    3.714      55.826
2015    5       29     0   8    4.2058   589.6    3.712      55.818
2015    5       29     0  15    4.2037   589.7    3.710      55.810
2015    5       29     0  21    4.2016   589.7    3.708      55.802
2015    5       29     0  27    4.1995   589.8    3.706      55.794
2015    5       29     0  33    4.1974   589.8    3.704      55.786
2015    5       29     0  39    4.1953   589.8    3.702      55.778
2015    5       29     0  45    4.1932   589.9    3.700      55.771
2015    5       29     0  51    4.1911   589.9    3.698      55.763
2015    5       29     0  57    4.1890   590.0    3.695      55.755
2015    5       29     1   4    4.1870   590.0    3.693      55.747
2015    5       29     1  10    4.1849   590.1    3.691      55.739
2015    5       29     1  16    4.1828   590.1    3.689      55.732
2015    5       29     1  22    4.1808   590.2    3.688      55.724
2015    5       29     1  28    4.1787   590.2    3.686      55.716
2015    5       29     1  34    4.1767   590.2    3.684      55.708
2015    5       29     1  40    4.1747   590.3    3.682      55.700
2015    5       29     1  46    4.1726   590.3    3.680      55.692
2015    5       29     1  52    4.1706   590.4    3.678      55.684
2015    5       29     1  59    4.1686   590.4    3.676      55.675
2015    5       29     2   5    4.1665   590.4    3.674      55.667
2015    5       29     2  11    4.1645   590.5    3.672      55.658
2015    5       29     2  17    4.1625   590.5    3.670      55.650
2015    5       29     2  23    4.1605   590.6    3.668      55.641
2015    5       29     2  29    4.1585   590.6    3.666      55.632
2015    5       29     2  35    4.1564   590.6    3.664      55.623
2015    5       29     2  41    4.1544   590.7    3.663      55.613
2015    5       29     2  48    4.1524   590.7    3.661      55.604
2015    5       29     2  54    4.1504   590.7    3.659      55.594
2015    5       29     3   0    4.1483   590.8    3.657      55.584
2015    5       29     3   6    4.1463   590.8    3.655      55.574
2015    5       29     3  12    4.1443   590.8    3.653      55.564
2015    5       29     3  18    4.1423   590.9    3.651      55.553
2015    5       29     3  24    4.1402   590.9    3.649      55.543
2015    5       29     3  30    4.1382   590.9    3.647      55.532
2015    5       29     3  36    4.1362   591.0    3.645      55.521
2015    5       29     3  43    4.1341   591.0    3.644      55.510
2015    5       29     3  49    4.1321   591.0    3.642      55.499
2015    5       29     3  55    4.1301   591.1    3.640      55.488
2015    5       29     4   1    4.1280   591.1    3.638      55.476
2015    5       29     4   7    4.1260   591.1    3.636      55.464
2015    5       29     4  13    4.1239   591.2    3.634      55.453
2015    5       29     4  19    4.1219   591.2    3.632      55.441
2015    5       29     4  25    4.1198   591.2    3.630      55.428
2015    5       29     4  32    4.1178   591.2    3.628      55.416
2015    5       29     4  38    4.1158   591.3    3.626      55.404
2015    5       29     4  44    4.1137   591.3    3.624      55.391
2015    5       29     4  50    4.1117   591.3    3.622      55.379
2015    5       29     4  56    4.1096   591.3    3.621      55.366
2015    5       29     5   2    4.1076   591.4    3.619      55.353
2015    5       29     5   8    4.1055   591.4    3.617      55.340
2015    5       29     5  14    4.1035   591.4    3.615      55.327
2015    5       29     5  21    4.1015   591.4    3.613      55.315
2015    5       29     5  27    4.0994   591.5    3.611      55.301
2015    5       29     5  33    4.0974   591.5    3.609      55.288
2015    5       29     5  39    4.0954   591.5    3.607      55.275
2015    5       29     5  45    4.0933   591.5    3.605      55.262
2015    5       29     5  51    4.0913   591.5    3.604      55.249
2015    5       29     5  57    4.0893   591.6    3.602      55.236
2015    5       29     6   3    4.0873   591.6    3.600      55.223
2015    5       29     6  10    4.0853   591.6    3.598      55.210
2015    5       29     6  16    4.0833   591.6    3.596      55.197
2015    5       29     6  22    4.0812   591.6    3.594      55.184
2015    5       29     6  28    4.0793   591.6    3.593      55.170
2015    5       29     6  34    4.0773   591.6    3.591      55.157
2015    5       29     6  40    4.0753   591.7    3.589      55.144
2015    5       29     6  46    4.0733   591.7    3.587      55.132
2015    5       29     6  52    4.0713   591.7    3.586      55.119
2015    5       29     6  58    4.0694   591.7    3.584      55.106
2015    5       29     7   5    4.0674   591.7    3.582      55.093
2015    5       29     7  11    4.0654   591.7    3.580      55.080
2015    5       29     7  17    4.0635   591.7    3.579      55.068
2015    5       29     7  23    4.0615   591.7    3.577      55.055
2015    5       29     7  29    4.0596   591.7    3.576      55.042
2015    5       29     7  35    4.0576   591.8    3.574      55.030
2015    5       29     7  41    4.0557   591.8    3.572      55.018
2015    5       29     7  47    4.0538   591.8    3.571      55.005
2015    5       29     7  54    4.0518   591.8    3.569      54.993
2015    5       29     8   0    4.0499   591.8    3.568      54.980
2015    5       29     8   6    4.0480   591.8    3.566      54.968
2015    5       29     8  12    4.0461   591.8    3.565      54.956
2015    5       29     8  18    4.0442   591.8    3.563      54.944
2015    5       29     8  24    4.0423   591.8    3.562      54.931
2015    5       29     8  30    4.0404   591.8    3.560      54.919
2015    5       29     8  36    4.0384   591.8    3.559      54.907
2015    5       29     8  43    4.0365   591.8    3.557      54.894
2015    5       29     8  49    4.0346   591.8    3.556      54.882
2015    5       29     8  55    4.0327   591.8    3.554      54.870
2015    5       29     9   1    4.0308   591.8    3.553      54.857
2015    5       29     9   7    4.0289   591.8    3.551      54.845
2015    5       29     9  13    4.0270   591.8    3.550      54.832
2015    5       29     9  19    4.0251   591.9    3.549      54.820
2015    5       29     9  25    4.0232   591.9    3.547      54.808
2015    5       29     9  31    4.0213   591.9    3.546      54.795
2015    5       29     9  38    4.0194   591.9    3.544      54.783
2015    5       29     9  44    4.0175   591.9    3.543      54.770
2015    5       29     9  50    4.0156   591.9    3.542      54.758
2015    5       29     9  56    4.0137   591.9    3.540      54.746
2015    5       29    10   2    4.0117   591.9    3.539      54.733
2015    5       29    10   8    4.0098   591.8    3.538      54.721
2015    5       29    10  14    4.0079   591.8    3.536      54.709
2015    5       29    10  20    4.0060   591.8    3.535      54.696
2015    5       29    10  27    4.0041   591.8    3.534      54.684
2015    5       29    10  33    4.0022   591.8    3.532      54.671
2015    5       29    10  39    4.0003   591.8    3.531      54.658
2015    5       29    10  45    3.9983   591.8    3.529      54.645
2015    5       29    10  51    3.9964   591.8    3.528      54.632
2015    5       29    10  57    3.9945   591.8    3.527      54.619
2015    5       29    11   3    3.9926   591.8    3.525      54.606
2015    5       29    11   9    3.9906   591.8    3.524      54.592
2015    5       29    11  16    3.9887   591.8    3.522      54.578
2015    5       29    11  22    3.9867   591.8    3.521      54.564
2015    5       29    11  28    3.9848   591.8    3.519      54.550
2015    5       29    11  34    3.9828   591.8    3.518      54.536
2015    5       29    11  40    3.9808   591.8    3.516      54.521
2015    5       29    11  46    3.9789   591.8    3.515      54.506
2015    5       29    11  52    3.9769   591.8    3.513      54.490
2015    5       29    11  58    3.9749   591.8    3.511      54.475
2015    5       29    12   4    3.9730   591.8    3.510      54.459
2015    5       29    12  11    3.9710   591.8    3.508      54.443
2015    5       29    12  17    3.9690   591.7    3.507      54.426
2015    5       29    12  23    3.9670   591.7    3.505      54.410
2015    5       29    12  29    3.9650   591.7    3.503      54.393
2015    5       29    12  35    3.9630   591.7    3.502      54.376
2015    5       29    12  41    3.9611   591.7    3.500      54.359
2015    5       29    12  47    3.9591   591.7    3.498      54.342
2015    5       29    12  53    3.9571   591.7    3.497      54.324
2015    5       29    13   0    3.9551   591.7    3.495      54.307
2015    5       29    13   6    3.9531   591.6    3.494      54.289
2015    5       29    13  12    3.9512   591.6    3.492      54.272
2015    5       29    13  18    3.9492   591.6    3.490      54.254
2015    5       29    13  24    3.9472   591.6    3.489      54.236
2015    5       29    13  30    3.9453   591.6    3.487      54.218
2015    5       29    13  36    3.9433   591.6    3.486      54.201
2015    5       29    13  42    3.9413   591.5    3.484      54.183
2015    5       29    13  49    3.9394   591.5    3.483      54.165
2015    5       29    13  55    3.9374   591.5    3.481      54.148
2015    5       29    14   1    3.9355   591.5    3.480      54.130
2015    5       29    14   7    3.9335   591.5    3.478      54.113
2015    5       29    14  13    3.9316   591.4    3.477      54.096
2015    5       29    14  19    3.9297   591.4    3.476      54.078
2015    5       29    14  25    3.9278   591.4    3.474      54.061
2015    5       29    14  31    3.9259   591.4    3.473      54.044
2015    5       29    14  37    3.9240   591.3    3.472      54.027
2015    5       29    14  44    3.9221   591.3    3.471      54.010
2015    5       29    14  50    3.9202   591.3    3.469      53.993
2015    5       29    14  56    3.9183   591.3    3.468      53.976
2015    5       29    15   2    3.9164   591.2    3.467      53.959
2015    5       29    15   8    3.9145   591.2    3.466      53.943
2015    5       29    15  14    3.9127   591.2    3.465      53.926
2015    5       29    15  20    3.9108   591.2    3.464      53.909
2015    5       29    15  26    3.9089   591.1    3.463      53.893
2015    5       29    15  33    3.9071   591.1    3.462      53.876
2015    5       29    15  39    3.9052   591.1    3.461      53.860
2015    5       29    15  45    3.9034   591.0    3.460      53.843
2015    5       29    15  51    3.9015   591.0    3.458      53.827
2015    5       29    15  57    3.8997   591.0    3.457      53.810
2015    5       29    16   3    3.8978   590.9    3.456      53.794
2015    5       29    16   9    3.8960   590.9    3.455      53.777
2015    5       29    16  15    3.8942   590.9    3.454      53.761
2015    5       29    16  22    3.8923   590.8    3.453      53.744
2015    5       29    16  28    3.8905   590.8    3.452      53.727
2015    5       29    16  34    3.8886   590.7    3.451      53.711
2015    5       29    16  40    3.8868   590.7    3.450      53.694
2015    5       29    16  46    3.8849   590.7    3.449      53.678
2015    5       29    16  52    3.8831   590.6    3.448      53.661
2015    5       29    16  58    3.8813   590.6    3.447      53.644
2015    5       29    17   4    3.8794   590.6    3.446      53.628
2015    5       29    17  10    3.8776   590.5    3.445      53.611
2015    5       29    17  17    3.8757   590.5    3.444      53.595
2015    5       29    17  23    3.8739   590.4    3.443      53.579
2015    5       29    17  29    3.8720   590.4    3.442      53.562
2015    5       29    17  35    3.8701   590.4    3.441      53.546
2015    5       29    17  41    3.8683   590.3    3.440      53.529
2015    5       29    17  47    3.8664   590.3    3.438      53.513
2015    5       29    17  53    3.8645   590.2    3.437      53.496
2015    5       29    17  59    3.8626   590.2    3.436      53.479
2015    5       29    18   6    3.8608   590.2    3.435      53.462
2015    5       29    18  12    3.8589   590.1    3.434      53.444
2015    5       29    18  18    3.8570   590.1    3.432      53.427
2015    5       29    18  24    3.8551   590.0    3.431      53.409
2015    5       29    18  30    3.8532   590.0    3.430      53.390
2015    5       29    18  36    3.8512   590.0    3.428      53.372
2015    5       29    18  42    3.8493   589.9    3.427      53.353
2015    5       29    18  48    3.8474   589.9    3.426      53.334
2015    5       29    18  55    3.8455   589.8    3.424      53.314
2015    5       29    19   1    3.8435   589.8    3.423      53.294
2015    5       29    19   7    3.8416   589.8    3.421      53.274
2015    5       29    19  13    3.8396   589.7    3.420      53.253
2015    5       29    19  19    3.8377   589.7    3.418      53.232
2015    5       29    19  25    3.8357   589.6    3.417      53.211
2015    5       29    19  31    3.8338   589.6    3.415      53.190
2015    5       29    19  37    3.8318   589.5    3.414      53.168
2015    5       29    19  43    3.8298   589.5    3.412      53.146
2015    5       29    19  50    3.8278   589.4    3.411      53.123
2015    5       29    19  56    3.8258   589.4    3.409      53.101
2015    5       29    20   2    3.8239   589.4    3.407      53.078
2015    5       29    20   8    3.8219   589.3    3.406      53.055
2015    5       29    20  14    3.8199   589.3    3.404      53.032
2015    5       29    20  20    3.8179   589.2    3.403      53.008
2015    5       29    20  26    3.8159   589.2    3.401      52.985
2015    5       29    20  32    3.8139   589.1    3.400      52.962
2015    5       29    20  39    3.8119   589.0    3.399      52.938
2015    5       29    20  45    3.8100   589.0    3.397      52.915
2015    5       29    20  51    3.8080   588.9    3.396      52.892
2015    5       29    20  57    3.8060   588.9    3.395      52.869
2015    5       29    21   3    3.8040   588.8    3.393      52.846
2015    5       29    21   9    3.8020   588.8    3.392      52.823
2015    5       29    21  15    3.8001   588.7    3.391      52.801
2015    5       29    21  21    3.7981   588.6    3.390      52.779
2015    5       29    21  28    3.7962   588.6    3.389      52.757
2015    5       29    21  34    3.7942   588.5    3.388      52.735
2015    5       29    21  40    3.7923   588.5    3.387      52.714
2015    5       29    21  46    3.7904   588.4    3.386      52.694
2015    5       29    21  52    3.7885   588.3    3.385      52.673
2015    5       29    21  58    3.7866   588.3    3.385      52.653
2015    5       29    22   4    3.7847   588.2    3.384      52.633
2015    5       29    22  10    3.7829   588.1    3.383      52.613
2015    5       29    22  16    3.7810   588.1    3.383      52.594
2015    5       29    22  23    3.7791   588.0    3.382      52.575
2015    5       29    22  29    3.7773   587.9    3.382      52.556
2015    5       29    22  35    3.7754   587.9    3.381      52.537
2015    5       29    22  41    3.7736   587.8    3.381      52.518
2015    5       29    22  47    3.7717   587.7    3.380      52.500
2015    5       29    22  53    3.7699   587.7    3.380      52.481
2015    5       29    22  59    3.7681   587.6    3.379      52.463
2015    5       29    23   5    3.7662   587.5    3.379      52.444
2015    5       29    23  12    3.7644   587.4    3.379      52.425
2015    5       29    23  18    3.7626   587.4    3.378      52.407
2015    5       29    23  24    3.7608   587.3    3.378      52.388
2015    5       29    23  30    3.7589   587.2    3.377      52.369
2015    5       29    23  36    3.7571   587.1    3.377      52.349
2015    5       29    23  42    3.7553   587.1    3.376      52.330
2015    5       29    23  48    3.7535   587.0    3.376      52.310
2015    5       29    23  54    3.7517   586.9    3.375      52.291
2015    5       30     0   1    3.7499   586.8    3.375      52.271
2015    5       30     0   7    3.7481   586.8    3.374      52.250
2015    5       30     0  13    3.7463   586.7    3.374      52.230
2015    5       30     0  19    3.7445   586.6    3.373      52.209
2015    5       30     0  25    3.7427   586.5    3.372      52.188
2015    5       30     0  31    3.7409   586.4    3.372      52.166
2015    5       30     0  37    3.7390   586.4    3.371      52.144
2015    5       30     0  43    3.7372   586.3    3.370      52.122
2015    5       30     0  49    3.7354   586.2    3.370      52.100
2015    5       30     0  56    3.7336   586.1    3.369      52.077
2015    5       30     1   2    3.7318   586.1    3.368      52.054
2015    5       30     1   8    3.7299   586.0    3.367      52.031
2015    5       30     1  14    3.7281   585.9    3.366      52.008
2015    5       30     1  20    3.7263   585.8    3.366      51.984
2015    5       30     1  26    3.7244   585.7    3.365      51.961
2015    5       30     1  32    3.7226   585.7    3.364      51.937
2015    5       30     1  38    3.7207   585.6    3.363      51.913
2015    5       30     1  45    3.7189   585.5    3.362      51.889
2015    5       30     1  51    3.7170   585.4    3.361      51.864
2015    5       30     1  57    3.7152   585.4    3.360      51.840
2015    5       30     2   3    3.7133   585.3    3.359      51.815
2015    5       30     2   9    3.7115   585.2    3.358      51.790
2015    5       30     2  15    3.7096   585.1    3.357      51.764
2015    5       30     2  21    3.7078   585.0    3.356      51.739
2015    5       30     2  27    3.7059   585.0    3.355      51.713
2015    5       30     2  34    3.7041   584.9    3.353      51.686
2015    5       30     2  40    3.7022   584.8    3.352      51.659
2015    5       30     2  46    3.7003   584.7    3.351      51.632
2015    5       30     2  52    3.6984   584.6    3.350      51.605
2015    5       30     2  58    3.6966   584.6    3.349      51.577
2015    5       30     3   4    3.6947   584.5    3.347      51.549
2015    5       30     3  10    3.6928   584.4    3.346      51.521
2015    5       30     3  16    3.6909   584.3    3.345      51.492
2015    5       30     3  22    3.6890   584.2    3.344      51.463
2015    5       30     3  29    3.6872   584.1    3.342      51.434
2015    5       30     3  35    3.6853   584.0    3.341      51.404
2015    5       30     3  41    3.6834   584.0    3.340      51.375
2015    5       30     3  47    3.6815   583.9    3.339      51.345
2015    5       30     3  53    3.6796   583.8    3.337      51.316
2015    5       30     3  59    3.6777   583.7    3.336      51.285
2015    5       30     4   5    3.6758   583.6    3.335      51.256
2015    5       30     4  11    3.6739   583.5    3.334      51.225
2015    5       30     4  18    3.6720   583.4    3.332      51.195
2015    5       30     4  24    3.6701   583.3    3.331      51.165
2015    5       30     4  30    3.6682   583.2    3.330      51.135
2015    5       30     4  36    3.6663   583.1    3.329      51.105
2015    5       30     4  42    3.6644   583.0    3.328      51.075
2015    5       30     4  48    3.6625   582.9    3.327      51.045
2015    5       30     4  54    3.6606   582.9    3.326      51.016
2015    5       30     5   0    3.6587   582.8    3.325      50.986
2015    5       30     5   7    3.6568   582.7    3.324      50.956
2015    5       30     5  13    3.6549   582.5    3.323      50.927
2015    5       30     5  19    3.6530   582.4    3.322      50.898
2015    5       30     5  25    3.6511   582.3    3.321      50.869
2015    5       30     5  31    3.6492   582.2    3.321      50.840
2015    5       30     5  37    3.6473   582.1    3.320      50.812
2015    5       30     5  43    3.6454   582.0    3.319      50.784
2015    5       30     5  49    3.6435   581.9    3.318      50.756
2015    5       30     5  55    3.6416   581.8    3.318      50.729
2015    5       30     6   2    3.6398   581.7    3.317      50.702
2015    5       30     6   8    3.6379   581.6    3.317      50.675
2015    5       30     6  14    3.6361   581.5    3.316      50.649
2015    5       30     6  20    3.6342   581.4    3.316      50.623
2015    5       30     6  26    3.6323   581.3    3.316      50.597
2015    5       30     6  32    3.6305   581.1    3.315      50.572
2015    5       30     6  38    3.6287   581.0    3.315      50.547
2015    5       30     6  44    3.6269   580.9    3.315      50.523
2015    5       30     6  51    3.6250   580.8    3.315      50.499
2015    5       30     6  57    3.6233   580.7    3.315      50.475
2015    5       30     7   3    3.6214   580.6    3.315      50.451
2015    5       30     7   9    3.6197   580.4    3.315      50.428
2015    5       30     7  15    3.6179   580.3    3.315      50.404
2015    5       30     7  21    3.6161   580.2    3.315      50.381
2015    5       30     7  27    3.6144   580.1    3.315      50.357
2015    5       30     7  33    3.6126   580.0    3.315      50.334
2015    5       30     7  40    3.6109   579.8    3.315      50.310
2015    5       30     7  46    3.6092   579.7    3.315      50.286
2015    5       30     7  52    3.6074   579.6    3.316      50.262
2015    5       30     7  58    3.6057   579.5    3.316      50.238
2015    5       30     8   4    3.6040   579.4    3.316      50.214
2015    5       30     8  10    3.6023   579.2    3.316      50.189
2015    5       30     8  16    3.6006   579.1    3.317      50.165
2015    5       30     8  22    3.5989   579.0    3.317      50.140
2015    5       30     8  28    3.5972   578.9    3.317      50.116
2015    5       30     8  35    3.5956   578.7    3.318      50.091
2015    5       30     8  41    3.5939   578.6    3.318      50.068
2015    5       30     8  47    3.5923   578.5    3.319      50.044
2015    5       30     8  53    3.5907   578.4    3.319      50.022
2015    5       30     8  59    3.5891   578.2    3.320      50.000
2015    5       30     9   5    3.5875   578.1    3.320      49.978
2015    5       30     9  11    3.5859   578.0    3.320      49.956
2015    5       30     9  17    3.5843   577.9    3.321      49.934
2015    5       30     9  24    3.5826   577.8    3.321      49.911
2015    5       30     9  30    3.5810   577.7    3.321      49.887
2015    5       30     9  36    3.5794   577.6    3.321      49.863
2015    5       30     9  42    3.5777   577.4    3.321      49.838
2015    5       30     9  48    3.5761   577.3    3.320      49.812
2015    5       30     9  54    3.5744   577.2    3.320      49.786
2015    5       30    10   0    3.5727   577.1    3.320      49.759
2015    5       30    10   6    3.5711   577.0    3.320      49.731
2015    5       30    10  13    3.5694   576.9    3.319      49.703
2015    5       30    10  19    3.5677   576.8    3.319      49.674
2015    5       30    10  25    3.5660   576.7    3.318      49.645
2015    5       30    10  31    3.5642   576.6    3.318      49.614
2015    5       30    10  37    3.5625   576.5    3.317      49.584
2015    5       30    10  43    3.5608   576.3    3.316      49.552
2015    5       30    10  49    3.5590   576.2    3.315      49.520
2015    5       30    10  55    3.5573   576.1    3.315      49.488
2015    5       30    11   1    3.5555   576.0    3.314      49.455
2015    5       30    11   8    3.5537   575.9    3.313      49.421
2015    5       30    11  14    3.5519   575.8    3.312      49.387
2015    5       30    11  20    3.5501   575.7    3.311      49.352
2015    5       30    11  26    3.5483   575.6    3.310      49.317
2015    5       30    11  32    3.5465   575.4    3.309      49.282
2015    5       30    11  38    3.5447   575.3    3.308      49.246
2015    5       30    11  44    3.5428   575.2    3.307      49.209
2015    5       30    11  50    3.5410   575.1    3.306      49.172
2015    5       30    11  57    3.5391   575.0    3.305      49.135
2015    5       30    12   3    3.5373   574.8    3.303      49.098
2015    5       30    12   9    3.5354   574.7    3.302      49.060
2015    5       30    12  15    3.5335   574.6    3.301      49.022
2015    5       30    12  21    3.5316   574.5    3.300      48.983
2015    5       30    12  27    3.5297   574.4    3.299      48.944
2015    5       30    12  33    3.5279   574.2    3.298      48.906
2015    5       30    12  39    3.5260   574.1    3.297      48.867
2015    5       30    12  46    3.5241   574.0    3.295      48.828
2015    5       30    12  52    3.5222   573.8    3.294      48.789
2015    5       30    12  58    3.5203   573.7    3.293      48.751
2015    5       30    13   4    3.5184   573.6    3.292      48.712
2015    5       30    13  10    3.5165   573.4    3.291      48.674
2015    5       30    13  16    3.5146   573.3    3.290      48.636
2015    5       30    13  22    3.5127   573.1    3.290      48.598
2015    5       30    13  28    3.5109   573.0    3.289      48.561
2015    5       30    13  34    3.5090   572.9    3.288      48.524
2015    5       30    13  41    3.5072   572.7    3.287      48.487
2015    5       30    13  47    3.5053   572.6    3.287      48.451
2015    5       30    13  53    3.5035   572.4    3.286      48.416
2015    5       30    13  59    3.5017   572.3    3.286      48.381
2015    5       30    14   5    3.4999   572.1    3.286      48.347
2015    5       30    14  11    3.4981   572.0    3.285      48.313
2015    5       30    14  17    3.4963   571.8    3.285      48.280
2015    5       30    14  23    3.4946   571.7    3.285      48.248
2015    5       30    14  30    3.4928   571.5    3.285      48.216
2015    5       30    14  36    3.4911   571.4    3.285      48.185
2015    5       30    14  42    3.4894   571.2    3.285      48.154
2015    5       30    14  48    3.4877   571.1    3.286      48.124
2015    5       30    14  54    3.4861   570.9    3.286      48.094
2015    5       30    15   0    3.4844   570.7    3.286      48.065
2015    5       30    15   6    3.4827   570.6    3.287      48.036
2015    5       30    15  12    3.4811   570.4    3.287      48.008
2015    5       30    15  19    3.4795   570.3    3.288      47.979
2015    5       30    15  25    3.4779   570.1    3.288      47.951
2015    5       30    15  31    3.4763   570.0    3.289      47.923
2015    5       30    15  37    3.4747   569.8    3.290      47.896
2015    5       30    15  43    3.4732   569.6    3.290      47.869
2015    5       30    15  49    3.4717   569.5    3.291      47.842
2015    5       30    15  55    3.4702   569.3    3.292      47.815
2015    5       30    16   1    3.4687   569.2    3.293      47.790
2015    5       30    16   7    3.4672   569.0    3.294      47.765
2015    5       30    16  14    3.4657   568.8    3.295      47.740
2015    5       30    16  20    3.4643   568.7    3.296      47.716
2015    5       30    16  26    3.4628   568.5    3.297      47.692
2015    5       30    16  32    3.4613   568.4    3.298      47.668
2015    5       30    16  38    3.4599   568.2    3.299      47.643
2015    5       30    16  44    3.4584   568.1    3.300      47.618
2015    5       30    16  50    3.4570   567.9    3.301      47.592
2015    5       30    16  56    3.4555   567.8    3.302      47.567
2015    5       30    17   3    3.4541   567.6    3.303      47.541
2015    5       30    17   9    3.4526   567.5    3.303      47.515
2015    5       30    17  15    3.4511   567.3    3.304      47.488
2015    5       30    17  21    3.4496   567.2    3.305      47.462
2015    5       30    17  27    3.4481   567.0    3.305      47.434
2015    5       30    17  33    3.4465   566.9    3.306      47.406
2015    5       30    17  39    3.4450   566.7    3.306      47.378
2015    5       30    17  45    3.4434   566.6    3.306      47.349
2015    5       30    17  52    3.4419   566.5    3.306      47.319
2015    5       30    17  58    3.4403   566.3    3.307      47.289
2015    5       30    18   4    3.4387   566.2    3.307      47.258
2015    5       30    18  10    3.4371   566.0    3.307      47.227
2015    5       30    18  16    3.4355   565.9    3.307      47.195
2015    5       30    18  22    3.4339   565.7    3.307      47.163
2015    5       30    18  28    3.4322   565.6    3.306      47.130
2015    5       30    18  34    3.4306   565.5    3.306      47.096
2015    5       30    18  40    3.4289   565.3    3.306      47.062
2015    5       30    18  47    3.4273   565.2    3.306      47.028
2015    5       30    18  53    3.4256   565.0    3.306      46.993
2015    5       30    18  59    3.4239   564.9    3.305      46.957
2015    5       30    19   5    3.4222   564.7    3.305      46.921
2015    5       30    19  11    3.4205   564.6    3.305      46.885
2015    5       30    19  17    3.4188   564.5    3.304      46.848
2015    5       30    19  23    3.4171   564.3    3.304      46.811
2015    5       30    19  29    3.4153   564.2    3.303      46.773
2015    5       30    19  36    3.4136   564.0    3.303      46.736
2015    5       30    19  42    3.4118   563.9    3.303      46.697
2015    5       30    19  48    3.4101   563.7    3.302      46.659
2015    5       30    19  54    3.4083   563.6    3.302      46.620
2015    5       30    20   0    3.4066   563.4    3.301      46.581
2015    5       30    20   6    3.4048   563.3    3.301      46.542
2015    5       30    20  12    3.4031   563.1    3.300      46.502
2015    5       30    20  18    3.4013   563.0    3.299      46.463
2015    5       30    20  25    3.3996   562.8    3.299      46.423
2015    5       30    20  31    3.3978   562.7    3.298      46.383
2015    5       30    20  37    3.3961   562.5    3.298      46.343
2015    5       30    20  43    3.3943   562.3    3.297      46.302
2015    5       30    20  49    3.3926   562.2    3.297      46.262
2015    5       30    20  55    3.3908   562.0    3.297      46.222
2015    5       30    21   1    3.3891   561.9    3.296      46.182
2015    5       30    21   7    3.3874   561.7    3.296      46.142
2015    5       30    21  13    3.3857   561.5    3.295      46.102
2015    5       30    21  20    3.3840   561.4    3.295      46.062
2015    5       30    21  26    3.3823   561.2    3.295      46.023
2015    5       30    21  32    3.3806   561.0    3.295      45.984
2015    5       30    21  38    3.3789   560.8    3.294      45.946
2015    5       30    21  44    3.3773   560.7    3.294      45.908
2015    5       30    21  50    3.3757   560.5    3.294      45.870
2015    5       30    21  56    3.3741   560.3    3.294      45.833
2015    5       30    22   2    3.3725   560.2    3.294      45.796
2015    5       30    22   9    3.3709   560.0    3.294      45.759
2015    5       30    22  15    3.3693   559.8    3.295      45.723
2015    5       30    22  21    3.3678   559.6    3.295      45.687
2015    5       30    22  27    3.3662   559.4    3.295      45.651
2015    5       30    22  33    3.3647   559.3    3.295      45.615
2015    5       30    22  39    3.3632   559.1    3.296      45.580
2015    5       30    22  45    3.3617   558.9    3.296      45.546
2015    5       30    22  51    3.3603   558.7    3.297      45.511
2015    5       30    22  58    3.3588   558.5    3.297      45.477
2015    5       30    23   4    3.3574   558.3    3.298      45.444
2015    5       30    23  10    3.3559   558.1    3.299      45.411
2015    5       30    23  16    3.3546   558.0    3.299      45.378
2015    5       30    23  22    3.3532   557.8    3.300      45.346
2015    5       30    23  28    3.3518   557.6    3.301      45.314
2015    5       30    23  34    3.3505   557.4    3.302      45.283
2015    5       30    23  40    3.3491   557.2    3.303      45.252
2015    5       30    23  46    3.3478   557.0    3.304      45.221
2015    5       30    23  53    3.3466   556.8    3.305      45.191
2015    5       30    23  59    3.3453   556.6    3.306      45.161
2015    5       31     0   5    3.3440   556.4    3.308      45.131
2015    5       31     0  11    3.3428   556.3    3.309      45.102
2015    5       31     0  17    3.3415   556.1    3.310      45.073
2015    5       31     0  23    3.3403   555.9    3.311      45.044
2015    5       31     0  29    3.3390   555.7    3.312      45.015
2015    5       31     0  35    3.3377   555.5    3.313      44.986
2015    5       31     0  42    3.3364   555.3    3.314      44.957
2015    5       31     0  48    3.3352   555.1    3.315      44.927
2015    5       31     0  54    3.3339   555.0    3.316      44.898
2015    5       31     1   0    3.3326   554.8    3.317      44.867
2015    5       31     1   6    3.3312   554.6    3.318      44.837
2015    5       31     1  12    3.3299   554.4    3.319      44.806
2015    5       31     1  18    3.3286   554.2    3.319      44.775
2015    5       31     1  24    3.3273   554.0    3.320      44.744
2015    5       31     1  31    3.3259   553.9    3.321      44.712
2015    5       31     1  37    3.3246   553.7    3.321      44.680
2015    5       31     1  43    3.3232   553.5    3.322      44.647
2015    5       31     1  49    3.3218   553.3    3.323      44.615
2015    5       31     1  55    3.3205   553.1    3.323      44.581
2015    5       31     2   1    3.3191   552.9    3.324      44.548
2015    5       31     2   7    3.3177   552.8    3.324      44.514
2015    5       31     2  13    3.3164   552.6    3.325      44.480
2015    5       31     2  19    3.3150   552.4    3.325      44.445
2015    5       31     2  26    3.3136   552.2    3.325      44.410
2015    5       31     2  32    3.3122   552.0    3.326      44.375
2015    5       31     2  38    3.3108   551.9    3.326      44.340
2015    5       31     2  44    3.3094   551.7    3.327      44.304
2015    5       31     2  50    3.3080   551.5    3.327      44.268
2015    5       31     2  56    3.3066   551.3    3.327      44.231
2015    5       31     3   2    3.3052   551.1    3.328      44.195
2015    5       31     3   8    3.3038   550.9    3.328      44.158
2015    5       31     3  15    3.3024   550.7    3.328      44.121
2015    5       31     3  21    3.3010   550.6    3.329      44.084
2015    5       31     3  27    3.2996   550.4    3.329      44.047
2015    5       31     3  33    3.2982   550.2    3.330      44.010
2015    5       31     3  39    3.2968   550.0    3.330      43.972
2015    5       31     3  45    3.2954   549.8    3.330      43.935
2015    5       31     3  51    3.2940   549.6    3.331      43.898
2015    5       31     3  57    3.2926   549.4    3.331      43.860
2015    5       31     4   4    3.2912   549.2    3.332      43.823
2015    5       31     4  10    3.2898   549.1    3.332      43.786
2015    5       31     4  16    3.2885   548.9    3.333      43.749
2015    5       31     4  22    3.2871   548.7    3.333      43.712
2015    5       31     4  28    3.2858   548.5    3.334      43.675
2015    5       31     4  34    3.2844   548.3    3.334      43.639
2015    5       31     4  40    3.2831   548.1    3.335      43.602
2015    5       31     4  46    3.2818   547.9    3.336      43.566
2015    5       31     4  52    3.2805   547.7    3.336      43.529
2015    5       31     4  59    3.2792   547.5    3.337      43.492
2015    5       31     5   5    3.2779   547.3    3.338      43.456
2015    5       31     5  11    3.2766   547.1    3.338      43.420
2015    5       31     5  17    3.2754   546.9    3.339      43.383
2015    5       31     5  23    3.2741   546.7    3.340      43.347
2015    5       31     5  29    3.2729   546.5    3.341      43.311
2015    5       31     5  35    3.2717   546.3    3.341      43.275
2015    5       31     5  41    3.2704   546.1    3.342      43.239
2015    5       31     5  48    3.2692   545.9    3.343      43.204
2015    5       31     5  54    3.2680   545.7    3.344      43.168
2015    5       31     6   0    3.2668   545.5    3.345      43.133
2015    5       31     6   6    3.2656   545.3    3.346      43.098
2015    5       31     6  12    3.2645   545.1    3.347      43.063
2015    5       31     6  18    3.2633   544.8    3.348      43.029
2015    5       31     6  24    3.2622   544.6    3.349      42.995
2015    5       31     6  30    3.2611   544.4    3.350      42.961
2015    5       31     6  37    3.2600   544.2    3.351      42.927
2015    5       31     6  43    3.2589   544.0    3.352      42.894
2015    5       31     6  49    3.2578   543.8    3.354      42.862
2015    5       31     6  55    3.2567   543.6    3.355      42.829
2015    5       31     7   1    3.2557   543.4    3.356      42.797
2015    5       31     7   7    3.2547   543.2    3.358      42.766
2015    5       31     7  13    3.2536   542.9    3.359      42.734
2015    5       31     7  19    3.2526   542.7    3.361      42.703
2015    5       31     7  25    3.2516   542.5    3.362      42.672
2015    5       31     7  32    3.2506   542.3    3.364      42.641
2015    5       31     7  38    3.2496   542.1    3.365      42.610
2015    5       31     7  44    3.2487   541.9    3.366      42.579
2015    5       31     7  50    3.2477   541.7    3.368      42.548
2015    5       31     7  56    3.2467   541.4    3.369      42.518
2015    5       31     8   2    3.2457   541.2    3.371      42.487
2015    5       31     8   8    3.2447   541.0    3.372      42.456
2015    5       31     8  14    3.2437   540.8    3.374      42.425
2015    5       31     8  21    3.2427   540.6    3.375      42.394
2015    5       31     8  27    3.2418   540.4    3.377      42.363
2015    5       31     8  33    3.2408   540.2    3.378      42.332
2015    5       31     8  39    3.2398   539.9    3.379      42.301
2015    5       31     8  45    3.2388   539.7    3.381      42.270
2015    5       31     8  51    3.2378   539.5    3.382      42.238
2015    5       31     8  57    3.2368   539.3    3.383      42.207
2015    5       31     9   3    3.2358   539.1    3.385      42.175
2015    5       31     9  10    3.2348   538.9    3.386      42.143
2015    5       31     9  16    3.2338   538.6    3.387      42.110
2015    5       31     9  22    3.2328   538.4    3.388      42.078
2015    5       31     9  28    3.2318   538.2    3.390      42.045
2015    5       31     9  34    3.2308   538.0    3.391      42.012
2015    5       31     9  40    3.2298   537.8    3.392      41.979
2015    5       31     9  46    3.2287   537.6    3.393      41.946
2015    5       31     9  52    3.2277   537.3    3.394      41.912
2015    5       31     9  58    3.2267   537.1    3.395      41.878
2015    5       31    10   5    3.2257   536.9    3.396      41.844
2015    5       31    10  11    3.2247   536.7    3.397      41.810
2015    5       31    10  17    3.2237   536.5    3.399      41.776
2015    5       31    10  23    3.2227   536.2    3.400      41.742
2015    5       31    10  29    3.2217   536.0    3.401      41.708
2015    5       31    10  35    3.2207   535.8    3.402      41.673
2015    5       31    10  41    3.2197   535.6    3.403      41.639
2015    5       31    10  47    3.2188   535.4    3.404      41.605
2015    5       31    10  54    3.2178   535.1    3.405      41.571
2015    5       31    11   0    3.2168   534.9    3.407      41.537
2015    5       31    11   6    3.2159   534.7    3.408      41.503
2015    5       31    11  12    3.2149   534.5    3.409      41.469
2015    5       31    11  18    3.2140   534.3    3.411      41.435
2015    5       31    11  24    3.2131   534.0    3.412      41.402
2015    5       31    11  30    3.2122   533.8    3.413      41.369
2015    5       31    11  36    3.2113   533.6    3.415      41.336
2015    5       31    11  43    3.2104   533.4    3.416      41.303
2015    5       31    11  49    3.2095   533.2    3.418      41.270
2015    5       31    11  55    3.2086   532.9    3.419      41.237
2015    5       31    12   1    3.2077   532.7    3.421      41.205
2015    5       31    12   7    3.2069   532.5    3.423      41.173
2015    5       31    12  13    3.2060   532.3    3.424      41.141
2015    5       31    12  19    3.2052   532.0    3.426      41.109
2015    5       31    12  25    3.2043   531.8    3.427      41.077
2015    5       31    12  31    3.2035   531.6    3.429      41.045
2015    5       31    12  38    3.2026   531.4    3.431      41.014
2015    5       31    12  44    3.2018   531.2    3.433      40.982
2015    5       31    12  50    3.2010   530.9    3.434      40.950
2015    5       31    12  56    3.2001   530.7    3.436      40.919
2015    5       31    13   2    3.1993   530.5    3.438      40.887
2015    5       31    13   8    3.1985   530.3    3.439      40.856
2015    5       31    13  14    3.1977   530.0    3.441      40.824
2015    5       31    13  20    3.1969   529.8    3.443      40.792
2015    5       31    13  27    3.1961   529.6    3.445      40.761
2015    5       31    13  33    3.1952   529.4    3.446      40.729
2015    5       31    13  39    3.1944   529.1    3.448      40.697
2015    5       31    13  45    3.1936   528.9    3.450      40.665
2015    5       31    13  51    3.1928   528.7    3.451      40.633
2015    5       31    13  57    3.1920   528.5    3.453      40.602
2015    5       31    14   3    3.1912   528.2    3.455      40.570
2015    5       31    14   9    3.1904   528.0    3.456      40.538
2015    5       31    14  16    3.1896   527.8    3.458      40.506
2015    5       31    14  22    3.1889   527.5    3.460      40.475
2015    5       31    14  28    3.1881   527.3    3.462      40.443
2015    5       31    14  34    3.1873   527.1    3.463      40.411
2015    5       31    14  40    3.1866   526.9    3.465      40.380
2015    5       31    14  46    3.1858   526.6    3.467      40.348
2015    5       31    14  52    3.1851   526.4    3.469      40.317
2015    5       31    14  58    3.1843   526.2    3.471      40.286
2015    5       31    15   4    3.1836   525.9    3.472      40.254
2015    5       31    15  11    3.1829   525.7    3.474      40.223
2015    5       31    15  17    3.1822   525.5    3.476      40.192
2015    5       31    15  23    3.1815   525.3    3.478      40.161
2015    5       31    15  29    3.1808   525.0    3.480      40.129
2015    5       31    15  35    3.1801   524.8    3.482      40.098
2015    5       31    15  41    3.1794   524.6    3.484      40.067
2015    5       31    15  47    3.1787   524.3    3.486      40.035
2015    5       31    15  53    3.1780   524.1    3.488      40.004
2015    5       31    16   0    3.1773   523.9    3.489      39.973
2015    5       31    16   6    3.1766   523.7    3.491      39.941
2015    5       31    16  12    3.1759   523.4    3.493      39.910
2015    5       31    16  18    3.1752   523.2    3.495      39.878
2015    5       31    16  24    3.1745   523.0    3.497      39.846
2015    5       31    16  30    3.1738   522.7    3.499      39.814
2015    5       31    16  36    3.1731   522.5    3.501      39.782
2015    5       31    16  42    3.1724   522.3    3.503      39.751
2015    5       31    16  49    3.1718   522.0    3.505      39.718
2015    5       31    16  55    3.1711   521.8    3.506      39.687
2015    5       31    17   1    3.1704   521.6    3.508      39.654
2015    5       31    17   7    3.1697   521.3    3.510      39.622
2015    5       31    17  13    3.1690   521.1    3.512      39.590
2015    5       31    17  19    3.1684   520.9    3.514      39.559
2015    5       31    17  25    3.1677   520.6    3.516      39.527
2015    5       31    17  31    3.1671   520.4    3.518      39.495
2015    5       31    17  37    3.1665   520.2    3.519      39.463
2015    5       31    17  44    3.1658   519.9    3.521      39.431
2015    5       31    17  50    3.1652   519.7    3.523      39.400
2015    5       31    17  56    3.1646   519.5    3.525      39.368
2015    5       31    18   2    3.1640   519.2    3.527      39.337
2015    5       31    18   8    3.1634   519.0    3.529      39.306
2015    5       31    18  14    3.1628   518.8    3.531      39.275
2015    5       31    18  20    3.1622   518.5    3.533      39.244
2015    5       31    18  26    3.1617   518.3    3.535      39.213
2015    5       31    18  33    3.1611   518.1    3.537      39.182
2015    5       31    18  39    3.1605   517.8    3.539      39.151
2015    5       31    18  45    3.1600   517.6    3.541      39.120
2015    5       31    18  51    3.1594   517.4    3.543      39.090
2015    5       31    18  57    3.1589   517.1    3.545      39.059
2015    5       31    19   3    3.1583   516.9    3.547      39.028
2015    5       31    19   9    3.1578   516.7    3.549      38.998
2015    5       31    19  15    3.1572   516.5    3.551      38.967
2015    5       31    19  22    3.1567   516.2    3.553      38.937
2015    5       31    19  28    3.1561   516.0    3.555      38.907
2015    5       31    19  34    3.1556   515.8    3.557      38.876
2015    5       31    19  40    3.1550   515.5    3.560      38.846
2015    5       31    19  46    3.1545   515.3    3.562      38.816
2015    5       31    19  52    3.1540   515.1    3.564      38.786
2015    5       31    19  58    3.1534   514.8    3.566      38.756
2015    5       31    20   4    3.1529   514.6    3.568      38.725
2015    5       31    20  10    3.1524   514.4    3.570      38.695
2015    5       31    20  17    3.1519   514.1    3.572      38.665
2015    5       31    20  23    3.1513   513.9    3.574      38.635
2015    5       31    20  29    3.1508   513.7    3.577      38.605
2015    5       31    20  35    3.1503   513.4    3.579      38.575
2015    5       31    20  41    3.1498   513.2    3.581      38.546
2015    5       31    20  47    3.1493   513.0    3.583      38.516
2015    5       31    20  53    3.1488   512.7    3.585      38.486
2015    5       31    20  59    3.1483   512.5    3.587      38.456
2015    5       31    21   6    3.1478   512.3    3.589      38.426
2015    5       31    21  12    3.1473   512.1    3.592      38.396
2015    5       31    21  18    3.1468   511.8    3.594      38.366
2015    5       31    21  24    3.1463   511.6    3.596      38.336
2015    5       31    21  30    3.1458   511.4    3.598      38.306
2015    5       31    21  36    3.1453   511.1    3.600      38.276
2015    5       31    21  42    3.1448   510.9    3.602      38.246
2015    5       31    21  48    3.1444   510.7    3.604      38.216
2015    5       31    21  55    3.1439   510.4    3.606      38.186
2015    5       31    22   1    3.1434   510.2    3.609      38.155
2015    5       31    22   7    3.1429   510.0    3.611      38.125
2015    5       31    22  13    3.1424   509.7    3.613      38.094
2015    5       31    22  19    3.1420   509.5    3.615      38.064
2015    5       31    22  25    3.1415   509.3    3.617      38.033
2015    5       31    22  31    3.1410   509.0    3.619      38.003
2015    5       31    22  37    3.1406   508.8    3.621      37.972
2015    5       31    22  43    3.1401   508.6    3.623      37.941
2015    5       31    22  50    3.1396   508.3    3.625      37.910
2015    5       31    22  56    3.1392   508.1    3.627      37.879
2015    5       31    23   2    3.1387   507.9    3.629      37.848
2015    5       31    23   8    3.1383   507.6    3.631      37.817
2015    5       31    23  14    3.1378   507.4    3.634      37.785
2015    5       31    23  20    3.1374   507.2    3.636      37.754
2015    5       31    23  26    3.1369   506.9    3.638      37.723
2015    5       31    23  32    3.1365   506.7    3.640      37.691
2015    5       31    23  39    3.1360   506.5    3.642      37.660
2015    5       31    23  45    3.1356   506.2    3.644      37.628
2015    5       31    23  51    3.1352   506.0    3.646      37.597
2015    5       31    23  57    3.1347   505.8    3.648      37.565
2015    6        1     0   3    3.1343   505.5    3.651      37.533
2015    6        1     0   9    3.1339   505.3    3.653      37.502
2015    6        1     0  15    3.1335   505.1    3.655      37.471
2015    6        1     0  21    3.1331   504.8    3.657      37.439
2015    6        1     0  28    3.1327   504.6    3.659      37.408
2015    6        1     0  34    3.1323   504.3    3.662      37.376
2015    6        1     0  40    3.1319   504.1    3.664      37.345
2015    6        1     0  46    3.1316   503.9    3.666      37.314
2015    6        1     0  52    3.1312   503.6    3.668      37.283
2015    6        1     0  58    3.1308   503.4    3.671      37.252
2015    6        1     1   4    3.1305   503.2    3.673      37.221
2015    6        1     1  10    3.1301   502.9    3.675      37.191
2015    6        1     1  16    3.1298   502.7    3.678      37.160
2015    6        1     1  23    3.1294   502.5    3.680      37.129
2015    6        1     1  29    3.1291   502.2    3.683      37.099
2015    6        1     1  35    3.1288   502.0    3.685      37.069
2015    6        1     1  41    3.1285   501.8    3.687      37.038
2015    6        1     1  47    3.1282   501.5    3.690      37.008
2015    6        1     1  53    3.1278   501.3    3.692      36.978
2015    6        1     1  59    3.1275   501.1    3.695      36.948
2015    6        1     2   5    3.1272   500.8    3.697      36.918
2015    6        1     2  12    3.1269   500.6    3.700      36.888
2015    6        1     2  18    3.1266   500.4    3.702      36.858
2015    6        1     2  24    3.1263   500.1    3.705      36.828
2015    6        1     2  30    3.1260   499.9    3.707      36.798
2015    6        1     2  36    3.1257   499.6    3.710      36.768
2015    6        1     2  42    3.1254   499.4    3.712      36.738
2015    6        1     2  48    3.1251   499.2    3.715      36.708
2015    6        1     2  54    3.1248   498.9    3.717      36.678
2015    6        1     3   1    3.1246   498.7    3.720      36.649
2015    6        1     3   7    3.1243   498.5    3.722      36.619
2015    6        1     3  13    3.1240   498.2    3.725      36.589
2015    6        1     3  19    3.1237   498.0    3.727      36.559
2015    6        1     3  25    3.1235   497.8    3.730      36.530
2015    6        1     3  31    3.1232   497.5    3.732      36.500
2015    6        1     3  37    3.1229   497.3    3.735      36.470
2015    6        1     3  43    3.1227   497.1    3.737      36.441
2015    6        1     3  49    3.1225   496.8    3.740      36.411
2015    6        1     3  56    3.1222   496.6    3.742      36.382
2015    6        1     4   2    3.1220   496.4    3.745      36.352
2015    6        1     4   8    3.1217   496.1    3.748      36.323
2015    6        1     4  14    3.1215   495.9    3.750      36.294
2015    6        1     4  20    3.1213   495.6    3.753      36.265
2015    6        1     4  26    3.1211   495.4    3.755      36.236
2015    6        1     4  32    3.1208   495.2    3.758      36.206
2015    6        1     4  38    3.1206   494.9    3.761      36.178
2015    6        1     4  45    3.1204   494.7    3.763      36.148
2015    6        1     4  51    3.1202   494.5    3.766      36.120
2015    6        1     4  57    3.1200   494.2    3.768      36.091
2015    6        1     5   3    3.1198   494.0    3.771      36.062
2015    6        1     5   9    3.1196   493.8    3.774      36.033
2015    6        1     5  15    3.1194   493.5    3.776      36.004
2015    6        1     5  21    3.1192   493.3    3.779      35.975
2015    6        1     5  27    3.1191   493.1    3.781      35.947
2015    6        1     5  33    3.1189   492.8    3.784      35.918
2015    6        1     5  40    3.1187   492.6    3.787      35.889
2015    6        1     5  46    3.1185   492.4    3.789      35.860
2015    6        1     5  52    3.1183   492.1    3.792      35.832
2015    6        1     5  58    3.1181   491.9    3.795      35.803
2015    6        1     6   4    3.1180   491.7    3.797      35.774
2015    6        1     6  10    3.1178   491.4    3.800      35.745
2015    6        1     6  16    3.1176   491.2    3.802      35.717
2015    6        1     6  22    3.1175   491.0    3.805      35.688
2015    6        1     6  29    3.1173   490.7    3.808      35.659
2015    6        1     6  35    3.1172   490.5    3.810      35.630
2015    6        1     6  41    3.1170   490.3    3.813      35.601
2015    6        1     6  47    3.1168   490.0    3.815      35.572
2015    6        1     6  53    3.1167   489.8    3.818      35.544
2015    6        1     6  59    3.1166   489.6    3.821      35.515
2015    6        1     7   5    3.1164   489.3    3.823      35.486
2015    6        1     7  11    3.1163   489.1    3.826      35.457
2015    6        1     7  18    3.1162   488.9    3.829      35.428
2015    6        1     7  24    3.1160   488.6    3.831      35.399
2015    6        1     7  30    3.1159   488.4    3.834      35.370
2015    6        1     7  36    3.1158   488.2    3.837      35.342
2015    6        1     7  42    3.1157   487.9    3.839      35.313
2015    6        1     7  48    3.1156   487.7    3.842      35.284
2015    6        1     7  54    3.1155   487.5    3.845      35.255
2015    6        1     8   0    3.1154   487.2    3.847      35.227
2015    6        1     8   6    3.1153   487.0    3.850      35.198
2015    6        1     8  13    3.1153   486.8    3.853      35.169
2015    6        1     8  19    3.1152   486.5    3.856      35.141
2015    6        1     8  25    3.1151   486.3    3.858      35.112
2015    6        1     8  31    3.1151   486.0    3.861      35.084
2015    6        1     8  37    3.1150   485.8    3.864      35.055
2015    6        1     8  43    3.1150   485.6    3.867      35.027
2015    6        1     8  49    3.1149   485.3    3.870      34.998
2015    6        1     8  55    3.1149   485.1    3.873      34.970
2015    6        1     9   2    3.1149   484.9    3.875      34.942
2015    6        1     9   8    3.1148   484.6    3.878      34.913
2015    6        1     9  14    3.1148   484.4    3.881      34.885
2015    6        1     9  20    3.1148   484.2    3.884      34.857
2015    6        1     9  26    3.1147   483.9    3.887      34.829
2015    6        1     9  32    3.1147   483.7    3.890      34.801
2015    6        1     9  38    3.1147   483.5    3.893      34.773
2015    6        1     9  44    3.1147   483.3    3.896      34.745
2015    6        1     9  51    3.1147   483.0    3.899      34.717
2015    6        1     9  57    3.1147   482.8    3.901      34.688
2015    6        1    10   3    3.1147   482.6    3.904      34.660
2015    6        1    10   9    3.1147   482.3    3.907      34.633
2015    6        1    10  15    3.1147   482.1    3.910      34.605
2015    6        1    10  21    3.1147   481.9    3.913      34.577
2015    6        1    10  27    3.1147   481.6    3.916      34.549
2015    6        1    10  33    3.1148   481.4    3.919      34.521
2015    6        1    10  39    3.1148   481.2    3.922      34.493
2015    6        1    10  46    3.1148   480.9    3.925      34.465
2015    6        1    10  52    3.1149   480.7    3.928      34.437
2015    6        1    10  58    3.1149   480.5    3.931      34.409
2015    6        1    11   4    3.1149   480.2    3.934      34.381
2015    6        1    11  10    3.1150   480.0    3.937      34.353
2015    6        1    11  16    3.1150   479.8    3.940      34.326
2015    6        1    11  22    3.1151   479.5    3.943      34.298
2015    6        1    11  28    3.1151   479.3    3.946      34.270
2015    6        1    11  35    3.1152   479.1    3.949      34.242
2015    6        1    11  41    3.1152   478.8    3.952      34.215
2015    6        1    11  47    3.1153   478.6    3.955      34.187
2015    6        1    11  53    3.1154   478.4    3.958      34.159
2015    6        1    11  59    3.1155   478.1    3.961      34.132
2015    6        1    12   5    3.1155   477.9    3.964      34.104
2015    6        1    12  11    3.1156   477.7    3.967      34.076
2015    6        1    12  17    3.1157   477.4    3.970      34.049
2015    6        1    12  24    3.1158   477.2    3.973      34.021
2015    6        1    12  30    3.1159   477.0    3.976      33.994
2015    6        1    12  36    3.1160   476.7    3.980      33.966
2015    6        1    12  42    3.1161   476.5    3.983      33.939
2015    6        1    12  48    3.1162   476.3    3.986      33.911
2015    6        1    12  54    3.1163   476.1    3.989      33.884
2015    6        1    13   0    3.1164   475.8    3.992      33.856
2015    6        1    13   6    3.1166   475.6    3.995      33.829
2015    6        1    13  12    3.1167   475.4    3.998      33.801
2015    6        1    13  19    3.1168   475.1    4.002      33.774
2015    6        1    13  25    3.1170   474.9    4.005      33.747
2015    6        1    13  31    3.1171   474.7    4.008      33.719
2015    6        1    13  37    3.1172   474.4    4.011      33.692
2015    6        1    13  43    3.1174   474.2    4.014      33.665
2015    6        1    13  49    3.1175   474.0    4.018      33.637
2015    6        1    13  55    3.1177   473.7    4.021      33.610
2015    6        1    14   1    3.1178   473.5    4.024      33.583
2015    6        1    14   8    3.1180   473.3    4.028      33.556
2015    6        1    14  14    3.1182   473.1    4.031      33.529
2015    6        1    14  20    3.1183   472.8    4.034      33.502
2015    6        1    14  26    3.1185   472.6    4.037      33.474
2015    6        1    14  32    3.1187   472.4    4.041      33.447
2015    6        1    14  38    3.1189   472.1    4.044      33.420
2015    6        1    14  44    3.1191   471.9    4.048      33.394
2015    6        1    14  50    3.1193   471.7    4.051      33.367
2015    6        1    14  57    3.1195   471.5    4.054      33.340
2015    6        1    15   3    3.1197   471.2    4.058      33.313
2015    6        1    15   9    3.1199   471.0    4.061      33.286
2015    6        1    15  15    3.1201   470.8    4.065      33.260
2015    6        1    15  21    3.1203   470.5    4.068      33.233
2015    6        1    15  27    3.1205   470.3    4.071      33.206
2015    6        1    15  33    3.1208   470.1    4.075      33.180
2015    6        1    15  39    3.1210   469.9    4.078      33.153
2015    6        1    15  45    3.1213   469.6    4.082      33.127
2015    6        1    15  52    3.1215   469.4    4.085      33.100
2015    6        1    15  58    3.1218   469.2    4.089      33.074
2015    6        1    16   4    3.1220   468.9    4.092      33.048
2015    6        1    16  10    3.1223   468.7    4.096      33.021
2015    6        1    16  16    3.1226   468.5    4.099      32.995
2015    6        1    16  22    3.1229   468.3    4.103      32.969
2015    6        1    16  28    3.1231   468.0    4.106      32.943
2015    6        1    16  34    3.1234   467.8    4.110      32.917
2015    6        1    16  41    3.1237   467.6    4.113      32.891
2015    6        1    16  47    3.1240   467.4    4.117      32.864
2015    6        1    16  53    3.1243   467.1    4.120      32.839
2015    6        1    16  59    3.1247   466.9    4.124      32.813
2015    6        1    17   5    3.1250   466.7    4.127      32.787
2015    6        1    17  11    3.1253   466.5    4.131      32.761
2015    6        1    17  17    3.1256   466.2    4.135      32.735
2015    6        1    17  23    3.1260   466.0    4.138      32.709
2015    6        1    17  30    3.1263   465.8    4.142      32.684
2015    6        1    17  36    3.1267   465.5    4.145      32.658
2015    6        1    17  42    3.1271   465.3    4.149      32.633
2015    6        1    17  48    3.1274   465.1    4.153      32.607
2015    6        1    17  54    3.1278   464.9    4.156      32.582
2015    6        1    18   0    3.1282   464.6    4.160      32.557
2015    6        1    18   6    3.1286   464.4    4.163      32.532
2015    6        1    18  12    3.1290   464.2    4.167      32.507
2015    6        1    18  18    3.1294   464.0    4.171      32.482
2015    6        1    18  25    3.1298   463.7    4.175      32.458
2015    6        1    18  31    3.1302   463.5    4.178      32.433
2015    6        1    18  37    3.1307   463.3    4.182      32.409
2015    6        1    18  43    3.1311   463.1    4.186      32.384
2015    6        1    18  49    3.1316   462.9    4.190      32.360
2015    6        1    18  55    3.1320   462.6    4.194      32.336
2015    6        1    19   1    3.1325   462.4    4.197      32.312
2015    6        1    19   7    3.1329   462.2    4.201      32.288
2015    6        1    19  14    3.1334   462.0    4.205      32.265
2015    6        1    19  20    3.1339   461.7    4.209      32.241
2015    6        1    19  26    3.1344   461.5    4.213      32.218
2015    6        1    19  32    3.1349   461.3    4.217      32.194
2015    6        1    19  38    3.1353   461.1    4.221      32.171
2015    6        1    19  44    3.1358   460.9    4.225      32.148
2015    6        1    19  50    3.1363   460.6    4.229      32.125
2015    6        1    19  56    3.1368   460.4    4.233      32.102
2015    6        1    20   3    3.1373   460.2    4.237      32.079
2015    6        1    20   9    3.1378   460.0    4.240      32.056
2015    6        1    20  15    3.1383   459.8    4.244      32.033
2015    6        1    20  21    3.1388   459.5    4.248      32.010
2015    6        1    20  27    3.1393   459.3    4.252      31.987
2015    6        1    20  33    3.1397   459.1    4.256      31.964
2015    6        1    20  39    3.1402   458.9    4.260      31.941
2015    6        1    20  45    3.1407   458.7    4.264      31.918
2015    6        1    20  51    3.1412   458.5    4.268      31.895
2015    6        1    20  58    3.1417   458.2    4.272      31.873
2015    6        1    21   4    3.1422   458.0    4.276      31.850
2015    6        1    21  10    3.1427   457.8    4.280      31.827
2015    6        1    21  16    3.1432   457.6    4.284      31.804
2015    6        1    21  22    3.1437   457.4    4.288      31.780
2015    6        1    21  28    3.1442   457.2    4.292      31.757
2015    6        1    21  34    3.1447   456.9    4.296      31.734
2015    6        1    21  40    3.1452   456.7    4.300      31.711
2015    6        1    21  47    3.1457   456.5    4.304      31.688
2015    6        1    21  53    3.1462   456.3    4.308      31.665
2015    6        1    21  59    3.1467   456.1    4.312      31.641
2015    6        1    22   5    3.1472   455.9    4.316      31.618
2015    6        1    22  11    3.1477   455.7    4.320      31.595
2015    6        1    22  17    3.1483   455.4    4.323      31.571
2015    6        1    22  23    3.1488   455.2    4.327      31.548
2015    6        1    22  29    3.1493   455.0    4.331      31.525
2015    6        1    22  36    3.1498   454.8    4.335      31.501
2015    6        1    22  42    3.1504   454.6    4.339      31.478
2015    6        1    22  48    3.1509   454.4    4.343      31.454
2015    6        1    22  54    3.1514   454.2    4.347      31.431
2015    6        1    23   0    3.1520   453.9    4.351      31.408
2015    6        1    23   6    3.1525   453.7    4.355      31.384
2015    6        1    23  12    3.1531   453.5    4.359      31.361
2015    6        1    23  18    3.1536   453.3    4.363      31.337
2015    6        1    23  24    3.1542   453.1    4.367      31.314
2015    6        1    23  31    3.1548   452.9    4.371      31.291
2015    6        1    23  37    3.1553   452.7    4.375      31.267
2015    6        1    23  43    3.1559   452.5    4.379      31.244
2015    6        1    23  49    3.1565   452.3    4.383      31.221
2015    6        1    23  55    3.1571   452.0    4.387      31.198
2015    6        2     0   1    3.1577   451.8    4.391      31.175
