year    month   day   hour  minute  B_enl V_enl   n_enl       T_enl
[year] [month] [day] [hour][minute] [nT]  [km/s]  [cm-3]      [kK]
2014   10       12     0   2    5.86   474.3    6.8      46.526
2014   10       12     0   8    5.86   474.5    6.8      46.535
2014   10       12     0  14    5.86   474.6    6.8      46.544
2014   10       12     0  20    5.86   474.8    6.8      46.553
2014   10       12     0  26    5.86   474.9    6.8      46.562
2014   10       12     0  31    5.86   475.0    6.8      46.571
2014   10       12     0  37    5.86   475.2    6.8      46.580
2014   10       12     0  43    5.86   475.3    6.8      46.589
2014   10       12     0  49    5.86   475.5    6.8      46.599
2014   10       12     0  55    5.86   475.6    6.8      46.608
2014   10       12     1   1    5.86   475.7    6.7      46.618
2014   10       12     1   7    5.86   475.9    6.7      46.629
2014   10       12     1  12    5.86   476.0    6.7      46.639
2014   10       12     1  18    5.86   476.2    6.7      46.650
2014   10       12     1  24    5.86   476.3    6.7      46.661
2014   10       12     1  30    5.86   476.4    6.7      46.673
2014   10       12     1  36    5.86   476.6    6.7      46.685
2014   10       12     1  42    5.86   476.7    6.7      46.698
2014   10       12     1  47    5.86   476.9    6.7      46.712
2014   10       12     1  53    5.86   477.0    6.7      46.726
2014   10       12     1  59    5.86   477.2    6.7      46.741
2014   10       12     2   5    5.85   477.3    6.7      46.757
2014   10       12     2  11    5.85   477.5    6.7      46.773
2014   10       12     2  17    5.85   477.6    6.7      46.791
2014   10       12     2  23    5.85   477.8    6.7      46.810
2014   10       12     2  28    5.85   477.9    6.7      46.831
2014   10       12     2  34    5.85   478.1    6.7      46.853
2014   10       12     2  40    5.85   478.2    6.7      46.876
2014   10       12     2  46    5.85   478.4    6.7      46.900
2014   10       12     2  52    5.85   478.5    6.7      46.925
2014   10       12     2  58    5.85   478.7    6.7      46.953
2014   10       12     3   3    5.85   478.8    6.7      46.983
2014   10       12     3   9    5.85   479.0    6.7      47.014
2014   10       12     3  15    5.85   479.2    6.7      47.047
2014   10       12     3  21    5.85   479.3    6.7      47.082
2014   10       12     3  27    5.85   479.5    6.7      47.116
2014   10       12     3  33    5.85   479.7    6.7      47.150
2014   10       12     3  38    5.85   479.9    6.7      47.183
2014   10       12     3  44    5.85   480.0    6.7      47.215
2014   10       12     3  50    5.85   480.2    6.7      47.247
2014   10       12     3  56    5.85   480.4    6.7      47.278
2014   10       12     4   2    5.85   480.5    6.7      47.308
2014   10       12     4   8    5.85   480.7    6.7      47.337
2014   10       12     4  14    5.85   480.9    6.7      47.366
2014   10       12     4  19    5.84   481.0    6.7      47.395
2014   10       12     4  25    5.84   481.2    6.7      47.423
2014   10       12     4  31    5.84   481.4    6.7      47.451
2014   10       12     4  37    5.84   481.6    6.7      47.478
2014   10       12     4  43    5.84   481.7    6.7      47.505
2014   10       12     4  49    5.84   481.9    6.7      47.531
2014   10       12     4  55    5.84   482.1    6.7      47.555
2014   10       12     5   0    5.84   482.2    6.7      47.578
2014   10       12     5   6    5.84   482.4    6.7      47.600
2014   10       12     5  12    5.83   482.6    6.6      47.620
2014   10       12     5  18    5.83   482.8    6.6      47.639
2014   10       12     5  24    5.83   482.9    6.6      47.657
2014   10       12     5  30    5.83   483.1    6.6      47.673
2014   10       12     5  36    5.83   483.3    6.6      47.688
2014   10       12     5  41    5.83   483.5    6.6      47.702
2014   10       12     5  47    5.83   483.6    6.6      47.715
2014   10       12     5  53    5.83   483.8    6.6      47.727
2014   10       12     5  59    5.82   484.0    6.6      47.738
2014   10       12     6   5    5.82   484.2    6.6      47.748
2014   10       12     6  11    5.82   484.3    6.6      47.757
2014   10       12     6  17    5.82   484.5    6.6      47.765
2014   10       12     6  22    5.82   484.7    6.6      47.773
2014   10       12     6  28    5.82   484.8    6.6      47.779
2014   10       12     6  34    5.81   485.0    6.6      47.784
2014   10       12     6  40    5.81   485.2    6.6      47.789
2014   10       12     6  46    5.81   485.4    6.5      47.793
2014   10       12     6  52    5.81   485.5    6.5      47.796
2014   10       12     6  58    5.81   485.7    6.5      47.798
2014   10       12     7   3    5.81   485.9    6.5      47.800
2014   10       12     7   9    5.81   486.0    6.5      47.801
2014   10       12     7  15    5.80   486.2    6.5      47.802
2014   10       12     7  21    5.80   486.3    6.5      47.802
2014   10       12     7  27    5.80   486.5    6.5      47.801
2014   10       12     7  33    5.80   486.7    6.5      47.800
2014   10       12     7  39    5.80   486.8    6.5      47.799
2014   10       12     7  44    5.79   487.0    6.5      47.797
2014   10       12     7  50    5.79   487.2    6.5      47.794
2014   10       12     7  56    5.79   487.3    6.5      47.792
2014   10       12     8   2    5.79   487.5    6.4      47.789
2014   10       12     8   8    5.79   487.6    6.4      47.786
2014   10       12     8  14    5.79   487.8    6.4      47.782
2014   10       12     8  20    5.78   487.9    6.4      47.779
2014   10       12     8  25    5.78   488.1    6.4      47.775
2014   10       12     8  31    5.78   488.3    6.4      47.771
2014   10       12     8  37    5.78   488.4    6.4      47.767
2014   10       12     8  43    5.78   488.6    6.4      47.763
2014   10       12     8  49    5.77   488.7    6.4      47.759
2014   10       12     8  55    5.77   488.9    6.4      47.755
2014   10       12     9   0    5.77   489.0    6.4      47.751
2014   10       12     9   6    5.77   489.2    6.4      47.747
2014   10       12     9  12    5.77   489.3    6.4      47.742
2014   10       12     9  18    5.76   489.5    6.3      47.738
2014   10       12     9  24    5.76   489.6    6.3      47.734
2014   10       12     9  30    5.76   489.8    6.3      47.730
2014   10       12     9  36    5.76   489.9    6.3      47.726
2014   10       12     9  41    5.75   490.1    6.3      47.722
2014   10       12     9  47    5.75   490.2    6.3      47.718
2014   10       12     9  53    5.75   490.4    6.3      47.714
2014   10       12     9  59    5.75   490.5    6.3      47.710
2014   10       12    10   5    5.75   490.7    6.3      47.706
2014   10       12    10  11    5.74   490.8    6.3      47.702
2014   10       12    10  16    5.74   491.0    6.3      47.699
2014   10       12    10  22    5.74   491.1    6.3      47.695
2014   10       12    10  28    5.74   491.2    6.3      47.692
2014   10       12    10  34    5.73   491.4    6.3      47.688
2014   10       12    10  40    5.73   491.5    6.2      47.686
2014   10       12    10  46    5.73   491.7    6.2      47.683
2014   10       12    10  51    5.73   491.8    6.2      47.682
2014   10       12    10  57    5.72   491.9    6.2      47.681
2014   10       12    11   3    5.72   492.1    6.2      47.680
2014   10       12    11   9    5.72   492.2    6.2      47.680
2014   10       12    11  15    5.71   492.3    6.2      47.681
2014   10       12    11  21    5.71   492.5    6.2      47.684
2014   10       12    11  27    5.71   492.6    6.2      47.687
2014   10       12    11  32    5.71   492.7    6.2      47.691
2014   10       12    11  38    5.70   492.9    6.2      47.697
2014   10       12    11  44    5.70   493.0    6.2      47.703
2014   10       12    11  50    5.70   493.1    6.2      47.711
2014   10       12    11  56    5.70   493.2    6.2      47.718
2014   10       12    12   2    5.69   493.4    6.2      47.725
2014   10       12    12   8    5.69   493.5    6.2      47.732
2014   10       12    12  13    5.69   493.6    6.2      47.738
2014   10       12    12  19    5.69   493.8    6.2      47.745
2014   10       12    12  25    5.68   493.9    6.1      47.751
2014   10       12    12  31    5.68   494.0    6.1      47.756
2014   10       12    12  37    5.68   494.2    6.1      47.762
2014   10       12    12  43    5.68   494.3    6.1      47.766
2014   10       12    12  49    5.67   494.4    6.1      47.770
2014   10       12    12  54    5.67   494.6    6.1      47.774
2014   10       12    13   0    5.67   494.7    6.1      47.776
2014   10       12    13   6    5.66   494.8    6.1      47.777
2014   10       12    13  12    5.66   495.0    6.1      47.776
2014   10       12    13  18    5.66   495.1    6.1      47.774
2014   10       12    13  24    5.66   495.2    6.1      47.771
2014   10       12    13  30    5.65   495.4    6.1      47.766
2014   10       12    13  35    5.65   495.5    6.1      47.761
2014   10       12    13  41    5.65   495.6    6.1      47.754
2014   10       12    13  47    5.64   495.8    6.0      47.745
2014   10       12    13  53    5.64   495.9    6.0      47.736
2014   10       12    13  59    5.64   496.0    6.0      47.726
2014   10       12    14   5    5.64   496.1    6.0      47.714
2014   10       12    14  11    5.63   496.3    6.0      47.702
2014   10       12    14  16    5.63   496.4    6.0      47.688
2014   10       12    14  22    5.63   496.5    6.0      47.674
2014   10       12    14  28    5.62   496.6    6.0      47.659
2014   10       12    14  34    5.62   496.7    6.0      47.643
2014   10       12    14  40    5.62   496.8    6.0      47.626
2014   10       12    14  46    5.61   497.0    6.0      47.608
2014   10       12    14  52    5.61   497.1    6.0      47.590
2014   10       12    14  57    5.61   497.2    5.9      47.571
2014   10       12    15   3    5.60   497.3    5.9      47.552
2014   10       12    15   9    5.60   497.4    5.9      47.532
2014   10       12    15  15    5.60   497.5    5.9      47.512
2014   10       12    15  21    5.60   497.6    5.9      47.491
2014   10       12    15  27    5.59   497.7    5.9      47.469
2014   10       12    15  33    5.59   497.8    5.9      47.447
2014   10       12    15  38    5.59   497.9    5.9      47.425
2014   10       12    15  44    5.58   498.0    5.9      47.401
2014   10       12    15  50    5.58   498.1    5.9      47.378
2014   10       12    15  56    5.58   498.2    5.9      47.354
2014   10       12    16   2    5.57   498.3    5.9      47.329
2014   10       12    16   8    5.57   498.4    5.8      47.304
2014   10       12    16  14    5.57   498.5    5.8      47.279
2014   10       12    16  19    5.56   498.6    5.8      47.253
2014   10       12    16  25    5.56   498.7    5.8      47.227
2014   10       12    16  31    5.56   498.8    5.8      47.200
2014   10       12    16  37    5.55   498.9    5.8      47.173
2014   10       12    16  43    5.55   499.0    5.8      47.145
2014   10       12    16  49    5.55   499.0    5.8      47.117
2014   10       12    16  54    5.54   499.1    5.8      47.089
2014   10       12    17   0    5.54   499.2    5.8      47.060
2014   10       12    17   6    5.54   499.3    5.8      47.031
2014   10       12    17  12    5.53   499.3    5.8      47.002
2014   10       12    17  18    5.53   499.4    5.7      46.973
2014   10       12    17  24    5.53   499.5    5.7      46.943
2014   10       12    17  29    5.52   499.5    5.7      46.914
2014   10       12    17  35    5.52   499.6    5.7      46.885
2014   10       12    17  41    5.52   499.7    5.7      46.857
2014   10       12    17  47    5.51   499.7    5.7      46.828
2014   10       12    17  53    5.51   499.8    5.7      46.801
2014   10       12    17  59    5.51   499.8    5.7      46.774
2014   10       12    18   5    5.50   499.9    5.7      46.748
2014   10       12    18  10    5.50   499.9    5.7      46.722
2014   10       12    18  16    5.50   500.0    5.7      46.698
2014   10       12    18  22    5.49   500.0    5.7      46.675
2014   10       12    18  28    5.49   500.1    5.7      46.653
2014   10       12    18  34    5.49   500.1    5.7      46.633
2014   10       12    18  40    5.49   500.1    5.7      46.614
2014   10       12    18  45    5.48   500.2    5.7      46.596
2014   10       12    18  51    5.48   500.2    5.7      46.581
2014   10       12    18  57    5.48   500.3    5.7      46.567
2014   10       12    19   3    5.47   500.3    5.7      46.555
2014   10       12    19   9    5.47   500.4    5.7      46.544
2014   10       12    19  15    5.47   500.4    5.6      46.535
2014   10       12    19  21    5.47   500.5    5.6      46.528
2014   10       12    19  26    5.46   500.5    5.6      46.522
2014   10       12    19  32    5.46   500.6    5.6      46.517
2014   10       12    19  38    5.46   500.6    5.6      46.513
2014   10       12    19  44    5.46   500.7    5.6      46.511
2014   10       12    19  50    5.45   500.7    5.6      46.508
2014   10       12    19  56    5.45   500.7    5.6      46.506
2014   10       12    20   2    5.45   500.8    5.6      46.502
2014   10       12    20   7    5.45   500.8    5.6      46.498
2014   10       12    20  13    5.45   500.9    5.6      46.493
2014   10       12    20  19    5.44   500.9    5.6      46.487
2014   10       12    20  25    5.44   501.0    5.6      46.481
2014   10       12    20  31    5.44   501.0    5.6      46.472
2014   10       12    20  37    5.44   501.0    5.6      46.463
2014   10       12    20  43    5.43   501.1    5.6      46.453
2014   10       12    20  48    5.43   501.1    5.6      46.442
2014   10       12    20  54    5.43   501.2    5.6      46.430
2014   10       12    21   0    5.43   501.2    5.6      46.417
2014   10       12    21   6    5.42   501.3    5.6      46.403
2014   10       12    21  12    5.42   501.3    5.6      46.388
2014   10       12    21  18    5.42   501.3    5.6      46.373
2014   10       12    21  24    5.42   501.4    5.6      46.357
2014   10       12    21  29    5.41   501.4    5.6      46.340
2014   10       12    21  35    5.41   501.4    5.6      46.323
2014   10       12    21  41    5.41   501.5    5.6      46.304
2014   10       12    21  47    5.41   501.5    5.6      46.286
2014   10       12    21  53    5.40   501.6    5.6      46.267
2014   10       12    21  59    5.40   501.6    5.5      46.247
2014   10       12    22   5    5.40   501.6    5.5      46.227
2014   10       12    22  10    5.40   501.7    5.5      46.206
2014   10       12    22  16    5.39   501.7    5.5      46.185
2014   10       12    22  22    5.39   501.7    5.5      46.164
2014   10       12    22  28    5.39   501.8    5.5      46.142
2014   10       12    22  34    5.39   501.8    5.5      46.120
2014   10       12    22  40    5.38   501.8    5.5      46.097
2014   10       12    22  46    5.38   501.9    5.5      46.075
2014   10       12    22  51    5.38   501.9    5.5      46.051
2014   10       12    22  57    5.38   501.9    5.5      46.028
2014   10       12    23   3    5.37   501.9    5.5      46.004
2014   10       12    23   9    5.37   502.0    5.5      45.980
2014   10       12    23  15    5.37   502.0    5.5      45.955
2014   10       12    23  21    5.37   502.0    5.5      45.930
2014   10       12    23  27    5.36   502.1    5.5      45.905
2014   10       12    23  32    5.36   502.1    5.5      45.879
2014   10       12    23  38    5.36   502.1    5.5      45.854
2014   10       12    23  44    5.36   502.1    5.5      45.828
2014   10       12    23  50    5.35   502.1    5.5      45.801
2014   10       12    23  56    5.35   502.2    5.4      45.775
2014   10       13     0   2    5.35   502.2    5.4      45.749
2014   10       13     0   7    5.35   502.2    5.4      45.722
2014   10       13     0  13    5.35   502.2    5.4      45.696
2014   10       13     0  19    5.34   502.2    5.4      45.669
2014   10       13     0  25    5.34   502.2    5.4      45.642
2014   10       13     0  31    5.34   502.3    5.4      45.616
2014   10       13     0  37    5.34   502.3    5.4      45.590
2014   10       13     0  43    5.33   502.3    5.4      45.565
2014   10       13     0  48    5.33   502.3    5.4      45.540
2014   10       13     0  54    5.33   502.3    5.4      45.515
2014   10       13     1   0    5.33   502.3    5.4      45.491
2014   10       13     1   6    5.32   502.3    5.4      45.468
2014   10       13     1  12    5.32   502.3    5.4      45.446
2014   10       13     1  18    5.32   502.3    5.4      45.424
2014   10       13     1  23    5.32   502.3    5.4      45.404
2014   10       13     1  29    5.32   502.3    5.4      45.385
2014   10       13     1  35    5.31   502.3    5.4      45.367
2014   10       13     1  41    5.31   502.3    5.4      45.350
2014   10       13     1  47    5.31   502.3    5.4      45.334
2014   10       13     1  53    5.31   502.3    5.4      45.319
2014   10       13     1  59    5.31   502.3    5.4      45.306
2014   10       13     2   4    5.31   502.3    5.4      45.295
2014   10       13     2  10    5.30   502.3    5.4      45.285
2014   10       13     2  16    5.30   502.3    5.4      45.276
2014   10       13     2  22    5.30   502.3    5.4      45.268
2014   10       13     2  28    5.30   502.3    5.4      45.261
2014   10       13     2  34    5.30   502.3    5.4      45.256
2014   10       13     2  39    5.30   502.4    5.4      45.252
2014   10       13     2  45    5.30   502.4    5.4      45.249
2014   10       13     2  51    5.29   502.4    5.4      45.246
2014   10       13     2  57    5.29   502.4    5.4      45.245
2014   10       13     3   3    5.29   502.4    5.4      45.244
2014   10       13     3   9    5.29   502.4    5.4      45.242
2014   10       13     3  15    5.29   502.4    5.4      45.239
2014   10       13     3  20    5.29   502.4    5.4      45.235
2014   10       13     3  26    5.29   502.4    5.4      45.231
2014   10       13     3  32    5.28   502.5    5.4      45.227
2014   10       13     3  38    5.28   502.5    5.4      45.221
2014   10       13     3  44    5.28   502.5    5.4      45.216
2014   10       13     3  50    5.28   502.5    5.4      45.209
2014   10       13     3  56    5.28   502.5    5.4      45.202
2014   10       13     4   1    5.28   502.5    5.4      45.194
2014   10       13     4   7    5.28   502.5    5.4      45.186
2014   10       13     4  13    5.28   502.5    5.4      45.178
2014   10       13     4  19    5.27   502.5    5.4      45.169
2014   10       13     4  25    5.27   502.5    5.4      45.159
2014   10       13     4  31    5.27   502.6    5.4      45.150
2014   10       13     4  37    5.27   502.6    5.4      45.139
2014   10       13     4  43    5.27   502.6    5.4      45.129
2014   10       13     4  48    5.27   502.6    5.4      45.118
2014   10       13     4  54    5.27   502.6    5.4      45.107
2014   10       13     5   0    5.26   502.6    5.4      45.096
2014   10       13     5   6    5.26   502.6    5.4      45.085
2014   10       13     5  12    5.26   502.6    5.4      45.073
2014   10       13     5  18    5.26   502.6    5.4      45.061
2014   10       13     5  24    5.26   502.6    5.4      45.050
2014   10       13     5  29    5.26   502.6    5.3      45.038
2014   10       13     5  35    5.26   502.6    5.3      45.026
2014   10       13     5  41    5.25   502.6    5.3      45.014
2014   10       13     5  47    5.25   502.7    5.3      45.002
2014   10       13     5  53    5.25   502.7    5.3      44.990
2014   10       13     5  59    5.25   502.7    5.3      44.978
2014   10       13     6   4    5.25   502.7    5.3      44.966
2014   10       13     6  10    5.25   502.7    5.3      44.954
2014   10       13     6  16    5.25   502.7    5.3      44.942
2014   10       13     6  22    5.25   502.7    5.3      44.930
2014   10       13     6  28    5.24   502.7    5.3      44.919
2014   10       13     6  34    5.24   502.7    5.3      44.907
2014   10       13     6  40    5.24   502.7    5.3      44.895
2014   10       13     6  45    5.24   502.7    5.3      44.884
2014   10       13     6  51    5.24   502.7    5.3      44.873
2014   10       13     6  57    5.24   502.7    5.3      44.861
2014   10       13     7   3    5.24   502.7    5.3      44.850
2014   10       13     7   9    5.24   502.7    5.3      44.840
2014   10       13     7  15    5.24   502.7    5.3      44.829
2014   10       13     7  21    5.23   502.7    5.3      44.819
2014   10       13     7  26    5.23   502.7    5.3      44.808
2014   10       13     7  32    5.23   502.7    5.3      44.798
2014   10       13     7  38    5.23   502.7    5.3      44.788
2014   10       13     7  44    5.23   502.7    5.3      44.779
2014   10       13     7  50    5.23   502.7    5.3      44.769
2014   10       13     7  56    5.23   502.7    5.3      44.760
2014   10       13     8   1    5.23   502.7    5.3      44.751
2014   10       13     8   7    5.23   502.7    5.3      44.742
2014   10       13     8  13    5.23   502.7    5.3      44.733
2014   10       13     8  19    5.22   502.7    5.3      44.725
2014   10       13     8  25    5.22   502.7    5.3      44.717
2014   10       13     8  31    5.22   502.7    5.3      44.709
2014   10       13     8  36    5.22   502.7    5.3      44.701
2014   10       13     8  42    5.22   502.7    5.3      44.693
2014   10       13     8  48    5.22   502.7    5.3      44.685
2014   10       13     8  54    5.22   502.7    5.3      44.677
2014   10       13     9   0    5.22   502.8    5.3      44.669
2014   10       13     9   6    5.22   502.8    5.3      44.661
2014   10       13     9  12    5.22   502.8    5.3      44.653
2014   10       13     9  17    5.22   502.8    5.3      44.645
2014   10       13     9  23    5.21   502.8    5.3      44.637
2014   10       13     9  29    5.21   502.8    5.3      44.629
2014   10       13     9  35    5.21   502.8    5.3      44.621
2014   10       13     9  41    5.21   502.8    5.3      44.614
2014   10       13     9  47    5.21   502.8    5.3      44.606
2014   10       13     9  52    5.21   502.8    5.3      44.598
2014   10       13     9  58    5.21   502.8    5.3      44.590
2014   10       13    10   4    5.21   502.8    5.3      44.582
2014   10       13    10  10    5.21   502.8    5.3      44.574
2014   10       13    10  16    5.21   502.9    5.3      44.567
2014   10       13    10  22    5.21   502.9    5.3      44.559
2014   10       13    10  28    5.21   502.9    5.3      44.551
2014   10       13    10  33    5.21   502.9    5.3      44.543
2014   10       13    10  39    5.20   502.9    5.3      44.536
2014   10       13    10  45    5.20   502.9    5.3      44.528
2014   10       13    10  51    5.20   502.9    5.3      44.520
2014   10       13    10  57    5.20   502.9    5.3      44.513
2014   10       13    11   3    5.20   502.9    5.3      44.505
2014   10       13    11   8    5.20   502.9    5.3      44.498
2014   10       13    11  14    5.20   502.9    5.3      44.490
2014   10       13    11  20    5.20   503.0    5.3      44.483
2014   10       13    11  26    5.20   503.0    5.3      44.476
2014   10       13    11  32    5.20   503.0    5.3      44.468
2014   10       13    11  38    5.20   503.0    5.3      44.461
2014   10       13    11  44    5.20   503.0    5.3      44.454
2014   10       13    11  49    5.20   503.0    5.3      44.447
2014   10       13    11  55    5.20   503.0    5.3      44.440
2014   10       13    12   1    5.20   503.0    5.3      44.434
2014   10       13    12   7    5.19   503.0    5.3      44.427
2014   10       13    12  13    5.19   503.0    5.3      44.421
2014   10       13    12  19    5.19   503.0    5.3      44.415
2014   10       13    12  24    5.19   503.1    5.3      44.409
2014   10       13    12  30    5.19   503.1    5.3      44.403
2014   10       13    12  36    5.19   503.1    5.3      44.398
2014   10       13    12  42    5.19   503.1    5.3      44.393
2014   10       13    12  48    5.19   503.1    5.3      44.388
2014   10       13    12  53    5.19   503.1    5.3      44.383
2014   10       13    12  59    5.19   503.1    5.3      44.379
2014   10       13    13   5    5.19   503.1    5.3      44.375
2014   10       13    13  11    5.19   503.1    5.3      44.372
2014   10       13    13  17    5.19   503.1    5.3      44.368
2014   10       13    13  23    5.19   503.1    5.3      44.365
2014   10       13    13  28    5.19   503.1    5.3      44.362
2014   10       13    13  34    5.19   503.1    5.3      44.360
2014   10       13    13  40    5.19   503.1    5.3      44.358
2014   10       13    13  46    5.19   503.2    5.3      44.355
2014   10       13    13  52    5.19   503.2    5.3      44.354
2014   10       13    13  58    5.18   503.2    5.3      44.352
2014   10       13    14   3    5.18   503.2    5.3      44.351
2014   10       13    14   9    5.18   503.2    5.3      44.350
2014   10       13    14  15    5.18   503.2    5.3      44.349
2014   10       13    14  21    5.18   503.2    5.3      44.348
2014   10       13    14  27    5.18   503.2    5.3      44.348
2014   10       13    14  32    5.18   503.2    5.3      44.347
2014   10       13    14  38    5.18   503.2    5.3      44.347
2014   10       13    14  44    5.18   503.2    5.3      44.347
2014   10       13    14  50    5.18   503.2    5.3      44.347
2014   10       13    14  56    5.18   503.2    5.3      44.347
2014   10       13    15   2    5.18   503.2    5.3      44.347
2014   10       13    15   7    5.18   503.2    5.3      44.347
2014   10       13    15  13    5.18   503.2    5.2      44.347
2014   10       13    15  19    5.18   503.2    5.2      44.346
2014   10       13    15  25    5.18   503.2    5.2      44.346
2014   10       13    15  31    5.18   503.2    5.2      44.346
2014   10       13    15  37    5.18   503.3    5.2      44.346
2014   10       13    15  43    5.18   503.3    5.2      44.345
2014   10       13    15  48    5.18   503.3    5.2      44.344
2014   10       13    15  54    5.18   503.3    5.2      44.343
2014   10       13    16   0    5.18   503.3    5.2      44.342
2014   10       13    16   6    5.18   503.3    5.2      44.340
2014   10       13    16  12    5.18   503.3    5.2      44.339
2014   10       13    16  18    5.18   503.3    5.2      44.337
2014   10       13    16  23    5.18   503.3    5.2      44.334
2014   10       13    16  29    5.18   503.3    5.2      44.332
2014   10       13    16  35    5.18   503.3    5.2      44.329
2014   10       13    16  41    5.18   503.3    5.2      44.326
2014   10       13    16  47    5.18   503.3    5.2      44.323
2014   10       13    16  53    5.18   503.4    5.2      44.320
2014   10       13    16  59    5.18   503.4    5.2      44.317
2014   10       13    17   4    5.18   503.4    5.2      44.314
2014   10       13    17  10    5.18   503.4    5.2      44.311
2014   10       13    17  16    5.18   503.4    5.2      44.307
2014   10       13    17  22    5.18   503.4    5.2      44.304
2014   10       13    17  28    5.18   503.4    5.2      44.300
2014   10       13    17  34    5.18   503.4    5.2      44.297
2014   10       13    17  40    5.18   503.4    5.2      44.294
2014   10       13    17  45    5.18   503.5    5.2      44.291
2014   10       13    17  51    5.18   503.5    5.2      44.288
2014   10       13    17  57    5.18   503.5    5.2      44.285
2014   10       13    18   3    5.18   503.5    5.2      44.282
2014   10       13    18   9    5.18   503.5    5.2      44.280
2014   10       13    18  15    5.18   503.5    5.2      44.277
2014   10       13    18  21    5.18   503.5    5.2      44.275
2014   10       13    18  26    5.18   503.6    5.2      44.273
2014   10       13    18  32    5.18   503.6    5.2      44.272
2014   10       13    18  38    5.18   503.6    5.2      44.271
2014   10       13    18  44    5.18   503.6    5.2      44.270
2014   10       13    18  50    5.18   503.6    5.2      44.269
2014   10       13    18  56    5.18   503.6    5.2      44.269
2014   10       13    19   2    5.18   503.7    5.2      44.269
2014   10       13    19   7    5.18   503.7    5.2      44.269
2014   10       13    19  13    5.18   503.7    5.2      44.270
2014   10       13    19  19    5.18   503.7    5.2      44.271
2014   10       13    19  25    5.18   503.7    5.2      44.272
2014   10       13    19  31    5.18   503.8    5.2      44.274
2014   10       13    19  37    5.18   503.8    5.2      44.276
2014   10       13    19  43    5.18   503.8    5.2      44.279
2014   10       13    19  48    5.18   503.8    5.2      44.281
2014   10       13    19  54    5.18   503.8    5.2      44.284
2014   10       13    20   0    5.18   503.9    5.2      44.288
2014   10       13    20   6    5.18   503.9    5.2      44.292
2014   10       13    20  12    5.18   503.9    5.2      44.296
2014   10       13    20  18    5.18   503.9    5.2      44.300
2014   10       13    20  23    5.18   504.0    5.2      44.305
2014   10       13    20  29    5.18   504.0    5.2      44.309
2014   10       13    20  35    5.18   504.0    5.2      44.315
2014   10       13    20  41    5.18   504.0    5.2      44.320
2014   10       13    20  47    5.18   504.0    5.2      44.326
2014   10       13    20  53    5.18   504.1    5.2      44.331
2014   10       13    20  59    5.18   504.1    5.2      44.337
2014   10       13    21   4    5.18   504.1    5.2      44.344
2014   10       13    21  10    5.18   504.1    5.2      44.350
2014   10       13    21  16    5.18   504.2    5.2      44.356
2014   10       13    21  22    5.18   504.2    5.2      44.363
2014   10       13    21  28    5.18   504.2    5.2      44.370
2014   10       13    21  34    5.18   504.2    5.2      44.377
2014   10       13    21  39    5.18   504.3    5.2      44.384
2014   10       13    21  45    5.18   504.3    5.2      44.392
2014   10       13    21  51    5.19   504.3    5.2      44.400
2014   10       13    21  57    5.19   504.3    5.2      44.408
2014   10       13    22   3    5.19   504.4    5.2      44.416
2014   10       13    22   9    5.19   504.4    5.2      44.425
2014   10       13    22  14    5.19   504.4    5.2      44.435
2014   10       13    22  20    5.19   504.5    5.2      44.445
2014   10       13    22  26    5.19   504.5    5.2      44.456
2014   10       13    22  32    5.19   504.5    5.2      44.468
2014   10       13    22  38    5.19   504.6    5.2      44.479
2014   10       13    22  44    5.19   504.6    5.2      44.491
2014   10       13    22  49    5.19   504.6    5.2      44.502
2014   10       13    22  55    5.19   504.7    5.2      44.513
2014   10       13    23   1    5.19   504.7    5.2      44.524
2014   10       13    23   7    5.19   504.7    5.2      44.534
2014   10       13    23  13    5.19   504.8    5.2      44.544
2014   10       13    23  19    5.19   504.8    5.2      44.554
2014   10       13    23  24    5.19   504.8    5.2      44.563
2014   10       13    23  30    5.19   504.9    5.2      44.573
2014   10       13    23  36    5.19   504.9    5.2      44.582
2014   10       13    23  42    5.19   504.9    5.2      44.590
2014   10       13    23  48    5.20   505.0    5.2      44.599
2014   10       13    23  54    5.20   505.0    5.2      44.607
2014   10       14     0   0    5.20   505.0    5.2      44.615
2014   10       14     0   5    5.20   505.1    5.2      44.623
2014   10       14     0  11    5.20   505.1    5.2      44.631
2014   10       14     0  17    5.20   505.2    5.2      44.638
2014   10       14     0  23    5.20   505.2    5.2      44.645
2014   10       14     0  29    5.20   505.2    5.2      44.652
2014   10       14     0  35    5.20   505.3    5.2      44.659
2014   10       14     0  41    5.20   505.3    5.2      44.666
2014   10       14     0  46    5.20   505.4    5.2      44.672
2014   10       14     0  52    5.20   505.4    5.2      44.678
2014   10       14     0  58    5.20   505.4    5.2      44.685
2014   10       14     1   4    5.20   505.5    5.2      44.691
2014   10       14     1  10    5.20   505.5    5.2      44.697
2014   10       14     1  16    5.20   505.5    5.2      44.703
2014   10       14     1  22    5.20   505.6    5.2      44.709
2014   10       14     1  27    5.20   505.6    5.2      44.715
2014   10       14     1  33    5.20   505.7    5.2      44.721
2014   10       14     1  39    5.20   505.7    5.2      44.727
2014   10       14     1  45    5.20   505.8    5.2      44.734
2014   10       14     1  51    5.20   505.8    5.2      44.740
2014   10       14     1  57    5.20   505.8    5.2      44.746
2014   10       14     2   3    5.21   505.9    5.2      44.753
2014   10       14     2   8    5.21   505.9    5.2      44.760
2014   10       14     2  14    5.21   506.0    5.2      44.767
2014   10       14     2  20    5.21   506.0    5.2      44.775
2014   10       14     2  26    5.21   506.1    5.2      44.782
2014   10       14     2  32    5.21   506.1    5.2      44.790
2014   10       14     2  38    5.21   506.1    5.2      44.798
2014   10       14     2  44    5.21   506.2    5.2      44.807
2014   10       14     2  49    5.21   506.2    5.2      44.816
2014   10       14     2  55    5.21   506.3    5.2      44.825
2014   10       14     3   1    5.21   506.3    5.2      44.834
2014   10       14     3   7    5.21   506.4    5.2      44.844
2014   10       14     3  13    5.21   506.4    5.2      44.854
2014   10       14     3  19    5.21   506.5    5.2      44.865
2014   10       14     3  24    5.21   506.5    5.2      44.876
2014   10       14     3  30    5.21   506.6    5.2      44.887
2014   10       14     3  36    5.21   506.6    5.2      44.899
2014   10       14     3  42    5.21   506.7    5.2      44.910
2014   10       14     3  48    5.21   506.7    5.2      44.923
2014   10       14     3  54    5.22   506.8    5.2      44.935
2014   10       14     4   0    5.22   506.8    5.2      44.948
2014   10       14     4   5    5.22   506.9    5.2      44.962
2014   10       14     4  11    5.22   506.9    5.2      44.975
2014   10       14     4  17    5.22   507.0    5.2      44.989
2014   10       14     4  23    5.22   507.0    5.2      45.004
2014   10       14     4  29    5.22   507.1    5.2      45.019
2014   10       14     4  35    5.22   507.1    5.2      45.034
2014   10       14     4  40    5.22   507.2    5.2      45.049
2014   10       14     4  46    5.22   507.2    5.2      45.066
2014   10       14     4  52    5.22   507.3    5.2      45.082
2014   10       14     4  58    5.22   507.3    5.2      45.099
2014   10       14     5   4    5.23   507.4    5.2      45.117
2014   10       14     5  10    5.23   507.5    5.2      45.136
2014   10       14     5  15    5.23   507.5    5.2      45.155
2014   10       14     5  21    5.23   507.6    5.2      45.175
2014   10       14     5  27    5.23   507.6    5.2      45.196
2014   10       14     5  33    5.23   507.7    5.2      45.219
2014   10       14     5  39    5.23   507.8    5.2      45.243
2014   10       14     5  45    5.23   507.9    5.2      45.267
2014   10       14     5  50    5.23   507.9    5.2      45.293
2014   10       14     5  56    5.24   508.0    5.2      45.319
2014   10       14     6   2    5.24   508.1    5.2      45.347
2014   10       14     6   8    5.24   508.2    5.2      45.375
2014   10       14     6  14    5.24   508.3    5.2      45.404
2014   10       14     6  20    5.24   508.4    5.2      45.433
2014   10       14     6  25    5.24   508.5    5.2      45.463
2014   10       14     6  31    5.24   508.5    5.2      45.492
2014   10       14     6  37    5.24   508.6    5.2      45.520
2014   10       14     6  43    5.24   508.7    5.2      45.547
2014   10       14     6  49    5.24   508.8    5.2      45.574
2014   10       14     6  55    5.24   508.9    5.2      45.600
2014   10       14     7   1    5.24   509.0    5.2      45.625
2014   10       14     7   6    5.25   509.1    5.2      45.649
2014   10       14     7  12    5.25   509.2    5.2      45.673
2014   10       14     7  18    5.25   509.3    5.2      45.696
2014   10       14     7  24    5.25   509.4    5.2      45.719
2014   10       14     7  30    5.25   509.4    5.2      45.740
2014   10       14     7  36    5.25   509.5    5.2      45.762
2014   10       14     7  42    5.25   509.6    5.2      45.783
2014   10       14     7  47    5.25   509.7    5.2      45.803
2014   10       14     7  53    5.25   509.8    5.2      45.823
2014   10       14     7  59    5.25   509.9    5.2      45.843
2014   10       14     8   5    5.25   510.0    5.2      45.861
2014   10       14     8  11    5.25   510.1    5.2      45.880
2014   10       14     8  17    5.25   510.2    5.2      45.898
2014   10       14     8  23    5.25   510.3    5.2      45.916
2014   10       14     8  28    5.25   510.4    5.2      45.933
2014   10       14     8  34    5.25   510.4    5.2      45.950
2014   10       14     8  40    5.25   510.5    5.2      45.966
2014   10       14     8  46    5.25   510.6    5.2      45.983
2014   10       14     8  52    5.25   510.7    5.2      45.999
2014   10       14     8  58    5.25   510.8    5.2      46.014
2014   10       14     9   4    5.26   510.9    5.2      46.030
2014   10       14     9   9    5.26   511.0    5.2      46.045
2014   10       14     9  15    5.26   511.1    5.2      46.060
2014   10       14     9  21    5.26   511.2    5.2      46.075
2014   10       14     9  27    5.26   511.3    5.2      46.090
2014   10       14     9  33    5.26   511.4    5.2      46.105
2014   10       14     9  39    5.26   511.5    5.2      46.119
2014   10       14     9  45    5.26   511.6    5.2      46.134
2014   10       14     9  50    5.26   511.6    5.2      46.148
2014   10       14     9  56    5.26   511.7    5.2      46.163
2014   10       14    10   2    5.26   511.8    5.2      46.177
2014   10       14    10   8    5.26   511.9    5.2      46.192
2014   10       14    10  14    5.26   512.0    5.2      46.206
2014   10       14    10  20    5.26   512.1    5.2      46.221
2014   10       14    10  25    5.26   512.2    5.2      46.236
2014   10       14    10  31    5.26   512.3    5.2      46.251
2014   10       14    10  37    5.26   512.4    5.2      46.266
2014   10       14    10  43    5.26   512.5    5.2      46.282
2014   10       14    10  49    5.26   512.6    5.2      46.297
2014   10       14    10  55    5.26   512.7    5.2      46.314
2014   10       14    11   0    5.26   512.8    5.2      46.330
2014   10       14    11   6    5.26   512.9    5.2      46.347
2014   10       14    11  12    5.26   513.0    5.2      46.364
2014   10       14    11  18    5.26   513.1    5.2      46.382
2014   10       14    11  24    5.26   513.2    5.2      46.401
2014   10       14    11  30    5.27   513.3    5.2      46.420
2014   10       14    11  36    5.27   513.4    5.2      46.439
2014   10       14    11  41    5.27   513.5    5.2      46.459
2014   10       14    11  47    5.27   513.6    5.2      46.480
2014   10       14    11  53    5.27   513.7    5.2      46.501
2014   10       14    11  59    5.27   513.8    5.2      46.523
2014   10       14    12   5    5.27   513.9    5.2      46.545
2014   10       14    12  11    5.27   514.0    5.2      46.569
2014   10       14    12  16    5.27   514.1    5.2      46.593
2014   10       14    12  22    5.27   514.2    5.2      46.618
2014   10       14    12  28    5.27   514.3    5.2      46.643
2014   10       14    12  34    5.27   514.5    5.2      46.670
2014   10       14    12  40    5.27   514.6    5.2      46.699
2014   10       14    12  46    5.28   514.7    5.2      46.728
2014   10       14    12  51    5.28   514.8    5.2      46.758
2014   10       14    12  57    5.28   514.9    5.2      46.790
2014   10       14    13   3    5.28   515.0    5.2      46.822
2014   10       14    13   9    5.28   515.2    5.2      46.857
2014   10       14    13  15    5.28   515.3    5.2      46.893
2014   10       14    13  21    5.28   515.4    5.2      46.931
2014   10       14    13  26    5.28   515.6    5.2      46.969
2014   10       14    13  32    5.28   515.7    5.2      47.010
2014   10       14    13  38    5.28   515.9    5.2      47.050
2014   10       14    13  44    5.28   516.0    5.2      47.089
2014   10       14    13  50    5.28   516.2    5.2      47.126
2014   10       14    13  56    5.28   516.3    5.2      47.162
2014   10       14    14   1    5.28   516.5    5.2      47.197
2014   10       14    14   7    5.28   516.6    5.2      47.231
2014   10       14    14  13    5.28   516.8    5.2      47.263
2014   10       14    14  19    5.28   516.9    5.2      47.295
2014   10       14    14  25    5.28   517.1    5.2      47.325
2014   10       14    14  31    5.28   517.2    5.2      47.354
2014   10       14    14  37    5.28   517.4    5.2      47.383
2014   10       14    14  42    5.28   517.5    5.2      47.410
2014   10       14    14  48    5.28   517.7    5.2      47.437
2014   10       14    14  54    5.28   517.8    5.2      47.463
2014   10       14    15   0    5.28   518.0    5.2      47.488
2014   10       14    15   6    5.28   518.1    5.1      47.512
2014   10       14    15  12    5.28   518.3    5.1      47.536
2014   10       14    15  18    5.28   518.4    5.1      47.559
2014   10       14    15  23    5.28   518.6    5.1      47.582
2014   10       14    15  29    5.28   518.7    5.1      47.604
2014   10       14    15  35    5.28   518.9    5.1      47.625
2014   10       14    15  41    5.28   519.0    5.1      47.646
2014   10       14    15  47    5.28   519.1    5.1      47.666
2014   10       14    15  53    5.28   519.3    5.1      47.685
2014   10       14    15  59    5.28   519.4    5.1      47.705
2014   10       14    16   4    5.28   519.6    5.1      47.723
2014   10       14    16  10    5.28   519.7    5.1      47.741
2014   10       14    16  16    5.28   519.9    5.1      47.758
2014   10       14    16  22    5.28   520.0    5.1      47.775
2014   10       14    16  28    5.28   520.2    5.1      47.791
2014   10       14    16  34    5.28   520.3    5.1      47.807
2014   10       14    16  40    5.28   520.4    5.1      47.823
2014   10       14    16  45    5.28   520.6    5.1      47.838
2014   10       14    16  51    5.27   520.7    5.1      47.853
2014   10       14    16  57    5.27   520.9    5.1      47.867
2014   10       14    17   3    5.27   521.0    5.1      47.881
2014   10       14    17   9    5.27   521.1    5.1      47.894
2014   10       14    17  15    5.27   521.3    5.1      47.908
2014   10       14    17  20    5.27   521.4    5.1      47.920
2014   10       14    17  26    5.27   521.6    5.1      47.933
2014   10       14    17  32    5.27   521.7    5.1      47.945
2014   10       14    17  38    5.27   521.8    5.1      47.957
2014   10       14    17  44    5.27   522.0    5.1      47.969
2014   10       14    17  50    5.27   522.1    5.1      47.981
2014   10       14    17  56    5.27   522.3    5.0      47.992
2014   10       14    18   1    5.27   522.4    5.0      48.004
2014   10       14    18   7    5.26   522.5    5.0      48.015
2014   10       14    18  13    5.26   522.7    5.0      48.027
2014   10       14    18  19    5.26   522.8    5.0      48.038
2014   10       14    18  25    5.26   522.9    5.0      48.050
2014   10       14    18  31    5.26   523.1    5.0      48.061
2014   10       14    18  36    5.26   523.2    5.0      48.073
2014   10       14    18  42    5.26   523.4    5.0      48.084
2014   10       14    18  48    5.26   523.5    5.0      48.096
2014   10       14    18  54    5.26   523.6    5.0      48.108
2014   10       14    19   0    5.26   523.8    5.0      48.121
2014   10       14    19   6    5.26   523.9    5.0      48.133
2014   10       14    19  11    5.25   524.1    5.0      48.146
2014   10       14    19  17    5.25   524.2    5.0      48.159
2014   10       14    19  23    5.25   524.3    5.0      48.172
2014   10       14    19  29    5.25   524.5    5.0      48.186
2014   10       14    19  35    5.25   524.6    5.0      48.200
2014   10       14    19  41    5.25   524.8    5.0      48.214
2014   10       14    19  46    5.25   524.9    5.0      48.230
2014   10       14    19  52    5.25   525.0    5.0      48.245
2014   10       14    19  58    5.25   525.2    5.0      48.262
2014   10       14    20   4    5.25   525.3    5.0      48.279
2014   10       14    20  10    5.25   525.5    5.0      48.297
2014   10       14    20  16    5.24   525.6    5.0      48.315
2014   10       14    20  21    5.24   525.7    5.0      48.334
2014   10       14    20  27    5.24   525.9    5.0      48.354
2014   10       14    20  33    5.24   526.0    5.0      48.375
2014   10       14    20  39    5.24   526.2    5.0      48.396
2014   10       14    20  45    5.24   526.3    5.0      48.417
2014   10       14    20  51    5.24   526.5    5.0      48.439
2014   10       14    20  57    5.24   526.6    5.0      48.461
2014   10       14    21   2    5.24   526.8    5.0      48.481
2014   10       14    21   8    5.24   527.0    5.0      48.501
2014   10       14    21  14    5.23   527.1    5.0      48.520
2014   10       14    21  20    5.23   527.3    4.9      48.539
2014   10       14    21  26    5.23   527.4    4.9      48.557
2014   10       14    21  32    5.23   527.6    4.9      48.575
2014   10       14    21  37    5.23   527.7    4.9      48.591
2014   10       14    21  43    5.23   527.9    4.9      48.608
2014   10       14    21  49    5.22   528.0    4.9      48.623
2014   10       14    21  55    5.22   528.2    4.9      48.639
2014   10       14    22   1    5.22   528.3    4.9      48.653
2014   10       14    22   7    5.22   528.5    4.9      48.668
2014   10       14    22  13    5.22   528.6    4.9      48.681
2014   10       14    22  18    5.22   528.8    4.9      48.694
2014   10       14    22  24    5.21   528.9    4.9      48.706
2014   10       14    22  30    5.21   529.0    4.9      48.718
2014   10       14    22  36    5.21   529.2    4.9      48.728
2014   10       14    22  42    5.21   529.3    4.9      48.738
2014   10       14    22  48    5.20   529.4    4.9      48.747
2014   10       14    22  54    5.20   529.6    4.9      48.755
2014   10       14    22  59    5.20   529.7    4.9      48.762
2014   10       14    23   5    5.20   529.9    4.9      48.768
2014   10       14    23  11    5.20   530.0    4.9      48.773
2014   10       14    23  17    5.19   530.1    4.9      48.778
2014   10       14    23  23    5.19   530.2    4.9      48.782
2014   10       14    23  29    5.19   530.4    4.9      48.784
2014   10       14    23  35    5.19   530.5    4.9      48.786
2014   10       14    23  40    5.18   530.6    4.9      48.788
2014   10       14    23  46    5.18   530.7    4.9      48.788
2014   10       14    23  52    5.18   530.8    4.9      48.788
2014   10       14    23  58    5.18   531.0    4.8      48.787
2014   10       15     0   4    5.17   531.1    4.8      48.785
2014   10       15     0  10    5.17   531.2    4.8      48.783
2014   10       15     0  15    5.17   531.3    4.8      48.780
2014   10       15     0  21    5.17   531.4    4.8      48.777
2014   10       15     0  27    5.16   531.5    4.8      48.772
2014   10       15     0  33    5.16   531.6    4.8      48.768
2014   10       15     0  39    5.16   531.8    4.8      48.762
2014   10       15     0  45    5.15   531.9    4.8      48.756
2014   10       15     0  51    5.15   532.0    4.8      48.750
2014   10       15     0  56    5.15   532.1    4.8      48.743
2014   10       15     1   2    5.15   532.2    4.8      48.735
2014   10       15     1   8    5.14   532.3    4.8      48.727
2014   10       15     1  14    5.14   532.4    4.8      48.718
2014   10       15     1  20    5.14   532.5    4.8      48.709
2014   10       15     1  26    5.14   532.6    4.8      48.699
2014   10       15     1  31    5.13   532.7    4.8      48.689
2014   10       15     1  37    5.13   532.8    4.8      48.678
2014   10       15     1  43    5.13   532.9    4.8      48.667
2014   10       15     1  49    5.12   533.0    4.8      48.656
2014   10       15     1  55    5.12   533.1    4.7      48.644
2014   10       15     2   1    5.12   533.1    4.7      48.631
2014   10       15     2   6    5.12   533.2    4.7      48.618
2014   10       15     2  12    5.11   533.3    4.7      48.606
2014   10       15     2  18    5.11   533.4    4.7      48.592
2014   10       15     2  24    5.11   533.5    4.7      48.579
2014   10       15     2  30    5.11   533.6    4.7      48.566
2014   10       15     2  36    5.10   533.7    4.7      48.552
2014   10       15     2  41    5.10   533.7    4.7      48.538
2014   10       15     2  47    5.10   533.8    4.7      48.525
2014   10       15     2  53    5.09   533.9    4.7      48.512
2014   10       15     2  59    5.09   534.0    4.7      48.498
2014   10       15     3   5    5.09   534.1    4.7      48.486
2014   10       15     3  11    5.09   534.2    4.7      48.473
2014   10       15     3  16    5.08   534.2    4.7      48.461
2014   10       15     3  22    5.08   534.3    4.7      48.449
2014   10       15     3  28    5.08   534.4    4.7      48.438
2014   10       15     3  34    5.08   534.5    4.7      48.428
2014   10       15     3  40    5.07   534.6    4.7      48.417
2014   10       15     3  46    5.07   534.6    4.7      48.408
2014   10       15     3  52    5.07   534.7    4.7      48.399
2014   10       15     3  57    5.06   534.8    4.7      48.390
2014   10       15     4   3    5.06   534.9    4.7      48.382
2014   10       15     4   9    5.06   535.0    4.6      48.375
2014   10       15     4  15    5.06   535.1    4.6      48.368
2014   10       15     4  21    5.05   535.1    4.6      48.362
2014   10       15     4  27    5.05   535.2    4.6      48.356
2014   10       15     4  32    5.05   535.3    4.6      48.351
2014   10       15     4  38    5.05   535.4    4.6      48.347
2014   10       15     4  44    5.04   535.5    4.6      48.344
2014   10       15     4  50    5.04   535.6    4.6      48.340
2014   10       15     4  56    5.04   535.6    4.6      48.337
2014   10       15     5   2    5.03   535.7    4.6      48.334
2014   10       15     5   8    5.03   535.8    4.6      48.332
2014   10       15     5  13    5.03   535.9    4.6      48.330
2014   10       15     5  19    5.02   535.9    4.6      48.329
2014   10       15     5  25    5.02   536.0    4.6      48.328
2014   10       15     5  31    5.02   536.0    4.6      48.327
2014   10       15     5  37    5.01   536.1    4.6      48.325
2014   10       15     5  43    5.01   536.2    4.6      48.323
2014   10       15     5  48    5.01   536.2    4.6      48.321
2014   10       15     5  54    5.00   536.3    4.6      48.317
2014   10       15     6   0    5.00   536.3    4.6      48.313
2014   10       15     6   6    5.00   536.4    4.6      48.307
2014   10       15     6  12    4.99   536.4    4.6      48.300
2014   10       15     6  18    4.99   536.4    4.6      48.293
2014   10       15     6  24    4.98   536.5    4.6      48.284
2014   10       15     6  29    4.98   536.5    4.6      48.275
2014   10       15     6  35    4.98   536.6    4.6      48.264
2014   10       15     6  41    4.97   536.6    4.6      48.252
2014   10       15     6  47    4.97   536.6    4.6      48.240
2014   10       15     6  53    4.97   536.7    4.6      48.226
2014   10       15     6  59    4.96   536.7    4.6      48.212
2014   10       15     7   5    4.96   536.7    4.6      48.197
2014   10       15     7  10    4.96   536.8    4.6      48.181
2014   10       15     7  16    4.95   536.8    4.5      48.164
2014   10       15     7  22    4.95   536.8    4.5      48.146
2014   10       15     7  28    4.95   536.9    4.5      48.128
2014   10       15     7  34    4.94   536.9    4.5      48.109
2014   10       15     7  40    4.94   536.9    4.5      48.089
2014   10       15     7  46    4.94   536.9    4.5      48.068
2014   10       15     7  51    4.93   537.0    4.5      48.046
2014   10       15     7  57    4.93   537.0    4.5      48.024
2014   10       15     8   3    4.93   537.0    4.5      48.001
2014   10       15     8   9    4.92   537.0    4.5      47.978
2014   10       15     8  15    4.92   537.0    4.5      47.954
2014   10       15     8  21    4.92   537.1    4.5      47.929
2014   10       15     8  26    4.91   537.1    4.5      47.904
2014   10       15     8  32    4.91   537.1    4.5      47.877
2014   10       15     8  38    4.91   537.1    4.5      47.851
2014   10       15     8  44    4.90   537.1    4.5      47.824
2014   10       15     8  50    4.90   537.1    4.5      47.796
2014   10       15     8  56    4.89   537.1    4.5      47.767
2014   10       15     9   1    4.89   537.1    4.5      47.739
2014   10       15     9   7    4.89   537.1    4.5      47.709
2014   10       15     9  13    4.88   537.2    4.5      47.679
2014   10       15     9  19    4.88   537.2    4.5      47.649
2014   10       15     9  25    4.88   537.2    4.5      47.618
2014   10       15     9  31    4.87   537.1    4.5      47.587
2014   10       15     9  36    4.87   537.1    4.4      47.556
2014   10       15     9  42    4.87   537.1    4.4      47.524
2014   10       15     9  48    4.86   537.1    4.4      47.493
2014   10       15     9  54    4.86   537.1    4.4      47.461
2014   10       15    10   0    4.86   537.1    4.4      47.429
2014   10       15    10   6    4.85   537.1    4.4      47.397
2014   10       15    10  11    4.85   537.1    4.4      47.366
2014   10       15    10  17    4.85   537.1    4.4      47.335
2014   10       15    10  23    4.84   537.1    4.4      47.304
2014   10       15    10  29    4.84   537.1    4.4      47.274
2014   10       15    10  35    4.84   537.0    4.4      47.244
2014   10       15    10  41    4.83   537.0    4.4      47.215
2014   10       15    10  46    4.83   537.0    4.4      47.186
2014   10       15    10  52    4.83   537.0    4.4      47.158
2014   10       15    10  58    4.82   537.0    4.4      47.131
2014   10       15    11   4    4.82   537.0    4.4      47.105
2014   10       15    11  10    4.82   537.0    4.4      47.079
2014   10       15    11  16    4.82   537.0    4.4      47.055
2014   10       15    11  21    4.81   536.9    4.4      47.031
2014   10       15    11  27    4.81   536.9    4.4      47.008
2014   10       15    11  33    4.81   536.9    4.4      46.985
2014   10       15    11  39    4.80   536.9    4.4      46.964
2014   10       15    11  45    4.80   536.9    4.4      46.943
2014   10       15    11  51    4.80   536.9    4.4      46.924
2014   10       15    11  57    4.79   536.8    4.4      46.906
2014   10       15    12   2    4.79   536.8    4.4      46.888
2014   10       15    12   8    4.79   536.8    4.4      46.872
2014   10       15    12  14    4.78   536.8    4.4      46.856
2014   10       15    12  20    4.78   536.8    4.4      46.841
2014   10       15    12  26    4.78   536.7    4.4      46.827
2014   10       15    12  32    4.77   536.7    4.4      46.813
2014   10       15    12  38    4.77   536.7    4.4      46.801
2014   10       15    12  43    4.77   536.6    4.4      46.789
2014   10       15    12  49    4.76   536.6    4.4      46.777
2014   10       15    12  55    4.76   536.5    4.4      46.766
2014   10       15    13   1    4.76   536.5    4.4      46.754
2014   10       15    13   7    4.75   536.5    4.4      46.741
2014   10       15    13  13    4.75   536.4    4.4      46.727
2014   10       15    13  18    4.75   536.4    4.4      46.713
2014   10       15    13  24    4.74   536.3    4.4      46.697
2014   10       15    13  30    4.74   536.3    4.4      46.681
2014   10       15    13  36    4.74   536.2    4.4      46.663
2014   10       15    13  42    4.73   536.2    4.4      46.645
2014   10       15    13  48    4.73   536.1    4.4      46.625
2014   10       15    13  54    4.73   536.1    4.3      46.605
2014   10       15    13  59    4.72   536.0    4.3      46.584
2014   10       15    14   5    4.72   536.0    4.3      46.563
2014   10       15    14  11    4.72   535.9    4.3      46.540
2014   10       15    14  17    4.71   535.9    4.3      46.517
2014   10       15    14  23    4.71   535.8    4.3      46.493
2014   10       15    14  29    4.71   535.8    4.3      46.468
2014   10       15    14  35    4.70   535.7    4.3      46.443
2014   10       15    14  40    4.70   535.7    4.3      46.417
2014   10       15    14  46    4.70   535.6    4.3      46.390
2014   10       15    14  52    4.69   535.6    4.3      46.362
2014   10       15    14  58    4.69   535.5    4.3      46.334
2014   10       15    15   4    4.69   535.5    4.3      46.305
2014   10       15    15  10    4.69   535.4    4.3      46.275
2014   10       15    15  15    4.68   535.4    4.3      46.245
2014   10       15    15  21    4.68   535.3    4.3      46.214
2014   10       15    15  27    4.68   535.3    4.3      46.182
2014   10       15    15  33    4.67   535.2    4.3      46.150
2014   10       15    15  39    4.67   535.1    4.3      46.118
2014   10       15    15  45    4.67   535.1    4.3      46.084
2014   10       15    15  50    4.66   535.0    4.3      46.051
2014   10       15    15  56    4.66   535.0    4.3      46.016
2014   10       15    16   2    4.66   534.9    4.3      45.981
2014   10       15    16   8    4.65   534.8    4.3      45.946
2014   10       15    16  14    4.65   534.8    4.3      45.910
2014   10       15    16  20    4.65   534.7    4.3      45.874
2014   10       15    16  25    4.64   534.6    4.3      45.837
2014   10       15    16  31    4.64   534.6    4.3      45.799
2014   10       15    16  37    4.64   534.5    4.3      45.761
2014   10       15    16  43    4.63   534.4    4.3      45.722
2014   10       15    16  49    4.63   534.4    4.3      45.684
2014   10       15    16  55    4.63   534.3    4.3      45.644
2014   10       15    17   1    4.63   534.2    4.2      45.604
2014   10       15    17   6    4.62   534.1    4.2      45.564
2014   10       15    17  12    4.62   534.0    4.2      45.524
2014   10       15    17  18    4.62   534.0    4.2      45.483
2014   10       15    17  24    4.61   533.9    4.2      45.443
2014   10       15    17  30    4.61   533.8    4.2      45.402
2014   10       15    17  36    4.61   533.7    4.2      45.362
2014   10       15    17  41    4.60   533.6    4.2      45.322
2014   10       15    17  47    4.60   533.5    4.2      45.282
2014   10       15    17  53    4.60   533.4    4.2      45.242
2014   10       15    17  59    4.59   533.3    4.2      45.203
2014   10       15    18   5    4.59   533.2    4.2      45.165
2014   10       15    18  11    4.59   533.1    4.2      45.127
2014   10       15    18  16    4.58   533.1    4.2      45.090
2014   10       15    18  22    4.58   533.0    4.2      45.053
2014   10       15    18  28    4.58   532.9    4.2      45.018
2014   10       15    18  34    4.57   532.8    4.2      44.983
2014   10       15    18  40    4.57   532.7    4.2      44.949
2014   10       15    18  46    4.57   532.6    4.2      44.916
2014   10       15    18  51    4.57   532.5    4.2      44.884
2014   10       15    18  57    4.56   532.4    4.2      44.853
2014   10       15    19   3    4.56   532.3    4.2      44.822
2014   10       15    19   9    4.56   532.2    4.2      44.793
2014   10       15    19  15    4.55   532.1    4.2      44.764
2014   10       15    19  21    4.55   531.9    4.2      44.736
2014   10       15    19  27    4.55   531.8    4.2      44.709
2014   10       15    19  32    4.55   531.7    4.2      44.683
2014   10       15    19  38    4.54   531.6    4.2      44.658
2014   10       15    19  44    4.54   531.5    4.2      44.633
2014   10       15    19  50    4.54   531.4    4.2      44.610
2014   10       15    19  56    4.53   531.2    4.2      44.587
2014   10       15    20   2    4.53   531.1    4.2      44.565
2014   10       15    20   7    4.53   531.0    4.2      44.544
2014   10       15    20  13    4.52   530.9    4.2      44.523
2014   10       15    20  19    4.52   530.8    4.2      44.504
2014   10       15    20  25    4.52   530.6    4.2      44.485
2014   10       15    20  31    4.52   530.5    4.2      44.467
2014   10       15    20  37    4.51   530.4    4.2      44.448
2014   10       15    20  43    4.51   530.3    4.2      44.430
2014   10       15    20  48    4.51   530.2    4.2      44.411
2014   10       15    20  54    4.51   530.0    4.2      44.391
2014   10       15    21   0    4.50   529.9    4.2      44.370
2014   10       15    21   6    4.50   529.8    4.2      44.348
2014   10       15    21  12    4.50   529.7    4.2      44.325
2014   10       15    21  18    4.50   529.6    4.2      44.301
2014   10       15    21  24    4.49   529.4    4.2      44.276
2014   10       15    21  29    4.49   529.3    4.2      44.251
2014   10       15    21  35    4.49   529.2    4.2      44.224
2014   10       15    21  41    4.49   529.1    4.2      44.196
2014   10       15    21  47    4.48   529.0    4.2      44.168
2014   10       15    21  53    4.48   528.9    4.2      44.139
2014   10       15    21  59    4.48   528.7    4.2      44.108
2014   10       15    22   4    4.47   528.6    4.2      44.077
2014   10       15    22  10    4.47   528.5    4.2      44.044
2014   10       15    22  16    4.47   528.4    4.2      44.011
2014   10       15    22  22    4.47   528.3    4.2      43.977
2014   10       15    22  28    4.46   528.1    4.2      43.942
2014   10       15    22  34    4.46   528.0    4.2      43.906
2014   10       15    22  40    4.46   527.9    4.2      43.870
2014   10       15    22  45    4.46   527.8    4.2      43.832
2014   10       15    22  51    4.45   527.6    4.2      43.794
2014   10       15    22  57    4.45   527.5    4.2      43.755
2014   10       15    23   3    4.45   527.4    4.2      43.715
2014   10       15    23   9    4.44   527.2    4.2      43.675
2014   10       15    23  15    4.44   527.1    4.2      43.634
2014   10       15    23  20    4.44   527.0    4.2      43.592
2014   10       15    23  26    4.44   526.8    4.2      43.550
2014   10       15    23  32    4.43   526.7    4.1      43.507
2014   10       15    23  38    4.43   526.5    4.1      43.463
2014   10       15    23  44    4.43   526.4    4.1      43.419
2014   10       15    23  50    4.43   526.3    4.1      43.374
2014   10       15    23  55    4.42   526.1    4.1      43.329
2014   10       16     0   1    4.42   526.0    4.1      43.283
2014   10       16     0   7    4.42   525.8    4.1      43.237
2014   10       16     0  13    4.42   525.7    4.1      43.190
2014   10       16     0  19    4.41   525.5    4.1      43.143
2014   10       16     0  25    4.41   525.4    4.1      43.096
2014   10       16     0  30    4.41   525.2    4.1      43.048
2014   10       16     0  36    4.40   525.1    4.1      42.999
2014   10       16     0  42    4.40   524.9    4.1      42.951
2014   10       16     0  48    4.40   524.7    4.1      42.903
2014   10       16     0  54    4.40   524.6    4.1      42.854
2014   10       16     1   0    4.39   524.4    4.1      42.805
2014   10       16     1   5    4.39   524.3    4.1      42.756
2014   10       16     1  11    4.39   524.1    4.1      42.708
2014   10       16     1  17    4.39   523.9    4.1      42.659
2014   10       16     1  23    4.38   523.8    4.1      42.611
2014   10       16     1  29    4.38   523.6    4.1      42.562
2014   10       16     1  35    4.38   523.5    4.1      42.515
2014   10       16     1  40    4.38   523.3    4.1      42.467
2014   10       16     1  46    4.37   523.1    4.1      42.420
2014   10       16     1  52    4.37   523.0    4.1      42.373
2014   10       16     1  58    4.37   522.8    4.1      42.327
2014   10       16     2   4    4.37   522.6    4.1      42.281
2014   10       16     2  10    4.36   522.4    4.1      42.235
2014   10       16     2  15    4.36   522.3    4.1      42.190
2014   10       16     2  21    4.36   522.1    4.1      42.145
2014   10       16     2  27    4.36   521.9    4.1      42.101
2014   10       16     2  33    4.35   521.8    4.1      42.058
2014   10       16     2  39    4.35   521.6    4.1      42.015
2014   10       16     2  45    4.35   521.4    4.1      41.972
2014   10       16     2  51    4.35   521.2    4.1      41.930
2014   10       16     2  56    4.34   521.0    4.1      41.889
2014   10       16     3   2    4.34   520.9    4.1      41.849
2014   10       16     3   8    4.34   520.7    4.1      41.810
2014   10       16     3  14    4.34   520.5    4.1      41.772
2014   10       16     3  20    4.34   520.3    4.1      41.734
2014   10       16     3  26    4.33   520.1    4.1      41.698
2014   10       16     3  31    4.33   520.0    4.1      41.662
2014   10       16     3  37    4.33   519.8    4.1      41.628
2014   10       16     3  43    4.33   519.6    4.1      41.595
2014   10       16     3  49    4.33   519.4    4.1      41.564
2014   10       16     3  55    4.32   519.2    4.1      41.534
2014   10       16     4   1    4.32   519.1    4.1      41.505
2014   10       16     4   7    4.32   518.9    4.1      41.477
2014   10       16     4  12    4.32   518.7    4.1      41.449
2014   10       16     4  18    4.32   518.5    4.1      41.421
2014   10       16     4  24    4.31   518.3    4.1      41.393
2014   10       16     4  30    4.31   518.2    4.1      41.365
2014   10       16     4  36    4.31   518.0    4.1      41.337
2014   10       16     4  42    4.31   517.8    4.1      41.309
2014   10       16     4  48    4.31   517.6    4.1      41.282
2014   10       16     4  53    4.30   517.4    4.1      41.254
2014   10       16     4  59    4.30   517.3    4.1      41.227
2014   10       16     5   5    4.30   517.1    4.1      41.199
2014   10       16     5  11    4.30   516.9    4.1      41.172
2014   10       16     5  17    4.30   516.7    4.1      41.145
2014   10       16     5  23    4.29   516.5    4.1      41.119
2014   10       16     5  28    4.29   516.4    4.1      41.093
2014   10       16     5  34    4.29   516.2    4.1      41.066
2014   10       16     5  40    4.29   516.0    4.1      41.041
2014   10       16     5  46    4.29   515.8    4.1      41.015
2014   10       16     5  52    4.29   515.6    4.1      40.990
2014   10       16     5  58    4.28   515.5    4.1      40.966
2014   10       16     6   3    4.28   515.3    4.1      40.942
2014   10       16     6   9    4.28   515.1    4.1      40.919
2014   10       16     6  15    4.28   514.9    4.1      40.897
2014   10       16     6  21    4.28   514.7    4.1      40.874
2014   10       16     6  27    4.27   514.6    4.1      40.850
2014   10       16     6  33    4.27   514.4    4.1      40.826
2014   10       16     6  38    4.27   514.2    4.1      40.801
2014   10       16     6  44    4.27   514.0    4.1      40.775
2014   10       16     6  50    4.27   513.8    4.1      40.748
2014   10       16     6  56    4.27   513.7    4.1      40.720
2014   10       16     7   2    4.26   513.5    4.1      40.692
2014   10       16     7   8    4.26   513.3    4.1      40.663
2014   10       16     7  13    4.26   513.1    4.1      40.633
2014   10       16     7  19    4.26   512.9    4.1      40.602
2014   10       16     7  25    4.26   512.8    4.1      40.570
2014   10       16     7  31    4.26   512.6    4.1      40.538
2014   10       16     7  37    4.25   512.4    4.1      40.505
2014   10       16     7  43    4.25   512.2    4.1      40.471
2014   10       16     7  48    4.25   512.0    4.1      40.437
2014   10       16     7  54    4.25   511.9    4.1      40.403
2014   10       16     8   0    4.25   511.7    4.1      40.367
2014   10       16     8   6    4.24   511.5    4.1      40.331
2014   10       16     8  12    4.24   511.3    4.1      40.295
2014   10       16     8  18    4.24   511.1    4.1      40.258
2014   10       16     8  23    4.24   511.0    4.1      40.220
2014   10       16     8  29    4.24   510.8    4.1      40.182
2014   10       16     8  35    4.24   510.6    4.1      40.144
2014   10       16     8  41    4.23   510.4    4.1      40.105
2014   10       16     8  47    4.23   510.2    4.1      40.066
2014   10       16     8  53    4.23   510.0    4.1      40.026
2014   10       16     8  59    4.23   509.8    4.1      39.986
2014   10       16     9   4    4.23   509.6    4.1      39.945
2014   10       16     9  10    4.22   509.4    4.1      39.904
2014   10       16     9  16    4.22   509.2    4.1      39.863
2014   10       16     9  22    4.22   509.0    4.1      39.822
2014   10       16     9  28    4.22   508.8    4.1      39.780
2014   10       16     9  34    4.22   508.6    4.1      39.738
2014   10       16     9  39    4.22   508.4    4.1      39.696
2014   10       16     9  45    4.21   508.2    4.1      39.654
2014   10       16     9  51    4.21   508.0    4.1      39.612
2014   10       16     9  57    4.21   507.8    4.1      39.570
2014   10       16    10   3    4.21   507.6    4.1      39.529
2014   10       16    10   9    4.21   507.4    4.1      39.487
2014   10       16    10  15    4.21   507.2    4.1      39.446
2014   10       16    10  20    4.21   507.0    4.1      39.405
2014   10       16    10  26    4.20   506.8    4.0      39.364
2014   10       16    10  32    4.20   506.6    4.0      39.324
2014   10       16    10  38    4.20   506.4    4.0      39.284
2014   10       16    10  44    4.20   506.2    4.0      39.245
2014   10       16    10  50    4.20   506.0    4.0      39.206
2014   10       16    10  55    4.20   505.8    4.0      39.167
2014   10       16    11   1    4.19   505.6    4.0      39.129
2014   10       16    11   7    4.19   505.3    4.0      39.092
2014   10       16    11  13    4.19   505.1    4.0      39.055
2014   10       16    11  19    4.19   504.9    4.0      39.018
2014   10       16    11  25    4.19   504.7    4.0      38.982
2014   10       16    11  31    4.19   504.5    4.0      38.947
2014   10       16    11  36    4.19   504.3    4.0      38.911
2014   10       16    11  42    4.19   504.1    4.0      38.877
2014   10       16    11  48    4.18   503.8    4.0      38.843
2014   10       16    11  54    4.18   503.6    4.1      38.809
2014   10       16    12   0    4.18   503.4    4.1      38.776
2014   10       16    12   6    4.18   503.2    4.1      38.744
2014   10       16    12  12    4.18   503.0    4.1      38.712
2014   10       16    12  17    4.18   502.7    4.1      38.682
2014   10       16    12  23    4.18   502.5    4.1      38.652
2014   10       16    12  29    4.18   502.3    4.1      38.623
2014   10       16    12  35    4.17   502.1    4.1      38.594
2014   10       16    12  41    4.17   501.8    4.1      38.568
2014   10       16    12  47    4.17   501.6    4.1      38.542
2014   10       16    12  52    4.17   501.4    4.1      38.518
2014   10       16    12  58    4.17   501.2    4.1      38.495
2014   10       16    13   4    4.17   501.0    4.1      38.474
2014   10       16    13  10    4.17   500.7    4.1      38.453
2014   10       16    13  16    4.17   500.5    4.1      38.435
2014   10       16    13  22    4.17   500.3    4.1      38.419
2014   10       16    13  27    4.17   500.1    4.1      38.404
2014   10       16    13  33    4.17   499.9    4.1      38.390
2014   10       16    13  39    4.16   499.7    4.1      38.379
2014   10       16    13  45    4.16   499.5    4.1      38.367
2014   10       16    13  51    4.16   499.3    4.1      38.356
2014   10       16    13  57    4.16   499.1    4.1      38.345
2014   10       16    14   2    4.16   498.9    4.1      38.334
2014   10       16    14   8    4.16   498.7    4.1      38.323
2014   10       16    14  14    4.16   498.5    4.1      38.312
2014   10       16    14  20    4.16   498.3    4.1      38.300
2014   10       16    14  26    4.16   498.1    4.1      38.288
2014   10       16    14  32    4.16   497.9    4.1      38.276
2014   10       16    14  37    4.16   497.7    4.1      38.264
2014   10       16    14  43    4.16   497.5    4.1      38.251
2014   10       16    14  49    4.15   497.3    4.1      38.238
2014   10       16    14  55    4.15   497.1    4.1      38.225
2014   10       16    15   1    4.15   496.9    4.1      38.211
2014   10       16    15   7    4.15   496.7    4.2      38.197
2014   10       16    15  12    4.15   496.5    4.2      38.182
2014   10       16    15  18    4.15   496.3    4.2      38.167
2014   10       16    15  24    4.15   496.1    4.2      38.151
2014   10       16    15  30    4.15   495.9    4.2      38.135
2014   10       16    15  36    4.15   495.7    4.2      38.118
2014   10       16    15  42    4.15   495.5    4.2      38.101
2014   10       16    15  47    4.14   495.3    4.2      38.083
2014   10       16    15  53    4.14   495.1    4.2      38.065
2014   10       16    15  59    4.14   494.9    4.2      38.046
2014   10       16    16   5    4.14   494.7    4.2      38.027
2014   10       16    16  11    4.14   494.5    4.2      38.008
2014   10       16    16  17    4.14   494.3    4.2      37.988
2014   10       16    16  22    4.14   494.0    4.2      37.967
2014   10       16    16  28    4.14   493.8    4.2      37.947
2014   10       16    16  34    4.14   493.6    4.2      37.925
2014   10       16    16  40    4.13   493.4    4.2      37.904
2014   10       16    16  46    4.13   493.2    4.2      37.883
2014   10       16    16  52    4.13   493.0    4.2      37.861
2014   10       16    16  57    4.13   492.8    4.2      37.839
2014   10       16    17   3    4.13   492.6    4.2      37.817
2014   10       16    17   9    4.13   492.4    4.2      37.795
2014   10       16    17  15    4.13   492.1    4.2      37.772
2014   10       16    17  21    4.13   491.9    4.2      37.749
2014   10       16    17  27    4.13   491.7    4.2      37.727
2014   10       16    17  33    4.13   491.5    4.2      37.704
2014   10       16    17  38    4.12   491.3    4.2      37.681
2014   10       16    17  44    4.12   491.1    4.2      37.657
2014   10       16    17  50    4.12   490.8    4.2      37.634
2014   10       16    17  56    4.12   490.6    4.2      37.610
2014   10       16    18   2    4.12   490.4    4.2      37.587
2014   10       16    18   8    4.12   490.2    4.2      37.563
2014   10       16    18  14    4.12   490.0    4.2      37.538
2014   10       16    18  19    4.12   489.7    4.2      37.513
2014   10       16    18  25    4.12   489.5    4.2      37.488
2014   10       16    18  31    4.12   489.3    4.2      37.462
2014   10       16    18  37    4.11   489.1    4.2      37.436
2014   10       16    18  43    4.11   488.9    4.2      37.410
2014   10       16    18  49    4.11   488.6    4.2      37.383
2014   10       16    18  54    4.11   488.4    4.2      37.355
2014   10       16    19   0    4.11   488.2    4.2      37.328
2014   10       16    19   6    4.11   488.0    4.2      37.300
2014   10       16    19  12    4.11   487.7    4.2      37.271
2014   10       16    19  18    4.11   487.5    4.2      37.243
2014   10       16    19  24    4.11   487.3    4.2      37.214
2014   10       16    19  30    4.11   487.0    4.2      37.185
2014   10       16    19  35    4.11   486.8    4.2      37.157
2014   10       16    19  41    4.11   486.6    4.2      37.128
2014   10       16    19  47    4.11   486.4    4.2      37.099
2014   10       16    19  53    4.11   486.1    4.2      37.071
2014   10       16    19  59    4.11   485.9    4.3      37.043
2014   10       16    20   5    4.10   485.7    4.3      37.015
2014   10       16    20  10    4.10   485.5    4.3      36.987
2014   10       16    20  16    4.10   485.2    4.3      36.961
2014   10       16    20  22    4.10   485.0    4.3      36.934
2014   10       16    20  28    4.10   484.8    4.3      36.908
2014   10       16    20  34    4.10   484.6    4.3      36.882
2014   10       16    20  40    4.10   484.3    4.3      36.857
2014   10       16    20  45    4.10   484.1    4.3      36.833
2014   10       16    20  51    4.10   483.9    4.3      36.809
2014   10       16    20  57    4.10   483.7    4.3      36.786
2014   10       16    21   3    4.10   483.5    4.3      36.763
2014   10       16    21   9    4.10   483.2    4.3      36.741
2014   10       16    21  15    4.10   483.0    4.3      36.719
2014   10       16    21  20    4.10   482.8    4.3      36.698
2014   10       16    21  26    4.10   482.6    4.3      36.677
2014   10       16    21  32    4.10   482.4    4.3      36.657
2014   10       16    21  38    4.10   482.2    4.3      36.637
2014   10       16    21  44    4.10   481.9    4.3      36.617
2014   10       16    21  50    4.10   481.7    4.3      36.598
2014   10       16    21  55    4.10   481.5    4.3      36.580
2014   10       16    22   1    4.10   481.3    4.3      36.561
2014   10       16    22   7    4.10   481.1    4.3      36.543
2014   10       16    22  13    4.10   480.9    4.3      36.526
2014   10       16    22  19    4.10   480.6    4.3      36.508
2014   10       16    22  25    4.10   480.4    4.3      36.491
2014   10       16    22  30    4.11   480.2    4.3      36.475
2014   10       16    22  36    4.11   480.0    4.3      36.459
2014   10       16    22  42    4.11   479.8    4.3      36.443
2014   10       16    22  48    4.11   479.6    4.3      36.427
2014   10       16    22  54    4.11   479.3    4.3      36.412
2014   10       16    23   0    4.11   479.1    4.3      36.398
2014   10       16    23   5    4.11   478.9    4.4      36.384
2014   10       16    23  11    4.11   478.7    4.4      36.370
2014   10       16    23  17    4.11   478.5    4.4      36.357
2014   10       16    23  23    4.11   478.3    4.4      36.345
2014   10       16    23  29    4.11   478.0    4.4      36.333
2014   10       16    23  35    4.11   477.8    4.4      36.322
2014   10       16    23  40    4.11   477.6    4.4      36.311
2014   10       16    23  46    4.11   477.4    4.4      36.301
2014   10       16    23  52    4.11   477.2    4.4      36.292
2014   10       16    23  58    4.11   477.0    4.4      36.284
2014   10       17     0   4    4.12   476.8    4.4      36.276
2014   10       17     0  10    4.12   476.6    4.4      36.269
2014   10       17     0  16    4.12   476.4    4.4      36.262
2014   10       17     0  21    4.12   476.2    4.4      36.256
2014   10       17     0  27    4.12   476.0    4.4      36.251
2014   10       17     0  33    4.12   475.8    4.4      36.247
2014   10       17     0  39    4.12   475.6    4.4      36.243
2014   10       17     0  45    4.12   475.4    4.4      36.240
2014   10       17     0  51    4.12   475.2    4.4      36.238
2014   10       17     0  56    4.13   475.0    4.4      36.236
2014   10       17     1   2    4.13   474.8    4.4      36.234
2014   10       17     1   8    4.13   474.6    4.4      36.234
2014   10       17     1  14    4.13   474.4    4.5      36.233
2014   10       17     1  20    4.13   474.2    4.5      36.234
2014   10       17     1  26    4.13   474.0    4.5      36.234
2014   10       17     1  32    4.13   473.8    4.5      36.235
2014   10       17     1  37    4.13   473.6    4.5      36.237
2014   10       17     1  43    4.13   473.5    4.5      36.238
2014   10       17     1  49    4.13   473.3    4.5      36.240
2014   10       17     1  55    4.14   473.1    4.5      36.242
2014   10       17     2   1    4.14   472.9    4.5      36.244
2014   10       17     2   7    4.14   472.7    4.5      36.247
2014   10       17     2  13    4.14   472.6    4.5      36.249
2014   10       17     2  18    4.14   472.4    4.5      36.252
2014   10       17     2  24    4.14   472.2    4.5      36.254
2014   10       17     2  30    4.14   472.1    4.5      36.257
2014   10       17     2  36    4.14   471.9    4.5      36.259
2014   10       17     2  42    4.14   471.7    4.5      36.262
2014   10       17     2  48    4.14   471.5    4.5      36.265
2014   10       17     2  53    4.14   471.4    4.5      36.268
2014   10       17     2  59    4.14   471.2    4.6      36.271
2014   10       17     3   5    4.14   471.0    4.6      36.274
2014   10       17     3  11    4.14   470.8    4.6      36.277
2014   10       17     3  17    4.15   470.7    4.6      36.280
2014   10       17     3  23    4.15   470.5    4.6      36.282
2014   10       17     3  28    4.15   470.3    4.6      36.284
2014   10       17     3  34    4.15   470.1    4.6      36.285
2014   10       17     3  40    4.15   470.0    4.6      36.285
2014   10       17     3  46    4.15   469.8    4.6      36.285
2014   10       17     3  52    4.15   469.6    4.6      36.284
2014   10       17     3  58    4.15   469.4    4.6      36.283
2014   10       17     4   3    4.15   469.2    4.6      36.281
2014   10       17     4   9    4.15   469.1    4.6      36.279
2014   10       17     4  15    4.15   468.9    4.6      36.276
2014   10       17     4  21    4.15   468.7    4.6      36.273
2014   10       17     4  27    4.15   468.5    4.6      36.269
2014   10       17     4  33    4.15   468.4    4.6      36.265
2014   10       17     4  38    4.16   468.2    4.6      36.261
2014   10       17     4  44    4.16   468.0    4.6      36.257
2014   10       17     4  50    4.16   467.8    4.6      36.252
2014   10       17     4  56    4.16   467.6    4.7      36.247
2014   10       17     5   2    4.16   467.5    4.7      36.242
2014   10       17     5   8    4.16   467.3    4.7      36.237
2014   10       17     5  13    4.16   467.1    4.7      36.231
2014   10       17     5  19    4.16   466.9    4.7      36.226
2014   10       17     5  25    4.16   466.8    4.7      36.221
2014   10       17     5  31    4.16   466.6    4.7      36.215
2014   10       17     5  37    4.16   466.4    4.7      36.210
2014   10       17     5  43    4.17   466.2    4.7      36.204
2014   10       17     5  48    4.17   466.1    4.7      36.199
2014   10       17     5  54    4.17   465.9    4.7      36.193
2014   10       17     6   0    4.17   465.7    4.7      36.188
2014   10       17     6   6    4.17   465.6    4.7      36.182
2014   10       17     6  12    4.17   465.4    4.7      36.177
2014   10       17     6  18    4.17   465.2    4.7      36.171
2014   10       17     6  23    4.17   465.0    4.7      36.166
2014   10       17     6  29    4.18   464.9    4.7      36.161
2014   10       17     6  35    4.18   464.7    4.7      36.155
2014   10       17     6  41    4.18   464.5    4.7      36.150
2014   10       17     6  47    4.18   464.4    4.7      36.145
2014   10       17     6  53    4.18   464.2    4.8      36.139
2014   10       17     6  58    4.18   464.1    4.8      36.134
2014   10       17     7   4    4.18   463.9    4.8      36.129
2014   10       17     7  10    4.19   463.7    4.8      36.124
2014   10       17     7  16    4.19   463.6    4.8      36.119
2014   10       17     7  22    4.19   463.4    4.8      36.114
2014   10       17     7  28    4.19   463.3    4.8      36.109
2014   10       17     7  33    4.19   463.1    4.8      36.104
2014   10       17     7  39    4.20   462.9    4.8      36.099
2014   10       17     7  45    4.20   462.8    4.8      36.095
2014   10       17     7  51    4.20   462.6    4.8      36.090
2014   10       17     7  57    4.20   462.5    4.8      36.086
2014   10       17     8   3    4.20   462.3    4.8      36.081
2014   10       17     8   9    4.20   462.2    4.8      36.077
2014   10       17     8  14    4.21   462.0    4.8      36.073
2014   10       17     8  20    4.21   461.9    4.8      36.069
2014   10       17     8  26    4.21   461.7    4.8      36.066
2014   10       17     8  32    4.21   461.6    4.8      36.062
2014   10       17     8  38    4.22   461.4    4.8      36.059
2014   10       17     8  44    4.22   461.3    4.8      36.056
2014   10       17     8  50    4.22   461.2    4.9      36.053
2014   10       17     8  55    4.22   461.0    4.9      36.051
2014   10       17     9   1    4.22   460.9    4.9      36.048
2014   10       17     9   7    4.23   460.8    4.9      36.046
2014   10       17     9  13    4.23   460.6    4.9      36.044
2014   10       17     9  19    4.23   460.5    4.9      36.042
2014   10       17     9  25    4.23   460.3    4.9      36.041
2014   10       17     9  30    4.24   460.2    4.9      36.039
2014   10       17     9  36    4.24   460.1    4.9      36.038
2014   10       17     9  42    4.24   460.0    4.9      36.037
2014   10       17     9  48    4.24   459.8    4.9      36.036
2014   10       17     9  54    4.24   459.7    4.9      36.036
2014   10       17    10   0    4.25   459.6    4.9      36.035
2014   10       17    10   5    4.25   459.4    4.9      36.035
2014   10       17    10  11    4.25   459.3    4.9      36.035
2014   10       17    10  17    4.25   459.2    4.9      36.035
2014   10       17    10  23    4.25   459.1    4.9      36.035
2014   10       17    10  29    4.26   458.9    4.9      36.035
2014   10       17    10  35    4.26   458.8    5.0      36.035
2014   10       17    10  41    4.26   458.7    5.0      36.036
2014   10       17    10  46    4.26   458.6    5.0      36.036
2014   10       17    10  52    4.26   458.5    5.0      36.036
2014   10       17    10  58    4.26   458.3    5.0      36.037
2014   10       17    11   4    4.27   458.2    5.0      36.038
2014   10       17    11  10    4.27   458.1    5.0      36.038
2014   10       17    11  15    4.27   458.0    5.0      36.038
2014   10       17    11  21    4.27   457.9    5.0      36.039
2014   10       17    11  27    4.27   457.8    5.0      36.039
2014   10       17    11  33    4.27   457.6    5.0      36.039
2014   10       17    11  39    4.27   457.5    5.0      36.040
2014   10       17    11  45    4.28   457.4    5.0      36.040
2014   10       17    11  50    4.28   457.3    5.0      36.040
2014   10       17    11  56    4.28   457.2    5.0      36.039
2014   10       17    12   2    4.28   457.0    5.0      36.039
2014   10       17    12   8    4.28   456.9    5.0      36.039
2014   10       17    12  14    4.28   456.8    5.0      36.038
2014   10       17    12  20    4.28   456.7    5.0      36.037
2014   10       17    12  25    4.28   456.6    5.1      36.036
2014   10       17    12  31    4.29   456.5    5.1      36.035
2014   10       17    12  37    4.29   456.3    5.1      36.033
2014   10       17    12  43    4.29   456.2    5.1      36.032
2014   10       17    12  49    4.29   456.1    5.1      36.030
2014   10       17    12  55    4.29   456.0    5.1      36.028
2014   10       17    13   0    4.29   455.9    5.1      36.026
2014   10       17    13   6    4.29   455.8    5.1      36.023
2014   10       17    13  12    4.29   455.6    5.1      36.021
2014   10       17    13  18    4.30   455.5    5.1      36.018
2014   10       17    13  24    4.30   455.4    5.1      36.015
2014   10       17    13  30    4.30   455.3    5.1      36.012
2014   10       17    13  35    4.30   455.2    5.1      36.009
2014   10       17    13  41    4.30   455.0    5.1      36.005
2014   10       17    13  47    4.30   454.9    5.1      36.002
2014   10       17    13  53    4.30   454.8    5.1      35.998
2014   10       17    13  59    4.30   454.7    5.1      35.994
2014   10       17    14   5    4.31   454.6    5.1      35.990
2014   10       17    14  10    4.31   454.4    5.1      35.986
2014   10       17    14  16    4.31   454.3    5.1      35.982
2014   10       17    14  22    4.31   454.2    5.1      35.977
2014   10       17    14  28    4.31   454.1    5.1      35.973
2014   10       17    14  34    4.31   454.0    5.2      35.969
2014   10       17    14  40    4.31   453.8    5.2      35.965
2014   10       17    14  46    4.32   453.7    5.2      35.961
2014   10       17    14  51    4.32   453.6    5.2      35.956
2014   10       17    14  57    4.32   453.5    5.2      35.952
2014   10       17    15   3    4.32   453.4    5.2      35.948
2014   10       17    15   9    4.32   453.2    5.2      35.944
2014   10       17    15  15    4.32   453.1    5.2      35.941
2014   10       17    15  21    4.32   453.0    5.2      35.937
2014   10       17    15  26    4.33   452.9    5.2      35.933
2014   10       17    15  32    4.33   452.8    5.2      35.930
2014   10       17    15  38    4.33   452.7    5.2      35.926
2014   10       17    15  44    4.33   452.5    5.2      35.923
2014   10       17    15  50    4.33   452.4    5.2      35.920
2014   10       17    15  56    4.33   452.3    5.2      35.917
2014   10       17    16   2    4.34   452.2    5.2      35.915
2014   10       17    16   7    4.34   452.1    5.2      35.912
2014   10       17    16  13    4.34   452.0    5.2      35.910
2014   10       17    16  19    4.34   451.8    5.2      35.908
2014   10       17    16  25    4.34   451.7    5.2      35.906
2014   10       17    16  31    4.34   451.6    5.2      35.904
2014   10       17    16  37    4.35   451.5    5.3      35.902
2014   10       17    16  42    4.35   451.4    5.3      35.901
2014   10       17    16  48    4.35   451.3    5.3      35.900
2014   10       17    16  54    4.35   451.2    5.3      35.899
2014   10       17    17   0    4.35   451.1    5.3      35.898
2014   10       17    17   6    4.36   451.0    5.3      35.897
2014   10       17    17  12    4.36   450.9    5.3      35.896
2014   10       17    17  18    4.36   450.8    5.3      35.896
2014   10       17    17  23    4.36   450.6    5.3      35.895
2014   10       17    17  29    4.36   450.5    5.3      35.895
2014   10       17    17  35    4.36   450.4    5.3      35.895
2014   10       17    17  41    4.37   450.3    5.3      35.894
2014   10       17    17  47    4.37   450.2    5.3      35.894
2014   10       17    17  53    4.37   450.1    5.3      35.894
2014   10       17    17  58    4.37   450.0    5.3      35.894
2014   10       17    18   4    4.37   449.9    5.3      35.894
2014   10       17    18  10    4.38   449.8    5.3      35.894
2014   10       17    18  16    4.38   449.7    5.3      35.894
2014   10       17    18  22    4.38   449.6    5.3      35.894
2014   10       17    18  27    4.38   449.5    5.4      35.894
2014   10       17    18  33    4.38   449.4    5.4      35.894
2014   10       17    18  39    4.38   449.3    5.4      35.894
2014   10       17    18  45    4.39   449.2    5.4      35.893
2014   10       17    18  51    4.39   449.1    5.4      35.893
2014   10       17    18  57    4.39   449.0    5.4      35.892
2014   10       17    19   2    4.39   448.9    5.4      35.892
2014   10       17    19   8    4.39   448.8    5.4      35.891
2014   10       17    19  14    4.39   448.7    5.4      35.890
2014   10       17    19  20    4.39   448.6    5.4      35.888
2014   10       17    19  26    4.40   448.5    5.4      35.887
2014   10       17    19  32    4.40   448.4    5.4      35.885
2014   10       17    19  37    4.40   448.3    5.4      35.883
2014   10       17    19  43    4.40   448.2    5.4      35.881
2014   10       17    19  49    4.40   448.1    5.4      35.878
2014   10       17    19  55    4.40   448.1    5.4      35.876
2014   10       17    20   1    4.40   448.0    5.4      35.873
2014   10       17    20   7    4.41   447.9    5.4      35.869
2014   10       17    20  12    4.41   447.8    5.5      35.866
2014   10       17    20  18    4.41   447.7    5.5      35.862
2014   10       17    20  24    4.41   447.6    5.5      35.858
2014   10       17    20  30    4.41   447.5    5.5      35.854
2014   10       17    20  36    4.41   447.4    5.5      35.849
2014   10       17    20  42    4.41   447.3    5.5      35.844
2014   10       17    20  47    4.41   447.2    5.5      35.839
2014   10       17    20  53    4.42   447.1    5.5      35.833
2014   10       17    20  59    4.42   447.0    5.5      35.827
2014   10       17    21   5    4.42   446.9    5.5      35.821
2014   10       17    21  11    4.42   446.8    5.5      35.815
2014   10       17    21  17    4.42   446.7    5.5      35.808
2014   10       17    21  22    4.42   446.6    5.5      35.800
2014   10       17    21  28    4.42   446.5    5.5      35.793
2014   10       17    21  34    4.42   446.4    5.5      35.785
2014   10       17    21  40    4.42   446.3    5.5      35.777
2014   10       17    21  46    4.43   446.2    5.5      35.769
2014   10       17    21  52    4.43   446.1    5.5      35.761
2014   10       17    21  57    4.43   446.0    5.5      35.752
2014   10       17    22   3    4.43   445.9    5.5      35.743
2014   10       17    22   9    4.43   445.8    5.5      35.734
2014   10       17    22  15    4.43   445.7    5.5      35.724
2014   10       17    22  21    4.43   445.6    5.6      35.715
2014   10       17    22  27    4.43   445.5    5.6      35.705
2014   10       17    22  33    4.44   445.4    5.6      35.696
2014   10       17    22  38    4.44   445.3    5.6      35.686
2014   10       17    22  44    4.44   445.2    5.6      35.676
2014   10       17    22  50    4.44   445.1    5.6      35.666
2014   10       17    22  56    4.44   445.0    5.6      35.656
2014   10       17    23   2    4.44   444.9    5.6      35.646
2014   10       17    23   8    4.44   444.8    5.6      35.636
2014   10       17    23  14    4.44   444.7    5.6      35.626
2014   10       17    23  19    4.44   444.6    5.6      35.616
2014   10       17    23  25    4.45   444.5    5.6      35.606
2014   10       17    23  31    4.45   444.4    5.6      35.596
2014   10       17    23  37    4.45   444.3    5.6      35.586
2014   10       17    23  43    4.45   444.2    5.6      35.577
2014   10       17    23  49    4.45   444.1    5.6      35.567
2014   10       17    23  54    4.45   444.0    5.6      35.558
2014   10       18     0   0    4.45   443.9    5.6      35.548
2014   10       18     0   6    4.46   443.8    5.6      35.539
2014   10       18     0  12    4.46   443.7    5.6      35.530
2014   10       18     0  18    4.46   443.6    5.6      35.521
2014   10       18     0  24    4.46   443.5    5.6      35.512
2014   10       18     0  29    4.46   443.4    5.6      35.503
2014   10       18     0  35    4.46   443.3    5.6      35.495
2014   10       18     0  41    4.46   443.2    5.7      35.486
2014   10       18     0  47    4.47   443.1    5.7      35.477
2014   10       18     0  53    4.47   443.0    5.7      35.469
2014   10       18     0  59    4.47   442.9    5.7      35.460
2014   10       18     1   5    4.47   442.9    5.7      35.452
2014   10       18     1  10    4.47   442.8    5.7      35.444
2014   10       18     1  16    4.47   442.7    5.7      35.435
2014   10       18     1  22    4.47   442.6    5.7      35.427
2014   10       18     1  28    4.48   442.5    5.7      35.419
2014   10       18     1  34    4.48   442.4    5.7      35.411
2014   10       18     1  39    4.48   442.3    5.7      35.403
2014   10       18     1  45    4.48   442.2    5.7      35.394
2014   10       18     1  51    4.48   442.1    5.7      35.386
2014   10       18     1  57    4.48   442.0    5.7      35.378
2014   10       18     2   3    4.48   441.9    5.7      35.370
2014   10       18     2   9    4.49   441.8    5.7      35.361
2014   10       18     2  14    4.49   441.7    5.7      35.353
2014   10       18     2  20    4.49   441.6    5.7      35.345
2014   10       18     2  26    4.49   441.5    5.7      35.336
2014   10       18     2  32    4.49   441.4    5.7      35.328
2014   10       18     2  38    4.49   441.3    5.7      35.319
2014   10       18     2  44    4.49   441.3    5.7      35.311
2014   10       18     2  49    4.49   441.2    5.8      35.302
2014   10       18     2  55    4.50   441.1    5.8      35.294
2014   10       18     3   1    4.50   441.0    5.8      35.285
2014   10       18     3   7    4.50   440.9    5.8      35.276
2014   10       18     3  13    4.50   440.8    5.8      35.267
2014   10       18     3  18    4.50   440.7    5.8      35.258
2014   10       18     3  24    4.50   440.6    5.8      35.249
2014   10       18     3  30    4.50   440.5    5.8      35.240
2014   10       18     3  36    4.50   440.4    5.8      35.231
2014   10       18     3  42    4.50   440.3    5.8      35.222
2014   10       18     3  48    4.51   440.2    5.8      35.212
2014   10       18     3  53    4.51   440.1    5.8      35.203
2014   10       18     3  59    4.51   440.1    5.8      35.193
2014   10       18     4   5    4.51   440.0    5.8      35.183
2014   10       18     4  11    4.51   439.9    5.8      35.173
2014   10       18     4  17    4.51   439.8    5.8      35.163
2014   10       18     4  23    4.51   439.7    5.8      35.153
2014   10       18     4  28    4.51   439.6    5.8      35.142
2014   10       18     4  34    4.51   439.5    5.8      35.132
2014   10       18     4  40    4.52   439.4    5.8      35.121
2014   10       18     4  46    4.52   439.3    5.8      35.110
2014   10       18     4  52    4.52   439.2    5.8      35.099
2014   10       18     4  58    4.52   439.1    5.9      35.087
2014   10       18     5   4    4.52   439.0    5.9      35.075
2014   10       18     5   9    4.52   438.9    5.9      35.064
2014   10       18     5  15    4.52   438.8    5.9      35.052
2014   10       18     5  21    4.52   438.7    5.9      35.039
2014   10       18     5  27    4.52   438.6    5.9      35.027
2014   10       18     5  33    4.52   438.5    5.9      35.014
2014   10       18     5  39    4.52   438.4    5.9      35.001
2014   10       18     5  44    4.53   438.3    5.9      34.988
2014   10       18     5  50    4.53   438.2    5.9      34.975
2014   10       18     5  56    4.53   438.1    5.9      34.961
2014   10       18     6   2    4.53   438.0    5.9      34.948
2014   10       18     6   8    4.53   437.9    5.9      34.934
2014   10       18     6  14    4.53   437.8    5.9      34.920
2014   10       18     6  20    4.53   437.8    5.9      34.905
2014   10       18     6  25    4.53   437.7    5.9      34.891
2014   10       18     6  31    4.53   437.6    5.9      34.876
2014   10       18     6  37    4.53   437.5    5.9      34.862
2014   10       18     6  43    4.54   437.4    5.9      34.847
2014   10       18     6  49    4.54   437.3    5.9      34.832
2014   10       18     6  55    4.54   437.2    5.9      34.816
2014   10       18     7   0    4.54   437.1    5.9      34.801
2014   10       18     7   6    4.54   437.0    5.9      34.786
2014   10       18     7  12    4.54   436.9    5.9      34.770
2014   10       18     7  18    4.54   436.8    5.9      34.755
2014   10       18     7  24    4.54   436.7    6.0      34.739
2014   10       18     7  30    4.54   436.6    6.0      34.723
2014   10       18     7  36    4.54   436.5    6.0      34.708
2014   10       18     7  41    4.55   436.4    6.0      34.692
2014   10       18     7  47    4.55   436.3    6.0      34.676
2014   10       18     7  53    4.55   436.2    6.0      34.660
2014   10       18     7  59    4.55   436.1    6.0      34.644
2014   10       18     8   5    4.55   436.0    6.0      34.629
2014   10       18     8  11    4.55   435.9    6.0      34.613
2014   10       18     8  16    4.55   435.8    6.0      34.597
2014   10       18     8  22    4.55   435.7    6.0      34.581
2014   10       18     8  28    4.55   435.6    6.0      34.566
2014   10       18     8  34    4.56   435.5    6.0      34.551
2014   10       18     8  40    4.56   435.4    6.0      34.535
2014   10       18     8  46    4.56   435.3    6.0      34.520
2014   10       18     8  51    4.56   435.2    6.0      34.505
2014   10       18     8  57    4.56   435.1    6.0      34.490
2014   10       18     9   3    4.56   435.0    6.0      34.475
2014   10       18     9   9    4.56   434.9    6.0      34.461
2014   10       18     9  15    4.56   434.8    6.0      34.447
2014   10       18     9  20    4.57   434.7    6.0      34.432
2014   10       18     9  26    4.57   434.7    6.0      34.419
2014   10       18     9  32    4.57   434.6    6.0      34.405
2014   10       18     9  38    4.57   434.5    6.0      34.391
2014   10       18     9  44    4.57   434.4    6.0      34.378
2014   10       18     9  50    4.57   434.3    6.0      34.364
2014   10       18     9  55    4.57   434.2    6.1      34.351
2014   10       18    10   1    4.57   434.1    6.1      34.338
2014   10       18    10   7    4.57   434.0    6.1      34.325
2014   10       18    10  13    4.57   433.9    6.1      34.312
2014   10       18    10  19    4.58   433.8    6.1      34.300
2014   10       18    10  25    4.58   433.7    6.1      34.287
2014   10       18    10  30    4.58   433.6    6.1      34.274
2014   10       18    10  36    4.58   433.5    6.1      34.261
2014   10       18    10  42    4.58   433.4    6.1      34.249
2014   10       18    10  48    4.58   433.3    6.1      34.236
2014   10       18    10  54    4.58   433.2    6.1      34.223
2014   10       18    11   0    4.58   433.1    6.1      34.210
2014   10       18    11   5    4.58   433.0    6.1      34.197
2014   10       18    11  11    4.58   432.9    6.1      34.184
2014   10       18    11  17    4.58   432.8    6.1      34.171
2014   10       18    11  23    4.59   432.7    6.1      34.157
2014   10       18    11  29    4.59   432.6    6.1      34.144
2014   10       18    11  35    4.59   432.5    6.1      34.130
2014   10       18    11  40    4.59   432.4    6.1      34.116
2014   10       18    11  46    4.59   432.3    6.1      34.102
2014   10       18    11  52    4.59   432.2    6.1      34.088
2014   10       18    11  58    4.59   432.1    6.1      34.073
2014   10       18    12   4    4.59   432.0    6.1      34.059
2014   10       18    12  10    4.59   431.9    6.1      34.044
2014   10       18    12  15    4.59   431.8    6.1      34.028
2014   10       18    12  21    4.59   431.7    6.2      34.013
2014   10       18    12  27    4.59   431.6    6.2      33.997
2014   10       18    12  33    4.60   431.4    6.2      33.981
2014   10       18    12  39    4.60   431.3    6.2      33.965
2014   10       18    12  45    4.60   431.2    6.2      33.949
2014   10       18    12  50    4.60   431.1    6.2      33.932
2014   10       18    12  56    4.60   431.0    6.2      33.915
2014   10       18    13   2    4.60   430.9    6.2      33.898
2014   10       18    13   8    4.60   430.8    6.2      33.881
2014   10       18    13  14    4.60   430.7    6.2      33.864
2014   10       18    13  20    4.60   430.6    6.2      33.846
2014   10       18    13  26    4.60   430.5    6.2      33.828
2014   10       18    13  31    4.60   430.3    6.2      33.810
2014   10       18    13  37    4.60   430.2    6.2      33.792
2014   10       18    13  43    4.60   430.1    6.2      33.773
2014   10       18    13  49    4.61   430.0    6.2      33.755
2014   10       18    13  55    4.61   429.9    6.2      33.736
2014   10       18    14   1    4.61   429.8    6.2      33.717
2014   10       18    14   7    4.61   429.7    6.2      33.698
2014   10       18    14  12    4.61   429.6    6.2      33.679
2014   10       18    14  18    4.61   429.5    6.2      33.660
2014   10       18    14  24    4.61   429.4    6.2      33.640
2014   10       18    14  30    4.61   429.2    6.2      33.621
2014   10       18    14  36    4.61   429.1    6.2      33.601
2014   10       18    14  42    4.61   429.0    6.2      33.582
2014   10       18    14  47    4.62   428.9    6.2      33.562
2014   10       18    14  53    4.62   428.8    6.2      33.543
2014   10       18    14  59    4.62   428.7    6.2      33.523
2014   10       18    15   5    4.62   428.6    6.2      33.504
2014   10       18    15  11    4.62   428.5    6.2      33.484
2014   10       18    15  17    4.62   428.4    6.2      33.465
2014   10       18    15  22    4.62   428.3    6.3      33.446
2014   10       18    15  28    4.62   428.2    6.3      33.426
2014   10       18    15  34    4.62   428.1    6.3      33.407
2014   10       18    15  40    4.62   427.9    6.3      33.388
2014   10       18    15  46    4.63   427.8    6.3      33.369
2014   10       18    15  52    4.63   427.7    6.3      33.350
2014   10       18    15  57    4.63   427.6    6.3      33.332
2014   10       18    16   3    4.63   427.5    6.3      33.314
2014   10       18    16   9    4.63   427.4    6.3      33.295
2014   10       18    16  15    4.63   427.3    6.3      33.278
2014   10       18    16  21    4.63   427.2    6.3      33.260
2014   10       18    16  27    4.63   427.1    6.3      33.243
2014   10       18    16  32    4.63   427.0    6.3      33.225
2014   10       18    16  38    4.64   426.9    6.3      33.209
2014   10       18    16  44    4.64   426.8    6.3      33.192
2014   10       18    16  50    4.64   426.7    6.3      33.176
2014   10       18    16  56    4.64   426.6    6.3      33.160
2014   10       18    17   2    4.64   426.5    6.3      33.144
2014   10       18    17   7    4.64   426.4    6.3      33.128
2014   10       18    17  13    4.64   426.3    6.3      33.113
2014   10       18    17  19    4.64   426.2    6.3      33.098
2014   10       18    17  25    4.64   426.1    6.3      33.083
2014   10       18    17  31    4.65   426.0    6.3      33.068
2014   10       18    17  36    4.65   425.8    6.3      33.053
2014   10       18    17  42    4.65   425.7    6.3      33.039
2014   10       18    17  48    4.65   425.6    6.3      33.024
2014   10       18    17  54    4.65   425.5    6.3      33.010
2014   10       18    18   0    4.65   425.4    6.4      32.996
2014   10       18    18   6    4.65   425.3    6.4      32.982
2014   10       18    18  11    4.65   425.2    6.4      32.968
2014   10       18    18  17    4.65   425.1    6.4      32.954
2014   10       18    18  23    4.66   425.0    6.4      32.940
2014   10       18    18  29    4.66   424.9    6.4      32.926
2014   10       18    18  35    4.66   424.7    6.4      32.912
2014   10       18    18  41    4.66   424.6    6.4      32.898
2014   10       18    18  46    4.66   424.5    6.4      32.884
2014   10       18    18  52    4.66   424.4    6.4      32.870
2014   10       18    18  58    4.66   424.3    6.4      32.856
2014   10       18    19   4    4.66   424.2    6.4      32.842
2014   10       18    19  10    4.66   424.1    6.4      32.828
2014   10       18    19  16    4.66   424.0    6.4      32.813
2014   10       18    19  21    4.67   423.8    6.4      32.799
2014   10       18    19  27    4.67   423.7    6.4      32.784
2014   10       18    19  33    4.67   423.6    6.4      32.769
2014   10       18    19  39    4.67   423.5    6.4      32.754
2014   10       18    19  45    4.67   423.4    6.4      32.739
2014   10       18    19  51    4.67   423.3    6.4      32.723
2014   10       18    19  57    4.67   423.2    6.4      32.708
2014   10       18    20   2    4.67   423.0    6.4      32.692
2014   10       18    20   8    4.67   422.9    6.4      32.676
2014   10       18    20  14    4.67   422.8    6.5      32.660
2014   10       18    20  20    4.68   422.7    6.5      32.643
2014   10       18    20  26    4.68   422.6    6.5      32.626
2014   10       18    20  32    4.68   422.5    6.5      32.610
2014   10       18    20  37    4.68   422.3    6.5      32.593
2014   10       18    20  43    4.68   422.2    6.5      32.575
2014   10       18    20  49    4.68   422.1    6.5      32.558
2014   10       18    20  55    4.68   422.0    6.5      32.540
2014   10       18    21   1    4.68   421.9    6.5      32.523
2014   10       18    21   7    4.68   421.7    6.5      32.505
2014   10       18    21  13    4.69   421.6    6.5      32.487
2014   10       18    21  18    4.69   421.5    6.5      32.469
2014   10       18    21  24    4.69   421.4    6.5      32.451
2014   10       18    21  30    4.69   421.3    6.5      32.432
2014   10       18    21  36    4.69   421.2    6.5      32.414
2014   10       18    21  42    4.69   421.0    6.5      32.396
2014   10       18    21  48    4.69   420.9    6.5      32.377
2014   10       18    21  53    4.69   420.8    6.5      32.359
2014   10       18    21  59    4.70   420.7    6.5      32.340
2014   10       18    22   5    4.70   420.6    6.5      32.322
2014   10       18    22  11    4.70   420.5    6.5      32.303
2014   10       18    22  17    4.70   420.3    6.5      32.285
2014   10       18    22  23    4.70   420.2    6.5      32.266
2014   10       18    22  29    4.70   420.1    6.5      32.247
2014   10       18    22  34    4.70   420.0    6.5      32.228
2014   10       18    22  40    4.71   419.9    6.5      32.210
2014   10       18    22  46    4.71   419.7    6.6      32.191
2014   10       18    22  52    4.71   419.6    6.6      32.173
2014   10       18    22  58    4.71   419.5    6.6      32.154
2014   10       18    23   4    4.71   419.4    6.6      32.136
2014   10       18    23   9    4.71   419.3    6.6      32.117
2014   10       18    23  15    4.71   419.2    6.6      32.099
2014   10       18    23  21    4.72   419.1    6.6      32.081
2014   10       18    23  27    4.72   418.9    6.6      32.063
2014   10       18    23  33    4.72   418.8    6.6      32.044
2014   10       18    23  38    4.72   418.7    6.6      32.026
2014   10       18    23  44    4.72   418.6    6.6      32.008
2014   10       18    23  50    4.72   418.5    6.6      31.991
2014   10       18    23  56    4.72   418.4    6.6      31.973
2014   10       19     0   2    4.73   418.2    6.6      31.956
2014   10       19     0   8    4.73   418.1    6.6      31.938
2014   10       19     0  13    4.73   418.0    6.6      31.921
2014   10       19     0  19    4.73   417.9    6.6      31.904
2014   10       19     0  25    4.73   417.8    6.6      31.887
2014   10       19     0  31    4.73   417.7    6.6      31.870
2014   10       19     0  37    4.74   417.5    6.6      31.853
2014   10       19     0  43    4.74   417.4    6.6      31.837
2014   10       19     0  48    4.74   417.3    6.6      31.820
2014   10       19     0  54    4.74   417.2    6.6      31.804
2014   10       19     1   0    4.74   417.1    6.6      31.788
2014   10       19     1   6    4.74   417.0    6.6      31.772
2014   10       19     1  12    4.75   416.9    6.6      31.756
2014   10       19     1  18    4.75   416.8    6.6      31.740
2014   10       19     1  23    4.75   416.6    6.6      31.725
2014   10       19     1  29    4.75   416.5    6.6      31.709
2014   10       19     1  35    4.75   416.4    6.7      31.694
2014   10       19     1  41    4.75   416.3    6.7      31.679
2014   10       19     1  47    4.76   416.2    6.7      31.664
2014   10       19     1  53    4.76   416.1    6.7      31.649
2014   10       19     1  58    4.76   416.0    6.7      31.634
2014   10       19     2   4    4.76   415.8    6.7      31.619
2014   10       19     2  10    4.76   415.7    6.7      31.605
2014   10       19     2  16    4.76   415.6    6.7      31.590
2014   10       19     2  22    4.77   415.5    6.7      31.576
2014   10       19     2  28    4.77   415.4    6.7      31.562
2014   10       19     2  33    4.77   415.3    6.7      31.547
2014   10       19     2  39    4.77   415.2    6.7      31.533
2014   10       19     2  45    4.77   415.1    6.7      31.519
2014   10       19     2  51    4.78   414.9    6.7      31.505
2014   10       19     2  57    4.78   414.8    6.7      31.491
2014   10       19     3   3    4.78   414.7    6.7      31.478
2014   10       19     3   8    4.78   414.6    6.7      31.464
2014   10       19     3  14    4.78   414.5    6.7      31.451
2014   10       19     3  20    4.78   414.4    6.7      31.437
2014   10       19     3  26    4.79   414.3    6.7      31.424
2014   10       19     3  32    4.79   414.1    6.7      31.411
2014   10       19     3  38    4.79   414.0    6.8      31.398
2014   10       19     3  44    4.79   413.9    6.8      31.385
2014   10       19     3  49    4.79   413.8    6.8      31.372
2014   10       19     3  55    4.80   413.7    6.8      31.359
2014   10       19     4   1    4.80   413.6    6.8      31.346
2014   10       19     4   7    4.80   413.5    6.8      31.334
2014   10       19     4  13    4.80   413.4    6.8      31.322
2014   10       19     4  19    4.81   413.2    6.8      31.310
2014   10       19     4  24    4.81   413.1    6.8      31.298
2014   10       19     4  30    4.81   413.0    6.8      31.286
2014   10       19     4  36    4.81   412.9    6.8      31.274
2014   10       19     4  42    4.81   412.8    6.8      31.263
2014   10       19     4  48    4.82   412.7    6.8      31.252
2014   10       19     4  54    4.82   412.6    6.8      31.241
2014   10       19     5   0    4.82   412.4    6.8      31.230
2014   10       19     5   5    4.82   412.3    6.8      31.219
2014   10       19     5  11    4.83   412.2    6.9      31.208
2014   10       19     5  17    4.83   412.1    6.9      31.198
2014   10       19     5  23    4.83   412.0    6.9      31.188
2014   10       19     5  29    4.83   411.9    6.9      31.178
2014   10       19     5  35    4.84   411.8    6.9      31.169
2014   10       19     5  40    4.84   411.6    6.9      31.159
2014   10       19     5  46    4.84   411.5    6.9      31.150
2014   10       19     5  52    4.84   411.4    6.9      31.141
2014   10       19     5  58    4.85   411.3    6.9      31.132
2014   10       19     6   4    4.85   411.2    6.9      31.123
2014   10       19     6  10    4.85   411.1    6.9      31.114
2014   10       19     6  15    4.85   411.0    6.9      31.106
2014   10       19     6  21    4.86   410.8    6.9      31.098
2014   10       19     6  27    4.86   410.7    6.9      31.089
2014   10       19     6  33    4.86   410.6    6.9      31.081
2014   10       19     6  39    4.86   410.5    6.9      31.073
2014   10       19     6  45    4.87   410.4    6.9      31.065
2014   10       19     6  50    4.87   410.3    7.0      31.057
2014   10       19     6  56    4.87   410.2    7.0      31.049
2014   10       19     7   2    4.88   410.1    7.0      31.042
2014   10       19     7   8    4.88   410.0    7.0      31.034
2014   10       19     7  14    4.88   409.8    7.0      31.026
2014   10       19     7  20    4.88   409.7    7.0      31.018
2014   10       19     7  25    4.89   409.6    7.0      31.011
2014   10       19     7  31    4.89   409.5    7.0      31.003
2014   10       19     7  37    4.89   409.4    7.0      30.995
2014   10       19     7  43    4.90   409.3    7.0      30.987
2014   10       19     7  49    4.90   409.2    7.0      30.979
2014   10       19     7  54    4.90   409.1    7.0      30.972
2014   10       19     8   0    4.90   409.0    7.0      30.964
2014   10       19     8   6    4.91   408.8    7.0      30.956
2014   10       19     8  12    4.91   408.7    7.0      30.948
2014   10       19     8  18    4.91   408.6    7.0      30.940
2014   10       19     8  24    4.92   408.5    7.0      30.932
2014   10       19     8  29    4.92   408.4    7.1      30.924
2014   10       19     8  35    4.92   408.3    7.1      30.916
2014   10       19     8  41    4.93   408.2    7.1      30.909
2014   10       19     8  47    4.93   408.1    7.1      30.901
2014   10       19     8  53    4.93   408.0    7.1      30.893
2014   10       19     8  59    4.94   407.9    7.1      30.885
2014   10       19     9   4    4.94   407.8    7.1      30.877
2014   10       19     9  10    4.94   407.7    7.1      30.869
2014   10       19     9  16    4.95   407.5    7.1      30.861
2014   10       19     9  22    4.95   407.4    7.1      30.853
2014   10       19     9  28    4.95   407.3    7.1      30.846
2014   10       19     9  34    4.96   407.2    7.1      30.838
2014   10       19     9  39    4.96   407.1    7.1      30.830
2014   10       19     9  45    4.96   407.0    7.1      30.823
2014   10       19     9  51    4.97   406.9    7.1      30.815
2014   10       19     9  57    4.97   406.8    7.1      30.808
2014   10       19    10   3    4.97   406.7    7.1      30.800
2014   10       19    10   9    4.98   406.6    7.1      30.793
2014   10       19    10  14    4.98   406.5    7.2      30.786
2014   10       19    10  20    4.99   406.4    7.2      30.779
2014   10       19    10  26    4.99   406.3    7.2      30.773
2014   10       19    10  32    4.99   406.2    7.2      30.766
2014   10       19    10  38    5.00   406.1    7.2      30.760
2014   10       19    10  44    5.00   406.0    7.2      30.754
2014   10       19    10  50    5.01   405.9    7.2      30.748
2014   10       19    10  55    5.01   405.8    7.2      30.742
2014   10       19    11   1    5.01   405.7    7.2      30.737
2014   10       19    11   7    5.02   405.6    7.2      30.732
2014   10       19    11  13    5.02   405.5    7.2      30.727
2014   10       19    11  19    5.03   405.4    7.2      30.723
2014   10       19    11  25    5.03   405.2    7.2      30.719
2014   10       19    11  30    5.03   405.1    7.2      30.715
2014   10       19    11  36    5.04   405.0    7.2      30.712
2014   10       19    11  42    5.04   404.9    7.3      30.709
2014   10       19    11  48    5.05   404.8    7.3      30.706
2014   10       19    11  54    5.05   404.7    7.3      30.704
2014   10       19    12   0    5.06   404.6    7.3      30.702
2014   10       19    12   6    5.06   404.5    7.3      30.701
2014   10       19    12  11    5.06   404.4    7.3      30.700
2014   10       19    12  17    5.07   404.3    7.3      30.699
2014   10       19    12  23    5.07   404.2    7.3      30.699
2014   10       19    12  29    5.08   404.1    7.3      30.699
2014   10       19    12  35    5.08   404.0    7.3      30.700
2014   10       19    12  41    5.09   403.9    7.3      30.701
2014   10       19    12  47    5.09   403.8    7.3      30.702
2014   10       19    12  52    5.10   403.7    7.3      30.704
2014   10       19    12  58    5.10   403.6    7.4      30.706
2014   10       19    13   4    5.11   403.5    7.4      30.709
2014   10       19    13  10    5.11   403.4    7.4      30.711
2014   10       19    13  16    5.12   403.3    7.4      30.715
2014   10       19    13  22    5.12   403.2    7.4      30.718
2014   10       19    13  27    5.13   403.1    7.4      30.722
2014   10       19    13  33    5.13   403.0    7.4      30.727
2014   10       19    13  39    5.14   402.9    7.4      30.731
2014   10       19    13  45    5.14   402.8    7.4      30.736
2014   10       19    13  51    5.15   402.7    7.4      30.741
2014   10       19    13  56    5.15   402.6    7.5      30.747
2014   10       19    14   2    5.16   402.5    7.5      30.753
2014   10       19    14   8    5.16   402.4    7.5      30.759
2014   10       19    14  14    5.17   402.3    7.5      30.766
2014   10       19    14  20    5.17   402.2    7.5      30.773
2014   10       19    14  26    5.18   402.1    7.5      30.780
2014   10       19    14  31    5.18   402.0    7.5      30.787
2014   10       19    14  37    5.19   401.9    7.5      30.795
2014   10       19    14  43    5.20   401.8    7.5      30.803
2014   10       19    14  49    5.20   401.7    7.5      30.812
2014   10       19    14  55    5.21   401.6    7.6      30.821
2014   10       19    15   1    5.21   401.5    7.6      30.831
2014   10       19    15   6    5.22   401.4    7.6      30.841
2014   10       19    15  12    5.22   401.3    7.6      30.851
2014   10       19    15  18    5.23   401.2    7.6      30.862
2014   10       19    15  24    5.24   401.1    7.6      30.874
2014   10       19    15  30    5.24   401.1    7.6      30.886
2014   10       19    15  36    5.25   401.0    7.6      30.899
2014   10       19    15  41    5.26   400.9    7.6      30.913
2014   10       19    15  47    5.26   400.8    7.7      30.927
2014   10       19    15  53    5.27   400.7    7.7      30.942
2014   10       19    15  59    5.28   400.6    7.7      30.957
2014   10       19    16   5    5.28   400.5    7.7      30.974
2014   10       19    16  10    5.29   400.4    7.7      30.991
2014   10       19    16  16    5.30   400.3    7.7      31.009
2014   10       19    16  22    5.30   400.3    7.7      31.027
2014   10       19    16  28    5.31   400.2    7.7      31.047
2014   10       19    16  34    5.32   400.1    7.8      31.067
2014   10       19    16  40    5.33   400.1    7.8      31.088
2014   10       19    16  45    5.33   400.0    7.8      31.110
2014   10       19    16  51    5.34   399.9    7.8      31.133
2014   10       19    16  57    5.35   399.9    7.8      31.155
2014   10       19    17   3    5.35   399.8    7.8      31.178
2014   10       19    17   9    5.36   399.7    7.8      31.201
2014   10       19    17  15    5.37   399.7    7.8      31.223
2014   10       19    17  21    5.38   399.6    7.9      31.245
2014   10       19    17  26    5.38   399.6    7.9      31.268
2014   10       19    17  32    5.39   399.5    7.9      31.290
2014   10       19    17  38    5.40   399.4    7.9      31.311
2014   10       19    17  44    5.41   399.4    7.9      31.333
2014   10       19    17  50    5.41   399.3    7.9      31.355
2014   10       19    17  56    5.42   399.3    7.9      31.376
2014   10       19    18   1    5.43   399.2    7.9      31.397
2014   10       19    18   7    5.44   399.2    7.9      31.418
2014   10       19    18  13    5.44   399.1    8.0      31.439
2014   10       19    18  19    5.45   399.1    8.0      31.459
2014   10       19    18  25    5.46   399.0    8.0      31.480
2014   10       19    18  31    5.47   399.0    8.0      31.500
2014   10       19    18  37    5.48   398.9    8.0      31.521
2014   10       19    18  42    5.48   398.9    8.0      31.541
2014   10       19    18  48    5.49   398.8    8.0      31.561
2014   10       19    18  54    5.50   398.8    8.0      31.582
2014   10       19    19   0    5.51   398.7    8.1      31.602
2014   10       19    19   6    5.52   398.7    8.1      31.623
2014   10       19    19  12    5.52   398.6    8.1      31.643
2014   10       19    19  17    5.53   398.6    8.1      31.664
2014   10       19    19  23    5.54   398.5    8.1      31.686
2014   10       19    19  29    5.55   398.5    8.1      31.707
2014   10       19    19  35    5.56   398.4    8.1      31.729
2014   10       19    19  41    5.57   398.4    8.1      31.751
2014   10       19    19  47    5.58   398.3    8.2      31.774
2014   10       19    19  53    5.58   398.3    8.2      31.797
2014   10       19    19  58    5.59   398.3    8.2      31.820
2014   10       19    20   4    5.60   398.2    8.2      31.845
2014   10       19    20  10    5.61   398.2    8.2      31.870
2014   10       19    20  16    5.62   398.2    8.2      31.895
2014   10       19    20  22    5.63   398.1    8.2      31.922
2014   10       19    20  28    5.64   398.1    8.3      31.949
2014   10       19    20  33    5.65   398.1    8.3      31.977
2014   10       19    20  39    5.66   398.1    8.3      32.007
2014   10       19    20  45    5.67   398.0    8.3      32.038
2014   10       19    20  51    5.68   398.0    8.3      32.070
2014   10       19    20  57    5.69   398.0    8.3      32.104
2014   10       19    21   3    5.70   398.0    8.4      32.138
2014   10       19    21   8    5.71   398.0    8.4      32.175
2014   10       19    21  14    5.72   398.0    8.4      32.212
2014   10       19    21  20    5.73   398.0    8.4      32.251
2014   10       19    21  26    5.74   398.0    8.4      32.293
2014   10       19    21  32    5.75   398.0    8.4      32.337
2014   10       19    21  38    5.76   398.0    8.5      32.384
2014   10       19    21  43    5.77   398.1    8.5      32.433
2014   10       19    21  49    5.78   398.1    8.5      32.485
2014   10       19    21  55    5.79   398.1    8.5      32.539
2014   10       19    22   1    5.80   398.2    8.5      32.594
2014   10       19    22   7    5.81   398.2    8.6      32.650
2014   10       19    22  12    5.82   398.2    8.6      32.706
2014   10       19    22  18    5.84   398.3    8.6      32.761
2014   10       19    22  24    5.85   398.3    8.6      32.816
2014   10       19    22  30    5.86   398.4    8.6      32.871
2014   10       19    22  36    5.87   398.4    8.6      32.926
2014   10       19    22  42    5.88   398.4    8.7      32.980
2014   10       19    22  47    5.89   398.5    8.7      33.034
2014   10       19    22  53    5.90   398.5    8.7      33.088
2014   10       19    22  59    5.91   398.6    8.7      33.142
2014   10       19    23   5    5.92   398.6    8.7      33.197
2014   10       19    23  11    5.93   398.7    8.7      33.250
2014   10       19    23  17    5.94   398.7    8.7      33.304
2014   10       19    23  22    5.95   398.7    8.8      33.358
2014   10       19    23  28    5.97   398.8    8.8      33.413
2014   10       19    23  34    5.98   398.8    8.8      33.467
2014   10       19    23  40    5.99   398.9    8.8      33.522
2014   10       19    23  46    6.00   398.9    8.8      33.576
2014   10       19    23  52    6.01   399.0    8.8      33.631
2014   10       19    23  57    6.02   399.1    8.8      33.686
2014   10       20     0   3    6.03   399.1    8.9      33.742
2014   10       20     0   9    6.04   399.2    8.9      33.798
2014   10       20     0  15    6.06   399.2    8.9      33.854
2014   10       20     0  21    6.07   399.3    8.9      33.910
2014   10       20     0  27    6.08   399.3    8.9      33.966
2014   10       20     0  32    6.09   399.4    8.9      34.022
2014   10       20     0  38    6.10   399.5    8.9      34.078
2014   10       20     0  44    6.11   399.5    9.0      34.134
2014   10       20     0  50    6.12   399.6    9.0      34.189
2014   10       20     0  56    6.13   399.6    9.0      34.245
2014   10       20     1   2    6.15   399.7    9.0      34.301
2014   10       20     1   7    6.16   399.8    9.0      34.356
2014   10       20     1  13    6.17   399.8    9.0      34.412
2014   10       20     1  19    6.18   399.9    9.0      34.467
2014   10       20     1  25    6.19   399.9    9.1      34.523
2014   10       20     1  31    6.20   400.0    9.1      34.579
2014   10       20     1  37    6.22   400.1    9.1      34.636
2014   10       20     1  43    6.23   400.1    9.1      34.692
2014   10       20     1  48    6.24   400.2    9.1      34.748
2014   10       20     1  54    6.25   400.3    9.1      34.805
2014   10       20     2   0    6.26   400.4    9.1      34.861
2014   10       20     2   6    6.28   400.4    9.2      34.919
2014   10       20     2  12    6.29   400.5    9.2      34.976
2014   10       20     2  18    6.30   400.6    9.2      35.034
2014   10       20     2  24    6.31   400.7    9.2      35.092
2014   10       20     2  29    6.33   400.8    9.2      35.151
2014   10       20     2  35    6.34   400.8    9.2      35.210
2014   10       20     2  41    6.35   400.9    9.2      35.270
2014   10       20     2  47    6.36   401.0    9.3      35.331
2014   10       20     2  53    6.37   401.1    9.3      35.393
2014   10       20     2  59    6.39   401.2    9.3      35.456
2014   10       20     3   4    6.40   401.3    9.3      35.519
2014   10       20     3  10    6.41   401.4    9.3      35.584
2014   10       20     3  16    6.43   401.5    9.3      35.649
2014   10       20     3  22    6.44   401.6    9.4      35.715
2014   10       20     3  28    6.45   401.7    9.4      35.783
2014   10       20     3  34    6.47   401.8    9.4      35.853
2014   10       20     3  39    6.48   401.9    9.4      35.925
2014   10       20     3  45    6.49   402.0    9.4      35.999
2014   10       20     3  51    6.51   402.1    9.5      36.075
2014   10       20     3  57    6.52   402.3    9.5      36.153
2014   10       20     4   3    6.53   402.4    9.5      36.233
2014   10       20     4   9    6.55   402.5    9.5      36.316
2014   10       20     4  14    6.56   402.7    9.5      36.402
2014   10       20     4  20    6.57   402.8    9.6      36.491
2014   10       20     4  26    6.59   403.0    9.6      36.583
2014   10       20     4  32    6.60   403.2    9.6      36.680
2014   10       20     4  38    6.62   403.4    9.6      36.780
2014   10       20     4  44    6.63   403.6    9.7      36.884
2014   10       20     4  49    6.64   403.8    9.7      36.991
2014   10       20     4  55    6.66   404.0    9.7      37.101
2014   10       20     5   1    6.67   404.3    9.7      37.211
2014   10       20     5   7    6.68   404.5    9.7      37.322
2014   10       20     5  13    6.70   404.7    9.8      37.433
2014   10       20     5  19    6.71   404.9    9.8      37.544
2014   10       20     5  24    6.72   405.1    9.8      37.653
2014   10       20     5  30    6.74   405.4    9.8      37.761
2014   10       20     5  36    6.75   405.6    9.8      37.868
2014   10       20     5  42    6.76   405.8    9.8      37.974
2014   10       20     5  48    6.78   406.0    9.9      38.079
2014   10       20     5  53    6.79   406.3    9.9      38.184
2014   10       20     5  59    6.80   406.5    9.9      38.289
2014   10       20     6   5    6.81   406.7    9.9      38.393
2014   10       20     6  11    6.83   406.9    9.9      38.496
2014   10       20     6  17    6.84   407.2    9.9      38.600
2014   10       20     6  23    6.85   407.4    9.9      38.703
2014   10       20     6  28    6.86   407.7    9.9      38.806
2014   10       20     6  34    6.88   407.9   10.0      38.909
2014   10       20     6  40    6.89   408.1   10.0      39.011
2014   10       20     6  46    6.90   408.4   10.0      39.114
2014   10       20     6  52    6.92   408.6   10.0      39.217
2014   10       20     6  58    6.93   408.9   10.0      39.319
2014   10       20     7   3    6.94   409.1   10.0      39.422
2014   10       20     7   9    6.95   409.4   10.0      39.524
2014   10       20     7  15    6.97   409.6   10.0      39.626
2014   10       20     7  21    6.98   409.9   10.0      39.729
2014   10       20     7  27    6.99   410.1   10.0      39.831
2014   10       20     7  33    7.01   410.4   10.1      39.934
2014   10       20     7  38    7.02   410.6   10.1      40.037
2014   10       20     7  44    7.03   410.9   10.1      40.139
2014   10       20     7  50    7.05   411.1   10.1      40.242
2014   10       20     7  56    7.06   411.4   10.1      40.344
2014   10       20     8   2    7.07   411.7   10.1      40.446
2014   10       20     8   8    7.09   411.9   10.1      40.548
2014   10       20     8  14    7.10   412.2   10.1      40.650
2014   10       20     8  19    7.11   412.4   10.1      40.752
2014   10       20     8  25    7.12   412.7   10.1      40.853
2014   10       20     8  31    7.14   413.0   10.1      40.955
2014   10       20     8  37    7.15   413.2   10.1      41.056
2014   10       20     8  43    7.16   413.5   10.1      41.156
2014   10       20     8  49    7.18   413.7   10.1      41.257
2014   10       20     8  54    7.19   414.0   10.1      41.356
2014   10       20     9   0    7.20   414.3   10.1      41.456
2014   10       20     9   6    7.22   414.5   10.1      41.554
2014   10       20     9  12    7.23   414.8   10.1      41.652
2014   10       20     9  18    7.24   415.0   10.1      41.749
2014   10       20     9  24    7.25   415.3   10.2      41.846
2014   10       20     9  30    7.27   415.5   10.2      41.943
2014   10       20     9  35    7.28   415.8   10.2      42.038
2014   10       20     9  41    7.29   416.0   10.2      42.134
2014   10       20     9  47    7.30   416.3   10.2      42.229
2014   10       20     9  53    7.31   416.6   10.2      42.324
2014   10       20     9  59    7.33   416.8   10.2      42.418
2014   10       20    10   5    7.34   417.1   10.2      42.512
2014   10       20    10  10    7.35   417.3   10.2      42.606
2014   10       20    10  16    7.36   417.5   10.2      42.700
2014   10       20    10  22    7.37   417.8   10.2      42.794
2014   10       20    10  28    7.39   418.0   10.2      42.887
2014   10       20    10  34    7.40   418.3   10.2      42.981
2014   10       20    10  40    7.41   418.5   10.2      43.075
2014   10       20    10  46    7.42   418.8   10.2      43.170
2014   10       20    10  51    7.43   419.0   10.2      43.266
2014   10       20    10  57    7.44   419.3   10.2      43.361
2014   10       20    11   3    7.45   419.5   10.2      43.457
2014   10       20    11   9    7.47   419.8   10.2      43.554
2014   10       20    11  15    7.48   420.0   10.2      43.651
2014   10       20    11  21    7.49   420.3   10.2      43.750
2014   10       20    11  26    7.50   420.5   10.2      43.851
2014   10       20    11  32    7.51   420.8   10.2      43.953
2014   10       20    11  38    7.52   421.1   10.3      44.057
2014   10       20    11  44    7.53   421.3   10.3      44.163
2014   10       20    11  50    7.55   421.6   10.3      44.270
2014   10       20    11  55    7.56   421.9   10.3      44.379
2014   10       20    12   1    7.57   422.2   10.3      44.487
2014   10       20    12   7    7.58   422.4   10.3      44.594
2014   10       20    12  13    7.59   422.7   10.3      44.701
2014   10       20    12  19    7.60   423.0   10.3      44.808
2014   10       20    12  25    7.61   423.3   10.3      44.915
2014   10       20    12  30    7.62   423.6   10.3      45.022
2014   10       20    12  36    7.63   423.8   10.3      45.129
2014   10       20    12  42    7.64   424.1   10.3      45.235
2014   10       20    12  48    7.65   424.4   10.3      45.341
2014   10       20    12  54    7.66   424.7   10.3      45.448
2014   10       20    13   0    7.68   424.9   10.3      45.555
2014   10       20    13   5    7.69   425.2   10.3      45.664
2014   10       20    13  11    7.70   425.5   10.3      45.773
2014   10       20    13  17    7.71   425.8   10.3      45.883
2014   10       20    13  23    7.72   426.1   10.3      45.993
2014   10       20    13  29    7.73   426.4   10.3      46.105
2014   10       20    13  34    7.74   426.7   10.3      46.218
2014   10       20    13  40    7.75   427.0   10.3      46.332
2014   10       20    13  46    7.76   427.3   10.4      46.445
2014   10       20    13  52    7.77   427.6   10.4      46.559
2014   10       20    13  58    7.79   427.9   10.4      46.673
2014   10       20    14   4    7.80   428.2   10.4      46.789
2014   10       20    14   9    7.81   428.5   10.4      46.905
2014   10       20    14  15    7.82   428.8   10.4      47.023
2014   10       20    14  21    7.83   429.2   10.4      47.142
2014   10       20    14  27    7.84   429.5   10.4      47.265
2014   10       20    14  33    7.85   429.8   10.4      47.389
2014   10       20    14  39    7.87   430.2   10.4      47.515
2014   10       20    14  45    7.88   430.5   10.4      47.643
2014   10       20    14  50    7.89   430.8   10.4      47.777
2014   10       20    14  56    7.91   431.2   10.4      47.916
2014   10       20    15   2    7.92   431.6   10.4      48.062
2014   10       20    15   8    7.93   432.0   10.5      48.214
2014   10       20    15  14    7.95   432.3   10.5      48.370
2014   10       20    15  20    7.96   432.7   10.5      48.529
2014   10       20    15  25    7.98   433.1   10.5      48.694
2014   10       20    15  31    7.99   433.6   10.5      48.870
2014   10       20    15  37    8.01   434.0   10.5      49.053
2014   10       20    15  43    8.02   434.5   10.6      49.243
2014   10       20    15  49    8.04   435.0   10.6      49.437
2014   10       20    15  55    8.05   435.5   10.6      49.639
2014   10       20    16   0    8.07   436.1   10.6      49.848
2014   10       20    16   6    8.08   436.6   10.6      50.054
2014   10       20    16  12    8.09   437.1   10.6      50.256
2014   10       20    16  18    8.11   437.7   10.6      50.452
2014   10       20    16  24    8.12   438.2   10.6      50.643
2014   10       20    16  30    8.13   438.7   10.6      50.828
2014   10       20    16  36    8.14   439.3   10.6      51.010
2014   10       20    16  41    8.15   439.8   10.6      51.187
2014   10       20    16  47    8.16   440.3   10.6      51.358
2014   10       20    16  53    8.17   440.8   10.6      51.526
2014   10       20    16  59    8.18   441.3   10.6      51.690
2014   10       20    17   5    8.19   441.8   10.6      51.850
2014   10       20    17  11    8.20   442.3   10.6      52.008
2014   10       20    17  17    8.20   442.8   10.6      52.163
2014   10       20    17  22    8.21   443.3   10.6      52.317
2014   10       20    17  28    8.22   443.8   10.6      52.468
2014   10       20    17  34    8.23   444.3   10.6      52.617
2014   10       20    17  40    8.23   444.8   10.6      52.766
2014   10       20    17  46    8.24   445.2   10.5      52.913
2014   10       20    17  52    8.25   445.7   10.5      53.058
2014   10       20    17  57    8.26   446.2   10.5      53.203
2014   10       20    18   3    8.26   446.6   10.5      53.347
2014   10       20    18   9    8.27   447.1   10.5      53.490
2014   10       20    18  15    8.28   447.5   10.5      53.633
2014   10       20    18  21    8.28   448.0   10.5      53.775
2014   10       20    18  27    8.29   448.4   10.4      53.916
2014   10       20    18  32    8.30   448.9   10.4      54.057
2014   10       20    18  38    8.31   449.3   10.4      54.197
2014   10       20    18  44    8.31   449.8   10.4      54.336
2014   10       20    18  50    8.32   450.3   10.4      54.473
2014   10       20    18  56    8.33   450.7   10.4      54.610
2014   10       20    19   2    8.34   451.2   10.4      54.744
2014   10       20    19   7    8.34   451.6   10.3      54.878
2014   10       20    19  13    8.35   452.1   10.3      55.008
2014   10       20    19  19    8.36   452.6   10.3      55.138
2014   10       20    19  25    8.37   453.0   10.3      55.264
2014   10       20    19  31    8.38   453.5   10.3      55.390
2014   10       20    19  36    8.38   454.0   10.3      55.514
2014   10       20    19  42    8.39   454.4   10.3      55.636
2014   10       20    19  48    8.40   454.9   10.2      55.756
2014   10       20    19  54    8.41   455.4   10.2      55.873
2014   10       20    20   0    8.42   455.8   10.2      55.987
2014   10       20    20   6    8.42   456.3   10.2      56.102
2014   10       20    20  11    8.43   456.8   10.2      56.215
2014   10       20    20  17    8.44   457.3   10.2      56.325
2014   10       20    20  23    8.45   457.8   10.2      56.434
2014   10       20    20  29    8.46   458.3   10.1      56.543
2014   10       20    20  35    8.46   458.9   10.1      56.653
2014   10       20    20  41    8.47   459.4   10.1      56.761
2014   10       20    20  46    8.48   459.9   10.1      56.865
2014   10       20    20  52    8.49   460.5   10.1      56.965
2014   10       20    20  58    8.49   461.0   10.1      57.064
2014   10       20    21   4    8.50   461.6   10.0      57.164
2014   10       20    21  10    8.51   462.2   10.0      57.266
2014   10       20    21  16    8.51   462.8   10.0      57.368
2014   10       20    21  21    8.52   463.3   10.0      57.464
2014   10       20    21  27    8.52   463.9   10.0      57.555
2014   10       20    21  33    8.53   464.4    9.9      57.641
2014   10       20    21  39    8.53   464.9    9.9      57.725
2014   10       20    21  45    8.54   465.4    9.9      57.803
2014   10       20    21  51    8.54   465.8    9.9      57.874
2014   10       20    21  56    8.55   466.2    9.9      57.940
2014   10       20    22   2    8.56   466.6    9.9      58.011
2014   10       20    22   8    8.56   467.0    9.9      58.090
2014   10       20    22  14    8.57   467.3    9.9      58.181
2014   10       20    22  20    8.58   467.7    9.9      58.276
2014   10       20    22  26    8.58   468.1    9.9      58.380
2014   10       20    22  31    8.59   468.5    9.9      58.492
2014   10       20    22  37    8.60   468.9    9.9      58.615
2014   10       20    22  43    8.61   469.3    9.9      58.755
2014   10       20    22  49    8.62   469.7    9.9      58.913
2014   10       20    22  55    8.63   470.2    9.9      59.085
2014   10       20    23   1    8.64   470.8    9.9      59.274
2014   10       20    23   6    8.65   471.4    9.9      59.484
2014   10       20    23  12    8.66   472.1    9.9      59.718
2014   10       20    23  18    8.67   472.8    9.9      59.967
2014   10       20    23  24    8.68   473.5    9.9      60.221
2014   10       20    23  30    8.69   474.2    9.9      60.475
2014   10       20    23  36    8.69   474.9    9.9      60.730
2014   10       20    23  42    8.70   475.7    9.9      60.983
2014   10       20    23  47    8.71   476.4    9.9      61.226
2014   10       20    23  53    8.71   477.1    9.9      61.457
2014   10       20    23  59    8.72   477.7    9.9      61.679
2014   10       21     0   5    8.72   478.4    9.9      61.892
2014   10       21     0  11    8.72   479.1    9.9      62.100
2014   10       21     0  17    8.73   479.8    9.9      62.301
2014   10       21     0  23    8.73   480.4    9.8      62.500
2014   10       21     0  28    8.73   481.1    9.8      62.694
2014   10       21     0  34    8.74   481.8    9.8      62.885
2014   10       21     0  40    8.74   482.5    9.8      63.071
2014   10       21     0  46    8.74   483.2    9.8      63.255
2014   10       21     0  52    8.74   483.9    9.7      63.434
2014   10       21     0  58    8.75   484.6    9.7      63.610
2014   10       21     1   3    8.75   485.3    9.7      63.781
2014   10       21     1   9    8.75   486.0    9.7      63.948
2014   10       21     1  15    8.75   486.7    9.6      64.110
2014   10       21     1  21    8.76   487.3    9.6      64.268
2014   10       21     1  27    8.76   488.0    9.6      64.422
2014   10       21     1  33    8.76   488.7    9.6      64.574
2014   10       21     1  38    8.76   489.4    9.5      64.722
2014   10       21     1  44    8.76   490.2    9.5      64.868
2014   10       21     1  50    8.77   490.9    9.5      65.012
2014   10       21     1  56    8.77   491.7    9.5      65.155
2014   10       21     2   2    8.77   492.4    9.4      65.294
2014   10       21     2   8    8.77   493.2    9.4      65.432
2014   10       21     2  13    8.78   494.0    9.4      65.564
2014   10       21     2  19    8.78   494.8    9.3      65.696
2014   10       21     2  25    8.78   495.6    9.3      65.827
2014   10       21     2  31    8.78   496.4    9.3      65.956
2014   10       21     2  37    8.78   497.2    9.2      66.079
2014   10       21     2  43    8.78   498.0    9.2      66.197
2014   10       21     2  48    8.78   498.7    9.2      66.309
2014   10       21     2  54    8.78   499.5    9.1      66.414
2014   10       21     3   0    8.78   500.3    9.1      66.514
2014   10       21     3   6    8.78   501.1    9.1      66.609
2014   10       21     3  12    8.78   501.9    9.0      66.689
2014   10       21     3  17    8.78   502.6    9.0      66.757
2014   10       21     3  23    8.77   503.4    8.9      66.818
2014   10       21     3  29    8.77   504.1    8.9      66.873
2014   10       21     3  35    8.77   504.9    8.8      66.925
2014   10       21     3  41    8.76   505.6    8.8      66.969
2014   10       21     3  47    8.76   506.3    8.8      67.016
2014   10       21     3  52    8.75   507.1    8.7      67.074
2014   10       21     3  58    8.75   507.9    8.7      67.139
2014   10       21     4   4    8.75   508.7    8.6      67.210
2014   10       21     4  10    8.74   509.5    8.6      67.283
2014   10       21     4  16    8.74   510.3    8.6      67.358
2014   10       21     4  22    8.73   511.2    8.5      67.438
2014   10       21     4  27    8.73   512.1    8.5      67.526
2014   10       21     4  33    8.72   513.0    8.5      67.620
2014   10       21     4  39    8.72   513.9    8.4      67.712
2014   10       21     4  45    8.71   514.7    8.4      67.800
2014   10       21     4  51    8.71   515.6    8.3      67.887
2014   10       21     4  57    8.70   516.4    8.3      67.972
2014   10       21     5   2    8.69   517.3    8.3      68.050
2014   10       21     5   8    8.69   518.0    8.2      68.118
2014   10       21     5  14    8.68   518.7    8.2      68.178
2014   10       21     5  20    8.67   519.4    8.2      68.235
2014   10       21     5  26    8.67   520.1    8.1      68.294
2014   10       21     5  32    8.66   520.8    8.1      68.354
2014   10       21     5  37    8.65   521.5    8.0      68.408
2014   10       21     5  43    8.65   522.1    8.0      68.461
2014   10       21     5  49    8.64   522.7    8.0      68.512
2014   10       21     5  55    8.63   523.2    7.9      68.564
2014   10       21     6   1    8.63   523.8    7.9      68.619
2014   10       21     6   7    8.62   524.3    7.9      68.677
2014   10       21     6  13    8.61   524.9    7.9      68.741
2014   10       21     6  18    8.61   525.5    7.8      68.818
2014   10       21     6  24    8.60   526.1    7.8      68.915
2014   10       21     6  30    8.59   526.8    7.8      69.027
2014   10       21     6  36    8.59   527.5    7.7      69.151
2014   10       21     6  42    8.58   528.2    7.7      69.283
2014   10       21     6  48    8.58   528.9    7.7      69.421
2014   10       21     6  53    8.57   529.6    7.7      69.566
2014   10       21     6  59    8.56   530.3    7.6      69.710
2014   10       21     7   5    8.56   531.0    7.6      69.843
2014   10       21     7  11    8.55   531.6    7.6      69.967
2014   10       21     7  17    8.54   532.3    7.6      70.084
2014   10       21     7  23    8.53   532.9    7.5      70.196
2014   10       21     7  29    8.53   533.6    7.5      70.304
2014   10       21     7  34    8.52   534.2    7.5      70.408
2014   10       21     7  40    8.51   534.9    7.5      70.510
2014   10       21     7  46    8.50   535.6    7.4      70.611
2014   10       21     7  52    8.49   536.3    7.4      70.708
2014   10       21     7  58    8.49   537.0    7.4      70.804
2014   10       21     8   4    8.48   537.7    7.4      70.895
2014   10       21     8   9    8.47   538.4    7.3      70.983
2014   10       21     8  15    8.46   539.1    7.3      71.064
2014   10       21     8  21    8.45   539.8    7.3      71.140
2014   10       21     8  27    8.45   540.5    7.2      71.209
2014   10       21     8  33    8.44   541.2    7.2      71.273
2014   10       21     8  39    8.43   542.0    7.2      71.332
2014   10       21     8  45    8.42   542.7    7.2      71.384
2014   10       21     8  50    8.41   543.4    7.1      71.430
2014   10       21     8  56    8.40   544.2    7.1      71.471
2014   10       21     9   2    8.39   544.9    7.1      71.507
2014   10       21     9   8    8.38   545.6    7.0      71.542
2014   10       21     9  14    8.37   546.4    7.0      71.574
2014   10       21     9  20    8.36   547.2    7.0      71.603
2014   10       21     9  25    8.35   548.0    6.9      71.632
2014   10       21     9  31    8.34   548.8    6.9      71.662
2014   10       21     9  37    8.33   549.6    6.9      71.697
2014   10       21     9  43    8.32   550.5    6.8      71.735
2014   10       21     9  49    8.31   551.4    6.8      71.770
2014   10       21     9  54    8.30   552.2    6.8      71.801
2014   10       21    10   0    8.28   553.1    6.7      71.827
2014   10       21    10   6    8.27   554.0    6.7      71.847
2014   10       21    10  12    8.26   554.8    6.7      71.860
2014   10       21    10  18    8.25   555.7    6.6      71.871
2014   10       21    10  24    8.23   556.6    6.6      71.871
2014   10       21    10  29    8.22   557.5    6.5      71.853
2014   10       21    10  35    8.20   558.3    6.5      71.822
2014   10       21    10  41    8.19   559.1    6.5      71.782
2014   10       21    10  47    8.17   559.9    6.4      71.735
2014   10       21    10  53    8.16   560.6    6.4      71.679
2014   10       21    10  59    8.14   561.3    6.3      71.613
2014   10       21    11   4    8.13   562.0    6.3      71.558
2014   10       21    11  10    8.11   562.7    6.3      71.514
2014   10       21    11  16    8.10   563.4    6.2      71.479
2014   10       21    11  22    8.08   564.1    6.2      71.453
2014   10       21    11  28    8.07   564.8    6.2      71.434
2014   10       21    11  33    8.06   565.5    6.1      71.421
2014   10       21    11  39    8.04   566.2    6.1      71.415
2014   10       21    11  45    8.03   566.9    6.1      71.415
2014   10       21    11  51    8.01   567.5    6.1      71.421
2014   10       21    11  57    8.00   568.2    6.0      71.431
2014   10       21    12   3    7.99   568.9    6.0      71.444
2014   10       21    12   8    7.97   569.7    6.0      71.461
2014   10       21    12  14    7.96   570.4    6.0      71.479
2014   10       21    12  20    7.94   571.1    5.9      71.497
2014   10       21    12  26    7.93   571.9    5.9      71.515
2014   10       21    12  32    7.91   572.6    5.9      71.531
2014   10       21    12  38    7.90   573.4    5.8      71.539
2014   10       21    12  43    7.89   574.1    5.8      71.542
2014   10       21    12  49    7.87   574.9    5.8      71.539
2014   10       21    12  55    7.85   575.6    5.7      71.529
2014   10       21    13   1    7.84   576.4    5.7      71.508
2014   10       21    13   7    7.82   577.0    5.7      71.475
2014   10       21    13  13    7.81   577.7    5.7      71.430
2014   10       21    13  19    7.79   578.3    5.6      71.373
2014   10       21    13  24    7.77   578.8    5.6      71.306
2014   10       21    13  30    7.76   579.4    5.6      71.234
2014   10       21    13  36    7.74   579.9    5.5      71.162
2014   10       21    13  42    7.73   580.4    5.5      71.089
2014   10       21    13  48    7.71   580.9    5.5      71.015
2014   10       21    13  54    7.70   581.4    5.4      70.941
2014   10       21    13  59    7.68   581.9    5.4      70.867
2014   10       21    14   5    7.67   582.3    5.4      70.794
2014   10       21    14  11    7.65   582.8    5.4      70.722
2014   10       21    14  17    7.64   583.2    5.4      70.654
2014   10       21    14  23    7.63   583.7    5.3      70.587
2014   10       21    14  29    7.61   584.1    5.3      70.520
2014   10       21    14  35    7.60   584.6    5.3      70.453
2014   10       21    14  40    7.58   585.0    5.3      70.388
2014   10       21    14  46    7.57   585.5    5.2      70.325
2014   10       21    14  52    7.56   585.9    5.2      70.263
2014   10       21    14  58    7.54   586.4    5.2      70.203
2014   10       21    15   4    7.53   586.8    5.2      70.145
2014   10       21    15  10    7.51   587.3    5.2      70.088
2014   10       21    15  16    7.50   587.8    5.1      70.032
2014   10       21    15  21    7.49   588.3    5.1      69.975
2014   10       21    15  27    7.47   588.7    5.1      69.916
2014   10       21    15  33    7.46   589.2    5.1      69.855
2014   10       21    15  39    7.44   589.7    5.1      69.793
2014   10       21    15  45    7.43   590.1    5.0      69.728
2014   10       21    15  51    7.41   590.6    5.0      69.663
2014   10       21    15  56    7.40   591.0    5.0      69.596
2014   10       21    16   2    7.38   591.5    5.0      69.528
2014   10       21    16   8    7.37   591.9    5.0      69.460
2014   10       21    16  14    7.35   592.3    4.9      69.391
2014   10       21    16  20    7.34   592.7    4.9      69.320
2014   10       21    16  26    7.32   593.2    4.9      69.250
2014   10       21    16  31    7.31   593.6    4.9      69.178
2014   10       21    16  37    7.29   594.0    4.9      69.105
2014   10       21    16  43    7.28   594.5    4.9      69.028
2014   10       21    16  49    7.26   594.9    4.8      68.949
2014   10       21    16  55    7.24   595.3    4.8      68.868
2014   10       21    17   1    7.23   595.6    4.8      68.784
2014   10       21    17   6    7.21   595.9    4.8      68.698
2014   10       21    17  12    7.20   596.2    4.8      68.613
2014   10       21    17  18    7.18   596.5    4.7      68.531
2014   10       21    17  24    7.17   596.8    4.7      68.452
2014   10       21    17  30    7.15   597.1    4.7      68.376
2014   10       21    17  35    7.14   597.4    4.7      68.304
2014   10       21    17  41    7.12   597.6    4.7      68.235
2014   10       21    17  47    7.11   597.9    4.7      68.169
2014   10       21    17  53    7.09   598.1    4.7      68.107
2014   10       21    17  59    7.08   598.4    4.6      68.049
2014   10       21    18   5    7.07   598.7    4.6      67.995
2014   10       21    18  10    7.05   599.0    4.6      67.945
2014   10       21    18  16    7.04   599.3    4.6      67.898
2014   10       21    18  22    7.03   599.6    4.6      67.854
2014   10       21    18  28    7.01   600.0    4.6      67.813
2014   10       21    18  34    7.00   600.3    4.6      67.773
2014   10       21    18  40    6.99   600.6    4.6      67.734
2014   10       21    18  45    6.98   601.0    4.5      67.693
2014   10       21    18  51    6.96   601.3    4.5      67.650
2014   10       21    18  57    6.95   601.6    4.5      67.606
2014   10       21    19   3    6.94   601.9    4.5      67.559
2014   10       21    19   9    6.92   602.2    4.5      67.511
2014   10       21    19  15    6.91   602.5    4.5      67.460
2014   10       21    19  20    6.90   602.8    4.5      67.407
2014   10       21    19  26    6.88   603.2    4.5      67.351
2014   10       21    19  32    6.87   603.5    4.4      67.292
2014   10       21    19  38    6.86   603.8    4.4      67.230
2014   10       21    19  44    6.84   604.1    4.4      67.162
2014   10       21    19  50    6.83   604.4    4.4      67.091
2014   10       21    19  55    6.82   604.6    4.4      67.017
2014   10       21    20   1    6.81   604.9    4.4      66.940
2014   10       21    20   7    6.79   605.2    4.4      66.864
2014   10       21    20  13    6.78   605.4    4.3      66.788
2014   10       21    20  19    6.77   605.7    4.3      66.713
2014   10       21    20  25    6.76   605.9    4.3      66.639
2014   10       21    20  30    6.74   606.1    4.3      66.567
2014   10       21    20  36    6.73   606.4    4.3      66.496
2014   10       21    20  42    6.72   606.6    4.3      66.426
2014   10       21    20  48    6.71   606.8    4.3      66.358
2014   10       21    20  54    6.70   607.0    4.3      66.291
2014   10       21    21   0    6.68   607.2    4.3      66.226
2014   10       21    21   6    6.67   607.4    4.2      66.163
2014   10       21    21  11    6.66   607.6    4.2      66.101
2014   10       21    21  17    6.65   607.8    4.2      66.041
2014   10       21    21  23    6.64   608.0    4.2      65.984
2014   10       21    21  29    6.63   608.1    4.2      65.927
2014   10       21    21  35    6.62   608.3    4.2      65.871
2014   10       21    21  41    6.61   608.5    4.2      65.817
2014   10       21    21  46    6.60   608.6    4.2      65.763
2014   10       21    21  52    6.59   608.8    4.2      65.712
2014   10       21    21  58    6.58   609.0    4.2      65.661
2014   10       21    22   4    6.57   609.2    4.2      65.613
2014   10       21    22  10    6.55   609.4    4.2      65.567
2014   10       21    22  16    6.54   609.6    4.1      65.523
2014   10       21    22  22    6.53   609.8    4.1      65.480
2014   10       21    22  27    6.52   610.0    4.1      65.439
2014   10       21    22  33    6.51   610.2    4.1      65.397
2014   10       21    22  39    6.50   610.5    4.1      65.356
2014   10       21    22  45    6.49   610.7    4.1      65.314
2014   10       21    22  51    6.48   610.9    4.1      65.272
2014   10       21    22  57    6.47   611.1    4.1      65.229
2014   10       21    23   2    6.46   611.3    4.1      65.186
2014   10       21    23   8    6.45   611.6    4.1      65.143
2014   10       21    23  14    6.44   611.8    4.1      65.100
2014   10       21    23  20    6.43   612.0    4.1      65.056
2014   10       21    23  26    6.42   612.2    4.1      65.011
2014   10       21    23  32    6.41   612.5    4.0      64.965
2014   10       21    23  37    6.40   612.7    4.0      64.919
2014   10       21    23  43    6.39   612.9    4.0      64.871
2014   10       21    23  49    6.38   613.2    4.0      64.821
2014   10       21    23  55    6.37   613.4    4.0      64.767
2014   10       22     0   1    6.36   613.7    4.0      64.710
