year    month   day   hour  minute  B_enl V_enl   n_enl       T_enl
[year] [month] [day] [hour][minute] [nT]  [km/s]  [cm-3]      [kK]
2014   10       12     0   4    6.17   441.3    7.5      42.476
2014   10       12     0   9    6.17   441.4    7.5      42.490
2014   10       12     0  15    6.18   441.5    7.5      42.505
2014   10       12     0  21    6.18   441.6    7.5      42.521
2014   10       12     0  26    6.18   441.7    7.5      42.538
2014   10       12     0  32    6.18   441.7    7.5      42.555
2014   10       12     0  38    6.18   441.8    7.5      42.573
2014   10       12     0  43    6.18   441.9    7.5      42.591
2014   10       12     0  49    6.18   442.0    7.5      42.610
2014   10       12     0  54    6.19   442.1    7.5      42.631
2014   10       12     1   0    6.19   442.2    7.5      42.652
2014   10       12     1   6    6.19   442.4    7.5      42.674
2014   10       12     1  11    6.19   442.5    7.5      42.697
2014   10       12     1  17    6.19   442.6    7.5      42.722
2014   10       12     1  23    6.19   442.7    7.5      42.747
2014   10       12     1  28    6.20   442.8    7.5      42.774
2014   10       12     1  34    6.20   442.9    7.5      42.801
2014   10       12     1  39    6.20   443.0    7.5      42.829
2014   10       12     1  45    6.20   443.2    7.5      42.856
2014   10       12     1  51    6.20   443.3    7.5      42.885
2014   10       12     1  56    6.20   443.4    7.5      42.915
2014   10       12     2   2    6.20   443.5    7.5      42.946
2014   10       12     2   8    6.21   443.7    7.5      42.978
2014   10       12     2  13    6.21   443.8    7.5      43.010
2014   10       12     2  19    6.21   443.9    7.5      43.044
2014   10       12     2  24    6.21   444.0    7.5      43.077
2014   10       12     2  30    6.21   444.2    7.5      43.112
2014   10       12     2  36    6.21   444.3    7.5      43.149
2014   10       12     2  41    6.22   444.4    7.5      43.187
2014   10       12     2  47    6.22   444.6    7.5      43.226
2014   10       12     2  53    6.22   444.7    7.5      43.265
2014   10       12     2  58    6.22   444.9    7.5      43.306
2014   10       12     3   4    6.22   445.0    7.5      43.348
2014   10       12     3   9    6.22   445.2    7.5      43.388
2014   10       12     3  15    6.22   445.3    7.5      43.428
2014   10       12     3  21    6.22   445.5    7.5      43.466
2014   10       12     3  26    6.22   445.6    7.5      43.503
2014   10       12     3  32    6.22   445.8    7.5      43.538
2014   10       12     3  37    6.23   445.9    7.5      43.572
2014   10       12     3  43    6.23   446.0    7.5      43.605
2014   10       12     3  49    6.23   446.2    7.5      43.637
2014   10       12     3  54    6.23   446.3    7.5      43.668
2014   10       12     4   0    6.23   446.5    7.5      43.698
2014   10       12     4   6    6.23   446.6    7.5      43.726
2014   10       12     4  11    6.23   446.8    7.5      43.753
2014   10       12     4  17    6.23   446.9    7.5      43.780
2014   10       12     4  22    6.23   447.0    7.5      43.805
2014   10       12     4  28    6.23   447.2    7.5      43.829
2014   10       12     4  34    6.23   447.3    7.5      43.852
2014   10       12     4  39    6.23   447.5    7.5      43.875
2014   10       12     4  45    6.23   447.6    7.5      43.896
2014   10       12     4  51    6.23   447.8    7.5      43.916
2014   10       12     4  56    6.23   447.9    7.5      43.935
2014   10       12     5   2    6.23   448.0    7.5      43.954
2014   10       12     5   7    6.23   448.2    7.5      43.972
2014   10       12     5  13    6.23   448.3    7.5      43.988
2014   10       12     5  19    6.23   448.5    7.5      44.004
2014   10       12     5  24    6.23   448.6    7.5      44.019
2014   10       12     5  30    6.23   448.7    7.5      44.033
2014   10       12     5  36    6.23   448.9    7.5      44.047
2014   10       12     5  41    6.23   449.0    7.5      44.060
2014   10       12     5  47    6.23   449.2    7.5      44.072
2014   10       12     5  52    6.23   449.3    7.5      44.083
2014   10       12     5  58    6.23   449.4    7.5      44.093
2014   10       12     6   4    6.23   449.6    7.5      44.103
2014   10       12     6   9    6.23   449.7    7.5      44.113
2014   10       12     6  15    6.23   449.9    7.4      44.121
2014   10       12     6  21    6.23   450.0    7.4      44.130
2014   10       12     6  26    6.23   450.1    7.4      44.137
2014   10       12     6  32    6.23   450.3    7.4      44.144
2014   10       12     6  37    6.23   450.4    7.4      44.151
2014   10       12     6  43    6.23   450.5    7.4      44.157
2014   10       12     6  49    6.23   450.7    7.4      44.162
2014   10       12     6  54    6.23   450.8    7.4      44.167
2014   10       12     7   0    6.23   451.0    7.4      44.172
2014   10       12     7   6    6.23   451.1    7.4      44.176
2014   10       12     7  11    6.23   451.2    7.4      44.180
2014   10       12     7  17    6.23   451.4    7.4      44.183
2014   10       12     7  22    6.23   451.5    7.4      44.187
2014   10       12     7  28    6.23   451.6    7.4      44.190
2014   10       12     7  34    6.23   451.8    7.4      44.192
2014   10       12     7  39    6.23   451.9    7.4      44.195
2014   10       12     7  45    6.23   452.0    7.4      44.198
2014   10       12     7  51    6.23   452.2    7.4      44.200
2014   10       12     7  56    6.23   452.3    7.3      44.203
2014   10       12     8   2    6.23   452.4    7.3      44.206
2014   10       12     8   7    6.23   452.6    7.3      44.209
2014   10       12     8  13    6.23   452.7    7.3      44.212
2014   10       12     8  19    6.23   452.9    7.3      44.215
2014   10       12     8  24    6.23   453.0    7.3      44.219
2014   10       12     8  30    6.23   453.1    7.3      44.223
2014   10       12     8  36    6.23   453.3    7.3      44.227
2014   10       12     8  41    6.23   453.4    7.3      44.232
2014   10       12     8  47    6.23   453.5    7.3      44.237
2014   10       12     8  52    6.23   453.7    7.3      44.243
2014   10       12     8  58    6.23   453.8    7.3      44.249
2014   10       12     9   4    6.23   453.9    7.3      44.256
2014   10       12     9   9    6.23   454.1    7.3      44.264
2014   10       12     9  15    6.23   454.2    7.3      44.273
2014   10       12     9  21    6.23   454.3    7.3      44.283
2014   10       12     9  26    6.23   454.5    7.3      44.294
2014   10       12     9  32    6.23   454.6    7.3      44.306
2014   10       12     9  37    6.23   454.7    7.3      44.319
2014   10       12     9  43    6.23   454.9    7.3      44.333
2014   10       12     9  49    6.23   455.0    7.3      44.348
2014   10       12     9  54    6.23   455.2    7.3      44.364
2014   10       12    10   0    6.23   455.3    7.3      44.383
2014   10       12    10   6    6.23   455.5    7.3      44.402
2014   10       12    10  11    6.22   455.6    7.3      44.422
2014   10       12    10  17    6.22   455.8    7.3      44.444
2014   10       12    10  22    6.22   455.9    7.3      44.468
2014   10       12    10  28    6.22   456.1    7.3      44.491
2014   10       12    10  34    6.22   456.3    7.3      44.514
2014   10       12    10  39    6.22   456.4    7.3      44.535
2014   10       12    10  45    6.22   456.6    7.2      44.556
2014   10       12    10  51    6.22   456.7    7.2      44.577
2014   10       12    10  56    6.22   456.9    7.2      44.596
2014   10       12    11   2    6.22   457.0    7.2      44.615
2014   10       12    11   7    6.22   457.2    7.2      44.634
2014   10       12    11  13    6.22   457.3    7.2      44.653
2014   10       12    11  19    6.21   457.5    7.2      44.670
2014   10       12    11  24    6.21   457.6    7.2      44.688
2014   10       12    11  30    6.21   457.8    7.2      44.705
2014   10       12    11  35    6.21   457.9    7.2      44.722
2014   10       12    11  41    6.21   458.1    7.2      44.739
2014   10       12    11  47    6.21   458.2    7.2      44.756
2014   10       12    11  52    6.21   458.4    7.2      44.773
2014   10       12    11  58    6.21   458.6    7.2      44.790
2014   10       12    12   4    6.21   458.7    7.2      44.807
2014   10       12    12   9    6.20   458.9    7.2      44.823
2014   10       12    12  15    6.20   459.0    7.2      44.839
2014   10       12    12  20    6.20   459.2    7.2      44.856
2014   10       12    12  26    6.20   459.3    7.2      44.872
2014   10       12    12  32    6.20   459.5    7.2      44.888
2014   10       12    12  37    6.20   459.6    7.2      44.904
2014   10       12    12  43    6.20   459.8    7.2      44.919
2014   10       12    12  49    6.20   459.9    7.2      44.934
2014   10       12    12  54    6.19   460.1    7.2      44.948
2014   10       12    13   0    6.19   460.2    7.1      44.961
2014   10       12    13   5    6.19   460.4    7.1      44.972
2014   10       12    13  11    6.19   460.6    7.1      44.983
2014   10       12    13  17    6.19   460.7    7.1      44.993
2014   10       12    13  22    6.19   460.9    7.1      45.002
2014   10       12    13  28    6.19   461.0    7.1      45.010
2014   10       12    13  34    6.19   461.2    7.1      45.017
2014   10       12    13  39    6.18   461.3    7.1      45.023
2014   10       12    13  45    6.18   461.5    7.1      45.028
2014   10       12    13  50    6.18   461.6    7.1      45.032
2014   10       12    13  56    6.18   461.8    7.1      45.035
2014   10       12    14   2    6.18   462.0    7.1      45.037
2014   10       12    14   7    6.18   462.1    7.1      45.038
2014   10       12    14  13    6.17   462.3    7.1      45.038
2014   10       12    14  19    6.17   462.4    7.0      45.037
2014   10       12    14  24    6.17   462.6    7.0      45.035
2014   10       12    14  30    6.17   462.8    7.0      45.032
2014   10       12    14  35    6.17   462.9    7.0      45.029
2014   10       12    14  41    6.16   463.1    7.0      45.024
2014   10       12    14  47    6.16   463.2    7.0      45.019
2014   10       12    14  52    6.16   463.4    7.0      45.013
2014   10       12    14  58    6.16   463.5    7.0      45.005
2014   10       12    15   4    6.16   463.7    7.0      44.998
2014   10       12    15   9    6.15   463.9    7.0      44.989
2014   10       12    15  15    6.15   464.0    7.0      44.980
2014   10       12    15  20    6.15   464.2    6.9      44.970
2014   10       12    15  26    6.15   464.3    6.9      44.959
2014   10       12    15  32    6.14   464.5    6.9      44.948
2014   10       12    15  37    6.14   464.6    6.9      44.935
2014   10       12    15  43    6.14   464.8    6.9      44.923
2014   10       12    15  49    6.14   464.9    6.9      44.910
2014   10       12    15  54    6.13   465.1    6.9      44.896
2014   10       12    16   0    6.13   465.2    6.9      44.881
2014   10       12    16   6    6.13   465.4    6.9      44.867
2014   10       12    16  11    6.13   465.5    6.9      44.851
2014   10       12    16  17    6.12   465.6    6.8      44.835
2014   10       12    16  22    6.12   465.8    6.8      44.819
2014   10       12    16  28    6.12   465.9    6.8      44.803
2014   10       12    16  34    6.11   466.1    6.8      44.786
2014   10       12    16  39    6.11   466.2    6.8      44.768
2014   10       12    16  45    6.11   466.3    6.8      44.751
2014   10       12    16  51    6.11   466.5    6.8      44.733
2014   10       12    16  56    6.10   466.6    6.8      44.715
2014   10       12    17   2    6.10   466.8    6.8      44.696
2014   10       12    17   7    6.10   466.9    6.8      44.677
2014   10       12    17  13    6.09   467.0    6.7      44.658
2014   10       12    17  19    6.09   467.1    6.7      44.639
2014   10       12    17  24    6.09   467.3    6.7      44.619
2014   10       12    17  30    6.09   467.4    6.7      44.600
2014   10       12    17  35    6.08   467.5    6.7      44.580
2014   10       12    17  41    6.08   467.7    6.7      44.560
2014   10       12    17  47    6.08   467.8    6.7      44.540
2014   10       12    17  52    6.07   467.9    6.7      44.519
2014   10       12    17  58    6.07   468.0    6.7      44.499
2014   10       12    18   4    6.07   468.1    6.7      44.479
2014   10       12    18   9    6.06   468.3    6.6      44.458
2014   10       12    18  15    6.06   468.4    6.6      44.438
2014   10       12    18  20    6.06   468.5    6.6      44.418
2014   10       12    18  26    6.05   468.6    6.6      44.398
2014   10       12    18  32    6.05   468.7    6.6      44.378
2014   10       12    18  37    6.05   468.8    6.6      44.359
2014   10       12    18  43    6.05   468.9    6.6      44.339
2014   10       12    18  48    6.04   469.0    6.6      44.320
2014   10       12    18  54    6.04   469.1    6.6      44.301
2014   10       12    19   0    6.04   469.3    6.6      44.283
2014   10       12    19   5    6.03   469.4    6.6      44.265
2014   10       12    19  11    6.03   469.5    6.6      44.248
2014   10       12    19  17    6.03   469.6    6.5      44.231
2014   10       12    19  22    6.02   469.7    6.5      44.215
2014   10       12    19  28    6.02   469.8    6.5      44.200
2014   10       12    19  33    6.02   469.9    6.5      44.185
2014   10       12    19  39    6.01   470.0    6.5      44.170
2014   10       12    19  45    6.01   470.1    6.5      44.156
2014   10       12    19  50    6.01   470.2    6.5      44.143
2014   10       12    19  56    6.01   470.2    6.5      44.130
2014   10       12    20   2    6.00   470.3    6.5      44.118
2014   10       12    20   7    6.00   470.4    6.5      44.106
2014   10       12    20  13    6.00   470.5    6.5      44.095
2014   10       12    20  18    5.99   470.6    6.5      44.084
2014   10       12    20  24    5.99   470.7    6.5      44.073
2014   10       12    20  30    5.99   470.8    6.5      44.062
2014   10       12    20  35    5.99   470.9    6.4      44.051
2014   10       12    20  41    5.98   471.0    6.4      44.039
2014   10       12    20  47    5.98   471.1    6.4      44.027
2014   10       12    20  52    5.98   471.2    6.4      44.015
2014   10       12    20  58    5.97   471.3    6.4      44.003
2014   10       12    21   3    5.97   471.3    6.4      43.990
2014   10       12    21   9    5.97   471.4    6.4      43.977
2014   10       12    21  15    5.96   471.5    6.4      43.964
2014   10       12    21  20    5.96   471.6    6.4      43.950
2014   10       12    21  26    5.96   471.7    6.4      43.936
2014   10       12    21  32    5.96   471.8    6.4      43.922
2014   10       12    21  37    5.95   471.9    6.4      43.908
2014   10       12    21  43    5.95   471.9    6.4      43.893
2014   10       12    21  48    5.95   472.0    6.4      43.877
2014   10       12    21  54    5.94   472.1    6.4      43.862
2014   10       12    22   0    5.94   472.2    6.3      43.846
2014   10       12    22   5    5.94   472.3    6.3      43.830
2014   10       12    22  11    5.93   472.3    6.3      43.813
2014   10       12    22  17    5.93   472.4    6.3      43.796
2014   10       12    22  22    5.93   472.5    6.3      43.779
2014   10       12    22  28    5.92   472.6    6.3      43.762
2014   10       12    22  34    5.92   472.6    6.3      43.744
2014   10       12    22  39    5.92   472.7    6.3      43.726
2014   10       12    22  45    5.91   472.8    6.3      43.708
2014   10       12    22  50    5.91   472.9    6.3      43.690
2014   10       12    22  56    5.91   472.9    6.3      43.671
2014   10       12    23   2    5.90   473.0    6.3      43.653
2014   10       12    23   7    5.90   473.1    6.3      43.634
2014   10       12    23  13    5.90   473.1    6.3      43.615
2014   10       12    23  19    5.90   473.2    6.3      43.596
2014   10       12    23  24    5.89   473.2    6.3      43.578
2014   10       12    23  30    5.89   473.3    6.2      43.559
2014   10       12    23  35    5.89   473.4    6.2      43.540
2014   10       12    23  41    5.88   473.4    6.2      43.522
2014   10       12    23  47    5.88   473.5    6.2      43.504
2014   10       12    23  52    5.88   473.5    6.2      43.486
2014   10       12    23  58    5.87   473.6    6.2      43.467
2014   10       13     0   4    5.87   473.7    6.2      43.449
2014   10       13     0   9    5.87   473.7    6.2      43.432
2014   10       13     0  15    5.87   473.8    6.2      43.414
2014   10       13     0  20    5.86   473.8    6.2      43.397
2014   10       13     0  26    5.86   473.9    6.2      43.379
2014   10       13     0  32    5.86   474.0    6.2      43.362
2014   10       13     0  37    5.85   474.0    6.2      43.345
2014   10       13     0  43    5.85   474.1    6.2      43.328
2014   10       13     0  49    5.85   474.2    6.2      43.309
2014   10       13     0  54    5.85   474.2    6.2      43.291
2014   10       13     1   0    5.84   474.3    6.2      43.271
2014   10       13     1   5    5.84   474.3    6.1      43.251
2014   10       13     1  11    5.84   474.4    6.1      43.231
2014   10       13     1  17    5.83   474.5    6.1      43.210
2014   10       13     1  22    5.83   474.5    6.1      43.189
2014   10       13     1  28    5.83   474.6    6.1      43.168
2014   10       13     1  33    5.83   474.6    6.1      43.146
2014   10       13     1  39    5.82   474.7    6.1      43.124
2014   10       13     1  45    5.82   474.7    6.1      43.101
2014   10       13     1  50    5.82   474.8    6.1      43.078
2014   10       13     1  56    5.81   474.9    6.1      43.056
2014   10       13     2   2    5.81   474.9    6.1      43.032
2014   10       13     2   7    5.81   475.0    6.1      43.009
2014   10       13     2  13    5.81   475.0    6.1      42.986
2014   10       13     2  18    5.80   475.1    6.1      42.962
2014   10       13     2  24    5.80   475.1    6.1      42.938
2014   10       13     2  30    5.80   475.1    6.1      42.915
2014   10       13     2  35    5.79   475.2    6.1      42.891
2014   10       13     2  41    5.79   475.2    6.0      42.867
2014   10       13     2  46    5.79   475.3    6.0      42.843
2014   10       13     2  52    5.79   475.3    6.0      42.819
2014   10       13     2  58    5.78   475.4    6.0      42.796
2014   10       13     3   3    5.78   475.4    6.0      42.772
2014   10       13     3   9    5.78   475.4    6.0      42.748
2014   10       13     3  15    5.78   475.5    6.0      42.725
2014   10       13     3  20    5.77   475.5    6.0      42.702
2014   10       13     3  26    5.77   475.6    6.0      42.679
2014   10       13     3  31    5.77   475.6    6.0      42.656
2014   10       13     3  37    5.76   475.6    6.0      42.634
2014   10       13     3  43    5.76   475.7    6.0      42.611
2014   10       13     3  48    5.76   475.7    6.0      42.590
2014   10       13     3  54    5.76   475.7    6.0      42.568
2014   10       13     4   0    5.75   475.8    6.0      42.547
2014   10       13     4   5    5.75   475.8    6.0      42.526
2014   10       13     4  11    5.75   475.8    6.0      42.505
2014   10       13     4  16    5.75   475.9    6.0      42.485
2014   10       13     4  22    5.74   475.9    6.0      42.465
2014   10       13     4  28    5.74   475.9    5.9      42.446
2014   10       13     4  33    5.74   475.9    5.9      42.426
2014   10       13     4  39    5.74   476.0    5.9      42.407
2014   10       13     4  45    5.73   476.0    5.9      42.389
2014   10       13     4  50    5.73   476.0    5.9      42.371
2014   10       13     4  56    5.73   476.0    5.9      42.353
2014   10       13     5   2    5.73   476.1    5.9      42.336
2014   10       13     5   7    5.72   476.1    5.9      42.319
2014   10       13     5  13    5.72   476.1    5.9      42.302
2014   10       13     5  18    5.72   476.1    5.9      42.286
2014   10       13     5  24    5.72   476.2    5.9      42.270
2014   10       13     5  30    5.72   476.2    5.9      42.254
2014   10       13     5  35    5.71   476.2    5.9      42.239
2014   10       13     5  41    5.71   476.2    5.9      42.224
2014   10       13     5  47    5.71   476.2    5.9      42.209
2014   10       13     5  52    5.71   476.2    5.9      42.194
2014   10       13     5  58    5.70   476.3    5.9      42.180
2014   10       13     6   3    5.70   476.3    5.9      42.167
2014   10       13     6   9    5.70   476.3    5.9      42.154
2014   10       13     6  15    5.70   476.3    5.9      42.141
2014   10       13     6  20    5.70   476.3    5.9      42.128
2014   10       13     6  26    5.70   476.3    5.9      42.116
2014   10       13     6  32    5.69   476.3    5.9      42.105
2014   10       13     6  37    5.69   476.3    5.9      42.094
2014   10       13     6  43    5.69   476.3    5.9      42.084
2014   10       13     6  48    5.69   476.4    5.9      42.074
2014   10       13     6  54    5.69   476.4    5.9      42.065
2014   10       13     7   0    5.68   476.4    5.9      42.056
2014   10       13     7   5    5.68   476.4    5.9      42.048
2014   10       13     7  11    5.68   476.4    5.9      42.041
2014   10       13     7  17    5.68   476.4    5.9      42.034
2014   10       13     7  22    5.68   476.4    5.9      42.028
2014   10       13     7  28    5.68   476.4    5.9      42.023
2014   10       13     7  33    5.68   476.5    5.9      42.017
2014   10       13     7  39    5.68   476.5    5.9      42.013
2014   10       13     7  45    5.67   476.5    5.9      42.009
2014   10       13     7  50    5.67   476.5    5.9      42.005
2014   10       13     7  56    5.67   476.5    5.9      42.000
2014   10       13     8   2    5.67   476.6    5.9      41.995
2014   10       13     8   7    5.67   476.6    5.9      41.990
2014   10       13     8  13    5.67   476.6    5.9      41.985
2014   10       13     8  18    5.67   476.6    5.9      41.980
2014   10       13     8  24    5.67   476.6    5.9      41.974
2014   10       13     8  30    5.66   476.7    5.9      41.968
2014   10       13     8  35    5.66   476.7    5.9      41.962
2014   10       13     8  41    5.66   476.7    5.9      41.956
2014   10       13     8  46    5.66   476.7    5.9      41.950
2014   10       13     8  52    5.66   476.7    5.9      41.943
2014   10       13     8  58    5.66   476.7    5.9      41.937
2014   10       13     9   3    5.66   476.8    5.9      41.931
2014   10       13     9   9    5.66   476.8    5.9      41.924
2014   10       13     9  14    5.65   476.8    5.8      41.918
2014   10       13     9  20    5.65   476.8    5.8      41.912
2014   10       13     9  25    5.65   476.8    5.8      41.905
2014   10       13     9  31    5.65   476.9    5.8      41.899
2014   10       13     9  36    5.65   476.9    5.8      41.892
2014   10       13     9  42    5.65   476.9    5.8      41.886
2014   10       13     9  47    5.65   476.9    5.8      41.881
2014   10       13     9  53    5.65   476.9    5.8      41.875
2014   10       13     9  58    5.64   476.9    5.8      41.868
2014   10       13    10   4    5.64   477.0    5.8      41.862
2014   10       13    10   9    5.64   477.0    5.8      41.856
2014   10       13    10  15    5.64   477.0    5.8      41.850
2014   10       13    10  20    5.64   477.0    5.8      41.844
2014   10       13    10  26    5.64   477.0    5.8      41.838
2014   10       13    10  31    5.64   477.1    5.8      41.832
2014   10       13    10  37    5.64   477.1    5.8      41.826
2014   10       13    10  42    5.64   477.1    5.8      41.820
2014   10       13    10  48    5.64   477.1    5.8      41.813
2014   10       13    10  54    5.63   477.1    5.8      41.807
2014   10       13    10  59    5.63   477.1    5.8      41.801
2014   10       13    11   5    5.63   477.2    5.8      41.794
2014   10       13    11  10    5.63   477.2    5.8      41.788
2014   10       13    11  16    5.63   477.2    5.8      41.782
2014   10       13    11  22    5.63   477.2    5.8      41.776
2014   10       13    11  27    5.63   477.2    5.8      41.770
2014   10       13    11  33    5.63   477.2    5.8      41.763
2014   10       13    11  38    5.63   477.3    5.8      41.757
2014   10       13    11  44    5.63   477.3    5.8      41.751
2014   10       13    11  50    5.62   477.3    5.8      41.745
2014   10       13    11  55    5.62   477.3    5.8      41.738
2014   10       13    12   1    5.62   477.3    5.8      41.732
2014   10       13    12   6    5.62   477.4    5.8      41.725
2014   10       13    12  12    5.62   477.4    5.8      41.719
2014   10       13    12  18    5.62   477.4    5.8      41.712
2014   10       13    12  23    5.62   477.4    5.8      41.705
2014   10       13    12  29    5.62   477.4    5.8      41.698
2014   10       13    12  35    5.62   477.5    5.8      41.691
2014   10       13    12  40    5.62   477.5    5.8      41.684
2014   10       13    12  46    5.62   477.5    5.8      41.677
2014   10       13    12  51    5.62   477.5    5.8      41.669
2014   10       13    12  57    5.61   477.5    5.8      41.662
2014   10       13    13   3    5.61   477.5    5.8      41.654
2014   10       13    13   8    5.61   477.6    5.8      41.647
2014   10       13    13  14    5.61   477.6    5.8      41.639
2014   10       13    13  20    5.61   477.6    5.8      41.632
2014   10       13    13  25    5.61   477.6    5.8      41.624
2014   10       13    13  31    5.61   477.6    5.8      41.617
2014   10       13    13  36    5.61   477.7    5.8      41.609
2014   10       13    13  42    5.61   477.7    5.8      41.602
2014   10       13    13  48    5.61   477.7    5.8      41.594
2014   10       13    13  53    5.61   477.7    5.8      41.587
2014   10       13    13  59    5.61   477.7    5.8      41.580
2014   10       13    14   4    5.61   477.7    5.8      41.572
2014   10       13    14  10    5.61   477.8    5.8      41.565
2014   10       13    14  16    5.61   477.8    5.8      41.558
2014   10       13    14  21    5.61   477.8    5.8      41.551
2014   10       13    14  27    5.61   477.8    5.8      41.545
2014   10       13    14  33    5.61   477.8    5.8      41.538
2014   10       13    14  38    5.61   477.8    5.8      41.532
2014   10       13    14  44    5.60   477.9    5.8      41.526
2014   10       13    14  49    5.60   477.9    5.8      41.520
2014   10       13    14  55    5.60   477.9    5.8      41.514
2014   10       13    15   1    5.60   477.9    5.8      41.509
2014   10       13    15   6    5.60   477.9    5.7      41.504
2014   10       13    15  12    5.60   478.0    5.7      41.499
2014   10       13    15  18    5.60   478.0    5.7      41.494
2014   10       13    15  23    5.60   478.0    5.7      41.490
2014   10       13    15  29    5.60   478.0    5.7      41.486
2014   10       13    15  34    5.60   478.0    5.7      41.482
2014   10       13    15  40    5.60   478.0    5.7      41.478
2014   10       13    15  46    5.60   478.1    5.7      41.474
2014   10       13    15  51    5.60   478.1    5.7      41.471
2014   10       13    15  57    5.60   478.1    5.7      41.468
2014   10       13    16   2    5.60   478.1    5.7      41.466
2014   10       13    16   8    5.60   478.1    5.7      41.463
2014   10       13    16  14    5.60   478.1    5.7      41.461
2014   10       13    16  19    5.60   478.2    5.7      41.459
2014   10       13    16  25    5.60   478.2    5.7      41.457
2014   10       13    16  31    5.60   478.2    5.7      41.456
2014   10       13    16  36    5.60   478.2    5.7      41.455
2014   10       13    16  42    5.60   478.2    5.7      41.454
2014   10       13    16  47    5.60   478.2    5.7      41.453
2014   10       13    16  53    5.60   478.2    5.7      41.453
2014   10       13    16  59    5.60   478.3    5.7      41.453
2014   10       13    17   4    5.60   478.3    5.7      41.453
2014   10       13    17  10    5.60   478.3    5.7      41.453
2014   10       13    17  15    5.60   478.3    5.7      41.454
2014   10       13    17  21    5.60   478.3    5.7      41.455
2014   10       13    17  27    5.60   478.3    5.7      41.457
2014   10       13    17  32    5.60   478.4    5.7      41.459
2014   10       13    17  38    5.60   478.4    5.7      41.461
2014   10       13    17  43    5.60   478.4    5.7      41.463
2014   10       13    17  49    5.60   478.4    5.7      41.466
2014   10       13    17  55    5.60   478.4    5.7      41.469
2014   10       13    18   0    5.60   478.4    5.7      41.473
2014   10       13    18   6    5.60   478.4    5.7      41.477
2014   10       13    18  11    5.60   478.5    5.7      41.481
2014   10       13    18  17    5.60   478.5    5.7      41.485
2014   10       13    18  23    5.60   478.5    5.7      41.490
2014   10       13    18  28    5.60   478.5    5.7      41.495
2014   10       13    18  34    5.60   478.5    5.7      41.500
2014   10       13    18  40    5.60   478.5    5.7      41.505
2014   10       13    18  45    5.60   478.5    5.7      41.510
2014   10       13    18  51    5.60   478.5    5.7      41.515
2014   10       13    18  56    5.61   478.6    5.7      41.520
2014   10       13    19   2    5.61   478.6    5.7      41.525
2014   10       13    19   8    5.61   478.6    5.7      41.530
2014   10       13    19  13    5.61   478.6    5.7      41.535
2014   10       13    19  19    5.61   478.6    5.7      41.540
2014   10       13    19  24    5.61   478.6    5.7      41.544
2014   10       13    19  30    5.61   478.6    5.7      41.549
2014   10       13    19  36    5.61   478.7    5.7      41.553
2014   10       13    19  41    5.61   478.7    5.7      41.557
2014   10       13    19  47    5.61   478.7    5.7      41.561
2014   10       13    19  53    5.61   478.7    5.7      41.565
2014   10       13    19  58    5.61   478.7    5.7      41.568
2014   10       13    20   4    5.61   478.7    5.7      41.572
2014   10       13    20   9    5.61   478.7    5.7      41.575
2014   10       13    20  15    5.61   478.7    5.7      41.578
2014   10       13    20  21    5.61   478.8    5.7      41.581
2014   10       13    20  26    5.61   478.8    5.7      41.584
2014   10       13    20  32    5.61   478.8    5.7      41.587
2014   10       13    20  38    5.61   478.8    5.7      41.589
2014   10       13    20  43    5.61   478.8    5.7      41.592
2014   10       13    20  49    5.62   478.8    5.7      41.595
2014   10       13    20  54    5.62   478.9    5.7      41.597
2014   10       13    21   0    5.62   478.9    5.7      41.600
2014   10       13    21   6    5.62   478.9    5.7      41.603
2014   10       13    21  11    5.62   478.9    5.7      41.606
2014   10       13    21  17    5.62   478.9    5.7      41.608
2014   10       13    21  22    5.62   478.9    5.7      41.611
2014   10       13    21  28    5.62   479.0    5.7      41.615
2014   10       13    21  34    5.62   479.0    5.7      41.618
2014   10       13    21  39    5.62   479.0    5.7      41.621
2014   10       13    21  45    5.62   479.0    5.7      41.625
2014   10       13    21  51    5.63   479.0    5.7      41.629
2014   10       13    21  56    5.63   479.1    5.7      41.632
2014   10       13    22   2    5.63   479.1    5.7      41.636
2014   10       13    22   7    5.63   479.1    5.7      41.641
2014   10       13    22  13    5.63   479.1    5.7      41.645
2014   10       13    22  19    5.63   479.2    5.7      41.650
2014   10       13    22  24    5.63   479.2    5.7      41.655
2014   10       13    22  30    5.63   479.2    5.7      41.660
2014   10       13    22  36    5.63   479.2    5.7      41.666
2014   10       13    22  41    5.64   479.3    5.8      41.671
2014   10       13    22  47    5.64   479.3    5.8      41.677
2014   10       13    22  52    5.64   479.3    5.8      41.683
2014   10       13    22  58    5.64   479.3    5.8      41.690
2014   10       13    23   4    5.64   479.4    5.8      41.696
2014   10       13    23   9    5.64   479.4    5.8      41.703
2014   10       13    23  15    5.64   479.4    5.8      41.710
2014   10       13    23  20    5.64   479.4    5.8      41.718
2014   10       13    23  26    5.64   479.5    5.8      41.726
2014   10       13    23  32    5.65   479.5    5.8      41.734
2014   10       13    23  37    5.65   479.5    5.8      41.742
2014   10       13    23  43    5.65   479.5    5.8      41.751
2014   10       13    23  49    5.65   479.6    5.8      41.761
2014   10       13    23  54    5.65   479.6    5.8      41.771
2014   10       14     0   0    5.65   479.6    5.8      41.782
2014   10       14     0   5    5.65   479.7    5.8      41.793
2014   10       14     0  11    5.65   479.7    5.8      41.806
2014   10       14     0  17    5.66   479.7    5.8      41.819
2014   10       14     0  22    5.66   479.8    5.8      41.833
2014   10       14     0  28    5.66   479.8    5.8      41.847
2014   10       14     0  33    5.66   479.8    5.8      41.863
2014   10       14     0  39    5.66   479.9    5.8      41.879
2014   10       14     0  45    5.66   479.9    5.8      41.895
2014   10       14     0  50    5.66   479.9    5.8      41.911
2014   10       14     0  56    5.66   480.0    5.8      41.928
2014   10       14     1   1    5.67   480.0    5.8      41.946
2014   10       14     1   7    5.67   480.0    5.8      41.963
2014   10       14     1  13    5.67   480.1    5.8      41.981
2014   10       14     1  18    5.67   480.1    5.8      41.999
2014   10       14     1  24    5.67   480.1    5.8      42.017
2014   10       14     1  30    5.67   480.2    5.8      42.035
2014   10       14     1  35    5.67   480.2    5.8      42.053
2014   10       14     1  41    5.67   480.2    5.8      42.071
2014   10       14     1  46    5.68   480.3    5.8      42.089
2014   10       14     1  52    5.68   480.3    5.8      42.107
2014   10       14     1  58    5.68   480.3    5.8      42.125
2014   10       14     2   3    5.68   480.4    5.8      42.143
2014   10       14     2   9    5.68   480.4    5.8      42.160
2014   10       14     2  14    5.68   480.4    5.8      42.178
2014   10       14     2  20    5.69   480.5    5.8      42.195
2014   10       14     2  26    5.69   480.5    5.8      42.212
2014   10       14     2  31    5.69   480.5    5.8      42.229
2014   10       14     2  37    5.69   480.6    5.8      42.247
2014   10       14     2  42    5.69   480.6    5.8      42.264
2014   10       14     2  48    5.69   480.6    5.8      42.281
2014   10       14     2  54    5.69   480.7    5.8      42.298
2014   10       14     2  59    5.70   480.7    5.8      42.315
2014   10       14     3   5    5.70   480.8    5.8      42.332
2014   10       14     3  11    5.70   480.8    5.8      42.350
2014   10       14     3  16    5.70   480.8    5.8      42.367
2014   10       14     3  22    5.70   480.9    5.8      42.385
2014   10       14     3  27    5.71   480.9    5.8      42.402
2014   10       14     3  33    5.71   481.0    5.8      42.420
2014   10       14     3  39    5.71   481.0    5.8      42.438
2014   10       14     3  44    5.71   481.1    5.8      42.456
2014   10       14     3  50    5.71   481.1    5.8      42.475
2014   10       14     3  56    5.72   481.2    5.8      42.493
2014   10       14     4   1    5.72   481.2    5.8      42.512
2014   10       14     4   7    5.72   481.3    5.8      42.531
2014   10       14     4  12    5.72   481.3    5.8      42.550
2014   10       14     4  18    5.73   481.4    5.8      42.570
2014   10       14     4  24    5.73   481.4    5.8      42.590
2014   10       14     4  29    5.73   481.5    5.8      42.609
2014   10       14     4  35    5.73   481.5    5.8      42.630
2014   10       14     4  40    5.74   481.6    5.8      42.650
2014   10       14     4  46    5.74   481.6    5.8      42.670
2014   10       14     4  52    5.74   481.7    5.8      42.691
2014   10       14     4  57    5.74   481.8    5.8      42.712
2014   10       14     5   3    5.74   481.8    5.8      42.733
2014   10       14     5   9    5.75   481.9    5.8      42.755
2014   10       14     5  14    5.75   482.0    5.9      42.776
2014   10       14     5  20    5.75   482.0    5.9      42.798
2014   10       14     5  25    5.75   482.1    5.9      42.820
2014   10       14     5  31    5.76   482.2    5.9      42.843
2014   10       14     5  37    5.76   482.2    5.9      42.866
2014   10       14     5  42    5.76   482.3    5.9      42.890
2014   10       14     5  48    5.76   482.4    5.9      42.915
2014   10       14     5  54    5.76   482.4    5.9      42.941
2014   10       14     5  59    5.77   482.5    5.9      42.967
2014   10       14     6   5    5.77   482.6    5.9      42.995
2014   10       14     6  10    5.77   482.7    5.9      43.022
2014   10       14     6  16    5.77   482.7    5.9      43.051
2014   10       14     6  22    5.77   482.8    5.9      43.079
2014   10       14     6  27    5.77   482.9    5.9      43.108
2014   10       14     6  33    5.78   482.9    5.9      43.138
2014   10       14     6  38    5.78   483.0    5.9      43.168
2014   10       14     6  44    5.78   483.1    5.9      43.199
2014   10       14     6  50    5.78   483.1    5.9      43.229
2014   10       14     6  55    5.78   483.2    5.9      43.260
2014   10       14     7   1    5.79   483.3    5.9      43.291
2014   10       14     7   7    5.79   483.4    5.9      43.322
2014   10       14     7  12    5.79   483.4    5.9      43.353
2014   10       14     7  18    5.79   483.5    5.9      43.385
2014   10       14     7  23    5.79   483.6    5.9      43.417
2014   10       14     7  29    5.80   483.6    5.9      43.450
2014   10       14     7  35    5.80   483.7    5.9      43.483
2014   10       14     7  40    5.80   483.8    5.9      43.516
2014   10       14     7  46    5.80   483.9    5.9      43.549
2014   10       14     7  51    5.80   483.9    5.9      43.582
2014   10       14     7  57    5.80   484.0    5.9      43.616
2014   10       14     8   3    5.81   484.1    5.9      43.649
2014   10       14     8   8    5.81   484.2    5.9      43.682
2014   10       14     8  14    5.81   484.2    5.9      43.715
2014   10       14     8  19    5.81   484.3    5.9      43.748
2014   10       14     8  25    5.81   484.4    5.9      43.781
2014   10       14     8  31    5.81   484.5    5.9      43.813
2014   10       14     8  36    5.82   484.5    5.9      43.845
2014   10       14     8  42    5.82   484.6    5.9      43.877
2014   10       14     8  47    5.82   484.7    5.9      43.908
2014   10       14     8  53    5.82   484.8    5.9      43.938
2014   10       14     8  59    5.82   484.8    5.9      43.968
2014   10       14     9   4    5.83   484.9    5.9      43.998
2014   10       14     9  10    5.83   485.0    5.9      44.028
2014   10       14     9  16    5.83   485.1    5.9      44.056
2014   10       14     9  21    5.83   485.2    5.9      44.085
2014   10       14     9  27    5.83   485.2    5.9      44.113
2014   10       14     9  32    5.83   485.3    5.9      44.141
2014   10       14     9  38    5.84   485.4    5.9      44.168
2014   10       14     9  44    5.84   485.5    5.9      44.196
2014   10       14     9  49    5.84   485.5    5.9      44.222
2014   10       14     9  55    5.84   485.6    5.9      44.249
2014   10       14    10   0    5.84   485.7    5.9      44.276
2014   10       14    10   6    5.85   485.8    5.9      44.302
2014   10       14    10  12    5.85   485.9    5.9      44.328
2014   10       14    10  17    5.85   485.9    5.9      44.354
2014   10       14    10  23    5.85   486.0    5.9      44.380
2014   10       14    10  29    5.85   486.1    5.9      44.406
2014   10       14    10  34    5.86   486.2    5.9      44.432
2014   10       14    10  40    5.86   486.3    5.9      44.458
2014   10       14    10  45    5.86   486.4    5.9      44.484
2014   10       14    10  51    5.86   486.5    5.9      44.510
2014   10       14    10  57    5.87   486.5    5.9      44.537
2014   10       14    11   2    5.87   486.6    5.9      44.563
2014   10       14    11   8    5.87   486.7    5.9      44.590
2014   10       14    11  13    5.87   486.8    5.9      44.617
2014   10       14    11  19    5.87   486.9    5.9      44.644
2014   10       14    11  25    5.88   487.0    5.9      44.672
2014   10       14    11  30    5.88   487.1    5.9      44.700
2014   10       14    11  36    5.88   487.2    5.9      44.728
2014   10       14    11  42    5.88   487.3    5.9      44.757
2014   10       14    11  47    5.89   487.4    5.9      44.786
2014   10       14    11  53    5.89   487.5    5.9      44.816
2014   10       14    11  58    5.89   487.6    5.9      44.846
2014   10       14    12   4    5.89   487.6    5.9      44.876
2014   10       14    12  10    5.89   487.8    5.9      44.907
2014   10       14    12  15    5.90   487.9    5.9      44.939
2014   10       14    12  21    5.90   488.0    6.0      44.972
2014   10       14    12  27    5.90   488.1    6.0      45.007
2014   10       14    12  32    5.90   488.2    6.0      45.042
2014   10       14    12  38    5.91   488.3    6.0      45.079
2014   10       14    12  43    5.91   488.4    6.0      45.117
2014   10       14    12  49    5.91   488.5    6.0      45.156
2014   10       14    12  55    5.91   488.6    6.0      45.198
2014   10       14    13   0    5.91   488.7    6.0      45.242
2014   10       14    13   6    5.92   488.9    6.0      45.289
2014   10       14    13  12    5.92   489.0    6.0      45.338
2014   10       14    13  17    5.92   489.1    6.0      45.389
2014   10       14    13  23    5.92   489.2    6.0      45.442
2014   10       14    13  28    5.92   489.4    6.0      45.494
2014   10       14    13  34    5.92   489.5    6.0      45.545
2014   10       14    13  40    5.93   489.6    6.0      45.596
2014   10       14    13  45    5.93   489.8    6.0      45.647
2014   10       14    13  51    5.93   489.9    6.0      45.696
2014   10       14    13  56    5.93   490.0    6.0      45.745
2014   10       14    14   2    5.93   490.1    6.0      45.793
2014   10       14    14   8    5.93   490.3    6.0      45.840
2014   10       14    14  13    5.93   490.4    6.0      45.886
2014   10       14    14  19    5.93   490.5    6.0      45.931
2014   10       14    14  25    5.94   490.6    6.0      45.975
2014   10       14    14  30    5.94   490.8    6.0      46.019
2014   10       14    14  36    5.94   490.9    6.0      46.061
2014   10       14    14  41    5.94   491.0    6.0      46.102
2014   10       14    14  47    5.94   491.1    6.0      46.143
2014   10       14    14  53    5.94   491.2    6.0      46.183
2014   10       14    14  58    5.94   491.4    6.0      46.222
2014   10       14    15   4    5.94   491.5    6.0      46.260
2014   10       14    15   9    5.94   491.6    6.0      46.297
2014   10       14    15  15    5.95   491.7    6.0      46.333
2014   10       14    15  21    5.95   491.9    6.0      46.369
2014   10       14    15  26    5.95   492.0    6.0      46.404
2014   10       14    15  32    5.95   492.1    6.0      46.438
2014   10       14    15  37    5.95   492.2    6.0      46.472
2014   10       14    15  43    5.95   492.4    6.0      46.504
2014   10       14    15  49    5.95   492.5    6.0      46.537
2014   10       14    15  54    5.95   492.6    6.0      46.568
2014   10       14    16   0    5.95   492.7    6.0      46.599
2014   10       14    16   5    5.95   492.8    6.0      46.629
2014   10       14    16  11    5.96   493.0    6.0      46.659
2014   10       14    16  17    5.96   493.1    6.0      46.688
2014   10       14    16  22    5.96   493.2    6.0      46.717
2014   10       14    16  28    5.96   493.3    6.0      46.745
2014   10       14    16  34    5.96   493.5    6.0      46.773
2014   10       14    16  39    5.96   493.6    6.0      46.800
2014   10       14    16  45    5.96   493.7    6.0      46.827
2014   10       14    16  50    5.96   493.8    6.0      46.853
2014   10       14    16  56    5.96   493.9    6.0      46.879
2014   10       14    17   2    5.96   494.1    6.0      46.905
2014   10       14    17   7    5.96   494.2    6.0      46.930
2014   10       14    17  13    5.96   494.3    6.0      46.955
2014   10       14    17  18    5.97   494.4    6.0      46.980
2014   10       14    17  24    5.97   494.5    6.0      47.004
2014   10       14    17  30    5.97   494.7    6.0      47.027
2014   10       14    17  35    5.97   494.8    6.0      47.051
2014   10       14    17  41    5.97   494.9    5.9      47.074
2014   10       14    17  47    5.97   495.0    5.9      47.097
2014   10       14    17  52    5.97   495.1    5.9      47.120
2014   10       14    17  58    5.97   495.3    5.9      47.142
2014   10       14    18   3    5.97   495.4    5.9      47.165
2014   10       14    18   9    5.97   495.5    5.9      47.187
2014   10       14    18  15    5.97   495.6    5.9      47.210
2014   10       14    18  20    5.97   495.7    5.9      47.232
2014   10       14    18  26    5.98   495.9    5.9      47.255
2014   10       14    18  31    5.98   496.0    5.9      47.277
2014   10       14    18  37    5.98   496.1    5.9      47.300
2014   10       14    18  43    5.98   496.2    5.9      47.324
2014   10       14    18  48    5.98   496.4    5.9      47.347
2014   10       14    18  54    5.98   496.5    5.9      47.371
2014   10       14    19   0    5.98   496.6    5.9      47.396
2014   10       14    19   5    5.98   496.7    5.9      47.421
2014   10       14    19  11    5.98   496.8    5.9      47.447
2014   10       14    19  16    5.98   497.0    5.9      47.474
2014   10       14    19  22    5.99   497.1    5.9      47.503
2014   10       14    19  28    5.99   497.2    5.9      47.533
2014   10       14    19  33    5.99   497.3    5.9      47.564
2014   10       14    19  39    5.99   497.5    5.9      47.597
2014   10       14    19  45    5.99   497.6    5.9      47.633
2014   10       14    19  50    5.99   497.7    5.9      47.670
2014   10       14    19  56    5.99   497.9    5.9      47.709
2014   10       14    20   1    5.99   498.0    5.9      47.750
2014   10       14    20   7    5.99   498.2    6.0      47.794
2014   10       14    20  13    5.99   498.4    6.0      47.841
2014   10       14    20  18    6.00   498.5    6.0      47.890
2014   10       14    20  24    6.00   498.7    6.0      47.939
2014   10       14    20  30    6.00   498.9    6.0      47.989
2014   10       14    20  35    6.00   499.0    6.0      48.040
2014   10       14    20  41    6.00   499.2    6.0      48.089
2014   10       14    20  46    6.00   499.4    6.0      48.136
2014   10       14    20  52    6.00   499.5    6.0      48.182
2014   10       14    20  58    6.00   499.7    6.0      48.226
2014   10       14    21   3    6.00   499.9    6.0      48.268
2014   10       14    21   9    6.00   500.0    6.0      48.309
2014   10       14    21  14    6.00   500.2    6.0      48.349
2014   10       14    21  20    6.00   500.4    6.0      48.387
2014   10       14    21  26    6.00   500.6    6.0      48.423
2014   10       14    21  31    6.00   500.7    5.9      48.459
2014   10       14    21  37    6.00   500.9    5.9      48.493
2014   10       14    21  42    6.00   501.1    5.9      48.526
2014   10       14    21  48    6.00   501.2    5.9      48.558
2014   10       14    21  54    6.00   501.4    5.9      48.589
2014   10       14    21  59    6.00   501.6    5.9      48.618
2014   10       14    22   5    6.00   501.7    5.9      48.647
2014   10       14    22  11    6.00   501.9    5.9      48.675
2014   10       14    22  16    6.00   502.1    5.9      48.702
2014   10       14    22  22    6.00   502.2    5.9      48.728
2014   10       14    22  27    6.00   502.4    5.9      48.753
2014   10       14    22  33    5.99   502.6    5.9      48.777
2014   10       14    22  39    5.99   502.8    5.9      48.801
2014   10       14    22  44    5.99   502.9    5.9      48.824
2014   10       14    22  50    5.99   503.1    5.9      48.846
2014   10       14    22  55    5.99   503.3    5.9      48.868
2014   10       14    23   1    5.99   503.4    5.9      48.889
2014   10       14    23   7    5.99   503.6    5.9      48.909
2014   10       14    23  12    5.99   503.8    5.9      48.929
2014   10       14    23  18    5.99   503.9    5.9      48.949
2014   10       14    23  23    5.99   504.1    5.9      48.967
2014   10       14    23  29    5.99   504.2    5.9      48.986
2014   10       14    23  35    5.99   504.4    5.9      49.004
2014   10       14    23  40    5.99   504.6    5.8      49.021
2014   10       14    23  46    5.98   504.7    5.8      49.038
2014   10       14    23  51    5.98   504.9    5.8      49.055
2014   10       14    23  57    5.98   505.1    5.8      49.071
2014   10       15     0   3    5.98   505.2    5.8      49.087
2014   10       15     0   8    5.98   505.4    5.8      49.102
2014   10       15     0  14    5.98   505.6    5.8      49.117
2014   10       15     0  20    5.98   505.7    5.8      49.132
2014   10       15     0  25    5.98   505.9    5.8      49.146
2014   10       15     0  31    5.98   506.0    5.8      49.160
2014   10       15     0  36    5.97   506.2    5.8      49.174
2014   10       15     0  42    5.97   506.4    5.8      49.187
2014   10       15     0  48    5.97   506.5    5.8      49.200
2014   10       15     0  53    5.97   506.7    5.8      49.213
2014   10       15     0  59    5.97   506.8    5.8      49.225
2014   10       15     1   4    5.97   507.0    5.8      49.237
2014   10       15     1  10    5.97   507.1    5.8      49.249
2014   10       15     1  16    5.96   507.3    5.8      49.260
2014   10       15     1  21    5.96   507.5    5.8      49.271
2014   10       15     1  27    5.96   507.6    5.7      49.282
2014   10       15     1  33    5.96   507.8    5.7      49.292
2014   10       15     1  38    5.96   507.9    5.7      49.303
2014   10       15     1  44    5.96   508.1    5.7      49.313
2014   10       15     1  49    5.95   508.2    5.7      49.324
2014   10       15     1  55    5.95   508.4    5.7      49.334
2014   10       15     2   1    5.95   508.6    5.7      49.344
2014   10       15     2   6    5.95   508.7    5.7      49.355
2014   10       15     2  12    5.95   508.9    5.7      49.365
2014   10       15     2  18    5.95   509.0    5.7      49.376
2014   10       15     2  23    5.94   509.2    5.7      49.387
2014   10       15     2  29    5.94   509.3    5.7      49.399
2014   10       15     2  34    5.94   509.5    5.7      49.411
2014   10       15     2  40    5.94   509.6    5.7      49.425
2014   10       15     2  46    5.94   509.8    5.7      49.438
2014   10       15     2  51    5.94   509.9    5.7      49.452
2014   10       15     2  57    5.93   510.1    5.7      49.467
2014   10       15     3   3    5.93   510.2    5.7      49.484
2014   10       15     3   8    5.93   510.4    5.7      49.502
2014   10       15     3  14    5.93   510.6    5.7      49.520
2014   10       15     3  19    5.93   510.7    5.7      49.540
2014   10       15     3  25    5.92   510.9    5.7      49.561
2014   10       15     3  31    5.92   511.1    5.7      49.581
2014   10       15     3  36    5.92   511.2    5.6      49.601
2014   10       15     3  42    5.92   511.4    5.6      49.620
2014   10       15     3  47    5.91   511.6    5.6      49.638
2014   10       15     3  53    5.91   511.7    5.6      49.655
2014   10       15     3  59    5.91   511.9    5.6      49.671
2014   10       15     4   4    5.91   512.1    5.6      49.686
2014   10       15     4  10    5.90   512.2    5.6      49.701
2014   10       15     4  16    5.90   512.4    5.6      49.714
2014   10       15     4  21    5.90   512.5    5.6      49.727
2014   10       15     4  27    5.90   512.7    5.6      49.739
2014   10       15     4  32    5.89   512.9    5.6      49.751
2014   10       15     4  38    5.89   513.0    5.6      49.761
2014   10       15     4  44    5.89   513.2    5.6      49.772
2014   10       15     4  49    5.88   513.4    5.6      49.781
2014   10       15     4  55    5.88   513.5    5.6      49.790
2014   10       15     5   0    5.88   513.7    5.6      49.798
2014   10       15     5   6    5.87   513.8    5.6      49.805
2014   10       15     5  12    5.87   514.0    5.5      49.812
2014   10       15     5  17    5.87   514.1    5.5      49.819
2014   10       15     5  23    5.87   514.3    5.5      49.825
2014   10       15     5  29    5.86   514.4    5.5      49.830
2014   10       15     5  34    5.86   514.6    5.5      49.834
2014   10       15     5  40    5.86   514.7    5.5      49.839
2014   10       15     5  45    5.85   514.9    5.5      49.843
2014   10       15     5  51    5.85   515.0    5.5      49.846
2014   10       15     5  57    5.85   515.2    5.5      49.849
2014   10       15     6   2    5.84   515.3    5.5      49.852
2014   10       15     6   8    5.84   515.5    5.5      49.854
2014   10       15     6  13    5.84   515.6    5.5      49.856
2014   10       15     6  19    5.83   515.8    5.5      49.857
2014   10       15     6  25    5.83   515.9    5.5      49.858
2014   10       15     6  30    5.82   516.1    5.5      49.858
2014   10       15     6  36    5.82   516.2    5.4      49.859
2014   10       15     6  41    5.82   516.3    5.4      49.858
2014   10       15     6  47    5.81   516.5    5.4      49.858
2014   10       15     6  53    5.81   516.6    5.4      49.857
2014   10       15     6  58    5.81   516.7    5.4      49.855
2014   10       15     7   4    5.80   516.9    5.4      49.853
2014   10       15     7   9    5.80   517.0    5.4      49.851
2014   10       15     7  15    5.79   517.2    5.4      49.849
2014   10       15     7  21    5.79   517.3    5.4      49.846
2014   10       15     7  26    5.79   517.4    5.4      49.842
2014   10       15     7  32    5.78   517.6    5.4      49.839
2014   10       15     7  38    5.78   517.7    5.4      49.834
2014   10       15     7  43    5.77   517.8    5.4      49.830
2014   10       15     7  49    5.77   518.0    5.4      49.825
2014   10       15     7  54    5.77   518.1    5.4      49.820
2014   10       15     8   0    5.76   518.2    5.4      49.814
2014   10       15     8   6    5.76   518.3    5.3      49.808
2014   10       15     8  11    5.75   518.5    5.3      49.802
2014   10       15     8  17    5.75   518.6    5.3      49.795
2014   10       15     8  22    5.74   518.7    5.3      49.789
2014   10       15     8  28    5.74   518.8    5.3      49.782
2014   10       15     8  34    5.74   519.0    5.3      49.774
2014   10       15     8  39    5.73   519.1    5.3      49.767
2014   10       15     8  45    5.73   519.2    5.3      49.759
2014   10       15     8  51    5.72   519.3    5.3      49.751
2014   10       15     8  56    5.72   519.4    5.3      49.743
2014   10       15     9   2    5.71   519.5    5.3      49.734
2014   10       15     9   7    5.71   519.7    5.3      49.725
2014   10       15     9  13    5.70   519.8    5.3      49.716
2014   10       15     9  19    5.70   519.9    5.3      49.707
2014   10       15     9  24    5.69   520.0    5.2      49.697
2014   10       15     9  30    5.69   520.1    5.2      49.687
2014   10       15     9  36    5.68   520.2    5.2      49.677
2014   10       15     9  41    5.68   520.3    5.2      49.666
2014   10       15     9  47    5.67   520.4    5.2      49.655
2014   10       15     9  52    5.67   520.5    5.2      49.644
2014   10       15     9  58    5.67   520.6    5.2      49.632
2014   10       15    10   4    5.66   520.7    5.2      49.620
2014   10       15    10   9    5.66   520.8    5.2      49.607
2014   10       15    10  15    5.65   520.9    5.2      49.594
2014   10       15    10  20    5.65   521.0    5.2      49.581
2014   10       15    10  26    5.64   521.1    5.2      49.568
2014   10       15    10  32    5.64   521.2    5.2      49.554
2014   10       15    10  37    5.63   521.3    5.2      49.540
2014   10       15    10  43    5.63   521.4    5.1      49.525
2014   10       15    10  49    5.62   521.5    5.1      49.511
2014   10       15    10  54    5.62   521.5    5.1      49.496
2014   10       15    11   0    5.61   521.6    5.1      49.480
2014   10       15    11   5    5.61   521.7    5.1      49.464
2014   10       15    11  11    5.60   521.8    5.1      49.448
2014   10       15    11  17    5.60   521.9    5.1      49.432
2014   10       15    11  22    5.59   521.9    5.1      49.415
2014   10       15    11  28    5.59   522.0    5.1      49.398
2014   10       15    11  34    5.58   522.1    5.1      49.380
2014   10       15    11  39    5.58   522.2    5.1      49.362
2014   10       15    11  45    5.57   522.2    5.1      49.344
2014   10       15    11  50    5.57   522.3    5.1      49.325
2014   10       15    11  56    5.56   522.4    5.1      49.306
2014   10       15    12   2    5.56   522.4    5.0      49.287
2014   10       15    12   7    5.55   522.5    5.0      49.268
2014   10       15    12  13    5.55   522.5    5.0      49.248
2014   10       15    12  18    5.54   522.6    5.0      49.228
2014   10       15    12  24    5.54   522.6    5.0      49.208
2014   10       15    12  30    5.53   522.7    5.0      49.187
2014   10       15    12  35    5.53   522.8    5.0      49.166
2014   10       15    12  41    5.52   522.8    5.0      49.146
2014   10       15    12  46    5.52   522.9    5.0      49.124
2014   10       15    12  52    5.51   522.9    5.0      49.103
2014   10       15    12  58    5.51   522.9    5.0      49.082
2014   10       15    13   3    5.50   523.0    5.0      49.060
2014   10       15    13   9    5.50   523.0    5.0      49.039
2014   10       15    13  14    5.49   523.1    5.0      49.017
2014   10       15    13  20    5.49   523.1    5.0      48.996
2014   10       15    13  26    5.48   523.2    4.9      48.974
2014   10       15    13  31    5.47   523.2    4.9      48.953
2014   10       15    13  37    5.47   523.2    4.9      48.931
2014   10       15    13  43    5.46   523.3    4.9      48.910
2014   10       15    13  48    5.46   523.3    4.9      48.888
2014   10       15    13  54    5.45   523.3    4.9      48.866
2014   10       15    13  59    5.45   523.4    4.9      48.844
2014   10       15    14   5    5.44   523.4    4.9      48.822
2014   10       15    14  11    5.44   523.4    4.9      48.800
2014   10       15    14  16    5.43   523.5    4.9      48.777
2014   10       15    14  22    5.43   523.5    4.9      48.755
2014   10       15    14  27    5.42   523.5    4.9      48.732
2014   10       15    14  33    5.42   523.6    4.9      48.709
2014   10       15    14  39    5.41   523.6    4.9      48.686
2014   10       15    14  44    5.41   523.6    4.9      48.663
2014   10       15    14  50    5.40   523.6    4.9      48.639
2014   10       15    14  55    5.40   523.7    4.9      48.616
2014   10       15    15   1    5.39   523.7    4.9      48.592
2014   10       15    15   7    5.39   523.7    4.8      48.568
2014   10       15    15  12    5.38   523.7    4.8      48.544
2014   10       15    15  18    5.38   523.7    4.8      48.519
2014   10       15    15  24    5.37   523.8    4.8      48.495
2014   10       15    15  29    5.37   523.8    4.8      48.470
2014   10       15    15  35    5.36   523.8    4.8      48.445
2014   10       15    15  40    5.35   523.8    4.8      48.420
2014   10       15    15  46    5.35   523.8    4.8      48.395
2014   10       15    15  52    5.34   523.8    4.8      48.370
2014   10       15    15  57    5.34   523.8    4.8      48.344
2014   10       15    16   3    5.33   523.8    4.8      48.319
2014   10       15    16   9    5.33   523.8    4.8      48.293
2014   10       15    16  14    5.32   523.8    4.8      48.267
2014   10       15    16  20    5.32   523.9    4.8      48.241
2014   10       15    16  25    5.31   523.9    4.8      48.215
2014   10       15    16  31    5.31   523.9    4.8      48.189
2014   10       15    16  37    5.30   523.9    4.8      48.162
2014   10       15    16  42    5.30   523.9    4.8      48.135
2014   10       15    16  48    5.29   523.9    4.8      48.108
2014   10       15    16  53    5.29   523.9    4.7      48.080
2014   10       15    16  59    5.28   523.8    4.7      48.052
2014   10       15    17   5    5.28   523.8    4.7      48.024
2014   10       15    17  10    5.27   523.8    4.7      47.995
2014   10       15    17  16    5.27   523.8    4.7      47.965
2014   10       15    17  22    5.26   523.8    4.7      47.936
2014   10       15    17  27    5.26   523.8    4.7      47.906
2014   10       15    17  33    5.25   523.8    4.7      47.875
2014   10       15    17  38    5.25   523.8    4.7      47.844
2014   10       15    17  44    5.24   523.8    4.7      47.813
2014   10       15    17  50    5.24   523.7    4.7      47.781
2014   10       15    17  55    5.23   523.7    4.7      47.748
2014   10       15    18   1    5.23   523.7    4.7      47.716
2014   10       15    18   7    5.22   523.7    4.7      47.682
2014   10       15    18  12    5.22   523.7    4.7      47.649
2014   10       15    18  18    5.21   523.6    4.7      47.614
2014   10       15    18  23    5.21   523.6    4.7      47.580
2014   10       15    18  29    5.20   523.6    4.6      47.545
2014   10       15    18  35    5.20   523.5    4.6      47.509
2014   10       15    18  40    5.19   523.5    4.6      47.474
2014   10       15    18  46    5.19   523.5    4.6      47.437
2014   10       15    18  51    5.18   523.4    4.6      47.401
2014   10       15    18  57    5.18   523.4    4.6      47.364
2014   10       15    19   3    5.17   523.4    4.6      47.327
2014   10       15    19   8    5.17   523.3    4.6      47.290
2014   10       15    19  14    5.16   523.3    4.6      47.253
2014   10       15    19  20    5.16   523.2    4.6      47.215
2014   10       15    19  25    5.15   523.2    4.6      47.177
2014   10       15    19  31    5.15   523.1    4.6      47.140
2014   10       15    19  36    5.14   523.1    4.6      47.102
2014   10       15    19  42    5.14   523.0    4.6      47.064
2014   10       15    19  48    5.13   523.0    4.6      47.026
2014   10       15    19  53    5.13   522.9    4.6      46.988
2014   10       15    19  59    5.12   522.9    4.6      46.950
2014   10       15    20   4    5.12   522.8    4.6      46.912
2014   10       15    20  10    5.11   522.8    4.6      46.874
2014   10       15    20  16    5.11   522.7    4.6      46.836
2014   10       15    20  21    5.10   522.6    4.5      46.799
2014   10       15    20  27    5.10   522.6    4.5      46.761
2014   10       15    20  32    5.09   522.5    4.5      46.724
2014   10       15    20  38    5.09   522.5    4.5      46.687
2014   10       15    20  44    5.08   522.4    4.5      46.650
2014   10       15    20  49    5.08   522.4    4.5      46.613
2014   10       15    20  55    5.08   522.3    4.5      46.576
2014   10       15    21   0    5.07   522.2    4.5      46.540
2014   10       15    21   6    5.07   522.2    4.5      46.503
2014   10       15    21  12    5.06   522.1    4.5      46.467
2014   10       15    21  17    5.06   522.0    4.5      46.430
2014   10       15    21  23    5.05   522.0    4.5      46.394
2014   10       15    21  29    5.05   521.9    4.5      46.358
2014   10       15    21  34    5.04   521.8    4.5      46.321
2014   10       15    21  40    5.04   521.8    4.5      46.285
2014   10       15    21  45    5.03   521.7    4.5      46.249
2014   10       15    21  51    5.03   521.6    4.5      46.213
2014   10       15    21  57    5.02   521.6    4.5      46.177
2014   10       15    22   2    5.02   521.5    4.5      46.140
2014   10       15    22   8    5.01   521.4    4.5      46.104
2014   10       15    22  13    5.01   521.3    4.5      46.068
2014   10       15    22  19    5.01   521.3    4.5      46.032
2014   10       15    22  25    5.00   521.2    4.5      45.995
2014   10       15    22  30    5.00   521.1    4.5      45.959
2014   10       15    22  36    4.99   521.0    4.5      45.923
2014   10       15    22  41    4.99   520.9    4.4      45.887
2014   10       15    22  47    4.98   520.9    4.4      45.850
2014   10       15    22  53    4.98   520.8    4.4      45.814
2014   10       15    22  58    4.97   520.7    4.4      45.778
2014   10       15    23   4    4.97   520.6    4.4      45.742
2014   10       15    23  10    4.97   520.5    4.4      45.705
2014   10       15    23  15    4.96   520.4    4.4      45.669
2014   10       15    23  21    4.96   520.4    4.4      45.633
2014   10       15    23  26    4.95   520.3    4.4      45.597
2014   10       15    23  32    4.95   520.2    4.4      45.560
2014   10       15    23  38    4.95   520.1    4.4      45.524
2014   10       15    23  43    4.94   520.0    4.4      45.488
2014   10       15    23  49    4.94   519.9    4.4      45.451
2014   10       15    23  55    4.93   519.8    4.4      45.415
2014   10       16     0   0    4.93   519.8    4.4      45.379
2014   10       16     0   6    4.92   519.7    4.4      45.342
2014   10       16     0  11    4.92   519.6    4.4      45.306
2014   10       16     0  17    4.92   519.5    4.4      45.269
2014   10       16     0  23    4.91   519.4    4.4      45.232
2014   10       16     0  28    4.91   519.3    4.4      45.195
2014   10       16     0  34    4.90   519.2    4.4      45.158
2014   10       16     0  40    4.90   519.1    4.4      45.121
2014   10       16     0  45    4.90   519.0    4.4      45.084
2014   10       16     0  51    4.89   518.9    4.4      45.047
2014   10       16     0  56    4.89   518.8    4.4      45.009
2014   10       16     1   2    4.88   518.7    4.4      44.971
2014   10       16     1   8    4.88   518.6    4.4      44.933
2014   10       16     1  13    4.88   518.5    4.4      44.895
2014   10       16     1  19    4.87   518.4    4.3      44.857
2014   10       16     1  24    4.87   518.3    4.3      44.818
2014   10       16     1  30    4.86   518.2    4.3      44.779
2014   10       16     1  36    4.86   518.1    4.3      44.740
2014   10       16     1  41    4.85   518.0    4.3      44.701
2014   10       16     1  47    4.85   517.9    4.3      44.662
2014   10       16     1  53    4.85   517.8    4.3      44.622
2014   10       16     1  58    4.84   517.7    4.3      44.582
2014   10       16     2   4    4.84   517.6    4.3      44.542
2014   10       16     2   9    4.83   517.5    4.3      44.502
2014   10       16     2  15    4.83   517.4    4.3      44.461
2014   10       16     2  21    4.83   517.3    4.3      44.421
2014   10       16     2  26    4.82   517.2    4.3      44.380
2014   10       16     2  32    4.82   517.0    4.3      44.339
2014   10       16     2  37    4.81   516.9    4.3      44.298
2014   10       16     2  43    4.81   516.8    4.3      44.257
2014   10       16     2  49    4.80   516.7    4.3      44.215
2014   10       16     2  54    4.80   516.6    4.3      44.174
2014   10       16     3   0    4.80   516.5    4.3      44.133
2014   10       16     3   6    4.79   516.3    4.3      44.091
2014   10       16     3  11    4.79   516.2    4.3      44.050
2014   10       16     3  17    4.78   516.1    4.3      44.008
2014   10       16     3  22    4.78   516.0    4.3      43.967
2014   10       16     3  28    4.78   515.9    4.3      43.925
2014   10       16     3  34    4.77   515.7    4.3      43.884
2014   10       16     3  39    4.77   515.6    4.3      43.842
2014   10       16     3  45    4.76   515.5    4.3      43.800
2014   10       16     3  50    4.76   515.3    4.3      43.758
2014   10       16     3  56    4.76   515.2    4.3      43.716
2014   10       16     4   2    4.75   515.1    4.3      43.675
2014   10       16     4   7    4.75   515.0    4.3      43.632
2014   10       16     4  13    4.74   514.8    4.3      43.590
2014   10       16     4  18    4.74   514.7    4.3      43.548
2014   10       16     4  24    4.74   514.6    4.2      43.506
2014   10       16     4  30    4.73   514.4    4.2      43.463
2014   10       16     4  35    4.73   514.3    4.2      43.421
2014   10       16     4  41    4.73   514.2    4.2      43.378
2014   10       16     4  46    4.72   514.0    4.2      43.336
2014   10       16     4  52    4.72   513.9    4.2      43.293
2014   10       16     4  58    4.71   513.7    4.2      43.250
2014   10       16     5   3    4.71   513.6    4.2      43.208
2014   10       16     5   9    4.71   513.5    4.2      43.165
2014   10       16     5  15    4.70   513.3    4.2      43.122
2014   10       16     5  20    4.70   513.2    4.2      43.079
2014   10       16     5  26    4.70   513.0    4.2      43.036
2014   10       16     5  31    4.69   512.9    4.2      42.993
2014   10       16     5  37    4.69   512.8    4.2      42.950
2014   10       16     5  43    4.69   512.6    4.2      42.907
2014   10       16     5  48    4.68   512.5    4.2      42.864
2014   10       16     5  54    4.68   512.3    4.2      42.822
2014   10       16     5  59    4.68   512.2    4.2      42.779
2014   10       16     6   5    4.67   512.0    4.2      42.736
2014   10       16     6  11    4.67   511.9    4.2      42.694
2014   10       16     6  16    4.67   511.7    4.2      42.652
2014   10       16     6  22    4.66   511.6    4.2      42.610
2014   10       16     6  28    4.66   511.4    4.2      42.569
2014   10       16     6  33    4.66   511.3    4.2      42.528
2014   10       16     6  39    4.65   511.1    4.2      42.487
2014   10       16     6  44    4.65   511.0    4.2      42.446
2014   10       16     6  50    4.65   510.9    4.2      42.406
2014   10       16     6  56    4.64   510.7    4.2      42.366
2014   10       16     7   1    4.64   510.6    4.2      42.326
2014   10       16     7   7    4.64   510.4    4.2      42.287
2014   10       16     7  12    4.63   510.3    4.2      42.248
2014   10       16     7  18    4.63   510.1    4.2      42.210
2014   10       16     7  24    4.63   510.0    4.2      42.172
2014   10       16     7  29    4.63   509.8    4.2      42.134
2014   10       16     7  35    4.62   509.7    4.2      42.097
2014   10       16     7  41    4.62   509.5    4.2      42.060
2014   10       16     7  46    4.62   509.4    4.2      42.024
2014   10       16     7  52    4.61   509.3    4.2      41.987
2014   10       16     7  57    4.61   509.1    4.2      41.952
2014   10       16     8   3    4.61   509.0    4.2      41.916
2014   10       16     8   9    4.60   508.8    4.2      41.880
2014   10       16     8  14    4.60   508.7    4.2      41.845
2014   10       16     8  20    4.60   508.5    4.2      41.810
2014   10       16     8  26    4.59   508.4    4.2      41.775
2014   10       16     8  31    4.59   508.3    4.2      41.740
2014   10       16     8  37    4.59   508.1    4.2      41.705
2014   10       16     8  42    4.58   508.0    4.2      41.670
2014   10       16     8  48    4.58   507.8    4.1      41.635
2014   10       16     8  54    4.58   507.7    4.1      41.600
2014   10       16     8  59    4.57   507.5    4.1      41.565
2014   10       16     9   5    4.57   507.3    4.1      41.529
2014   10       16     9  11    4.57   507.2    4.1      41.494
2014   10       16     9  16    4.56   507.0    4.1      41.459
2014   10       16     9  22    4.56   506.9    4.1      41.423
2014   10       16     9  27    4.56   506.7    4.1      41.388
2014   10       16     9  33    4.55   506.5    4.1      41.353
2014   10       16     9  39    4.55   506.4    4.1      41.318
2014   10       16     9  44    4.55   506.2    4.1      41.282
2014   10       16     9  50    4.54   506.1    4.1      41.247
2014   10       16     9  55    4.54   505.9    4.1      41.212
2014   10       16    10   1    4.54   505.7    4.1      41.178
2014   10       16    10   7    4.54   505.6    4.1      41.143
2014   10       16    10  12    4.53   505.4    4.1      41.108
2014   10       16    10  18    4.53   505.2    4.1      41.074
2014   10       16    10  23    4.53   505.1    4.1      41.039
2014   10       16    10  29    4.52   504.9    4.1      41.005
2014   10       16    10  35    4.52   504.7    4.1      40.971
2014   10       16    10  40    4.52   504.6    4.1      40.937
2014   10       16    10  46    4.51   504.4    4.1      40.903
2014   10       16    10  52    4.51   504.2    4.1      40.870
2014   10       16    10  57    4.51   504.1    4.1      40.837
2014   10       16    11   3    4.50   503.9    4.1      40.804
2014   10       16    11   8    4.50   503.7    4.1      40.771
2014   10       16    11  14    4.50   503.6    4.1      40.739
2014   10       16    11  20    4.50   503.4    4.1      40.707
2014   10       16    11  25    4.49   503.2    4.1      40.675
2014   10       16    11  31    4.49   503.1    4.1      40.644
2014   10       16    11  36    4.49   502.9    4.1      40.613
2014   10       16    11  42    4.49   502.7    4.1      40.582
2014   10       16    11  48    4.48   502.6    4.1      40.552
2014   10       16    11  53    4.48   502.4    4.1      40.522
2014   10       16    11  59    4.48   502.2    4.1      40.492
2014   10       16    12   4    4.48   502.1    4.1      40.462
2014   10       16    12  10    4.47   501.9    4.1      40.432
2014   10       16    12  16    4.47   501.7    4.1      40.403
2014   10       16    12  21    4.47   501.6    4.1      40.374
2014   10       16    12  27    4.46   501.4    4.1      40.344
2014   10       16    12  32    4.46   501.2    4.1      40.315
2014   10       16    12  38    4.46   501.1    4.1      40.286
2014   10       16    12  44    4.46   500.9    4.1      40.255
2014   10       16    12  49    4.45   500.7    4.1      40.225
2014   10       16    12  55    4.45   500.6    4.1      40.193
2014   10       16    13   1    4.45   500.4    4.1      40.161
2014   10       16    13   6    4.45   500.2    4.1      40.128
2014   10       16    13  12    4.44   500.1    4.1      40.095
2014   10       16    13  17    4.44   499.9    4.1      40.061
2014   10       16    13  23    4.44   499.7    4.1      40.026
2014   10       16    13  29    4.44   499.6    4.1      39.991
2014   10       16    13  34    4.43   499.4    4.1      39.955
2014   10       16    13  40    4.43   499.2    4.1      39.918
2014   10       16    13  45    4.43   499.1    4.1      39.880
2014   10       16    13  51    4.43   498.9    4.1      39.843
2014   10       16    13  57    4.42   498.7    4.1      39.804
2014   10       16    14   2    4.42   498.6    4.1      39.765
2014   10       16    14   8    4.42   498.4    4.1      39.726
2014   10       16    14  14    4.41   498.2    4.1      39.686
2014   10       16    14  19    4.41   498.1    4.1      39.646
2014   10       16    14  25    4.41   497.9    4.1      39.605
2014   10       16    14  30    4.41   497.7    4.1      39.565
2014   10       16    14  36    4.40   497.5    4.1      39.524
2014   10       16    14  42    4.40   497.4    4.1      39.482
2014   10       16    14  47    4.40   497.2    4.1      39.441
2014   10       16    14  53    4.40   497.0    4.1      39.400
2014   10       16    14  59    4.39   496.8    4.1      39.358
2014   10       16    15   4    4.39   496.7    4.1      39.316
2014   10       16    15  10    4.39   496.5    4.1      39.275
2014   10       16    15  15    4.39   496.3    4.1      39.233
2014   10       16    15  21    4.38   496.1    4.1      39.192
2014   10       16    15  27    4.38   495.9    4.1      39.150
2014   10       16    15  32    4.38   495.8    4.1      39.109
2014   10       16    15  38    4.38   495.6    4.1      39.067
2014   10       16    15  43    4.37   495.4    4.1      39.026
2014   10       16    15  49    4.37   495.2    4.1      38.984
2014   10       16    15  55    4.37   495.1    4.1      38.943
2014   10       16    16   0    4.37   494.9    4.1      38.901
2014   10       16    16   6    4.36   494.7    4.1      38.860
2014   10       16    16  12    4.36   494.5    4.1      38.818
2014   10       16    16  17    4.36   494.4    4.1      38.776
2014   10       16    16  23    4.35   494.2    4.1      38.734
2014   10       16    16  28    4.35   494.0    4.1      38.692
2014   10       16    16  34    4.35   493.8    4.1      38.650
2014   10       16    16  40    4.35   493.6    4.1      38.606
2014   10       16    16  45    4.34   493.4    4.1      38.563
2014   10       16    16  51    4.34   493.3    4.1      38.520
2014   10       16    16  56    4.34   493.1    4.1      38.476
2014   10       16    17   2    4.34   492.9    4.1      38.433
2014   10       16    17   8    4.33   492.7    4.1      38.389
2014   10       16    17  13    4.33   492.5    4.1      38.345
2014   10       16    17  19    4.33   492.3    4.1      38.301
2014   10       16    17  25    4.33   492.1    4.1      38.257
2014   10       16    17  30    4.32   492.0    4.1      38.213
2014   10       16    17  36    4.32   491.8    4.1      38.168
2014   10       16    17  41    4.32   491.6    4.1      38.124
2014   10       16    17  47    4.32   491.4    4.1      38.080
2014   10       16    17  53    4.32   491.2    4.1      38.035
2014   10       16    17  58    4.31   491.0    4.1      37.991
2014   10       16    18   4    4.31   490.8    4.1      37.946
2014   10       16    18   9    4.31   490.6    4.1      37.902
2014   10       16    18  15    4.31   490.4    4.1      37.857
2014   10       16    18  21    4.30   490.2    4.1      37.813
2014   10       16    18  26    4.30   490.0    4.1      37.768
2014   10       16    18  32    4.30   489.9    4.1      37.724
2014   10       16    18  37    4.30   489.7    4.1      37.680
2014   10       16    18  43    4.29   489.5    4.0      37.636
2014   10       16    18  49    4.29   489.3    4.0      37.592
2014   10       16    18  54    4.29   489.1    4.0      37.548
2014   10       16    19   0    4.29   488.9    4.0      37.505
2014   10       16    19   5    4.29   488.7    4.0      37.462
2014   10       16    19  11    4.28   488.5    4.0      37.420
2014   10       16    19  17    4.28   488.3    4.0      37.378
2014   10       16    19  22    4.28   488.1    4.0      37.336
2014   10       16    19  28    4.28   487.9    4.0      37.295
2014   10       16    19  34    4.28   487.7    4.0      37.255
2014   10       16    19  39    4.27   487.5    4.0      37.215
2014   10       16    19  45    4.27   487.3    4.0      37.175
2014   10       16    19  50    4.27   487.1    4.0      37.137
2014   10       16    19  56    4.27   486.9    4.0      37.099
2014   10       16    20   2    4.27   486.8    4.0      37.063
2014   10       16    20   7    4.26   486.6    4.0      37.027
2014   10       16    20  13    4.26   486.4    4.0      36.992
2014   10       16    20  18    4.26   486.2    4.0      36.958
2014   10       16    20  24    4.26   486.0    4.0      36.925
2014   10       16    20  30    4.26   485.8    4.0      36.894
2014   10       16    20  35    4.25   485.6    4.0      36.863
2014   10       16    20  41    4.25   485.4    4.0      36.833
2014   10       16    20  47    4.25   485.3    4.0      36.804
2014   10       16    20  52    4.25   485.1    4.0      36.776
2014   10       16    20  58    4.25   484.9    4.0      36.749
2014   10       16    21   3    4.24   484.7    4.1      36.722
2014   10       16    21   9    4.24   484.5    4.1      36.695
2014   10       16    21  15    4.24   484.3    4.1      36.669
2014   10       16    21  20    4.24   484.2    4.1      36.642
2014   10       16    21  26    4.24   484.0    4.1      36.615
2014   10       16    21  31    4.23   483.8    4.1      36.586
2014   10       16    21  37    4.23   483.6    4.1      36.557
2014   10       16    21  43    4.23   483.4    4.1      36.527
2014   10       16    21  48    4.23   483.2    4.1      36.496
2014   10       16    21  54    4.22   483.0    4.1      36.464
2014   10       16    22   0    4.22   482.9    4.1      36.431
2014   10       16    22   5    4.22   482.7    4.1      36.397
2014   10       16    22  11    4.22   482.5    4.1      36.363
2014   10       16    22  16    4.21   482.3    4.1      36.328
2014   10       16    22  22    4.21   482.1    4.1      36.292
2014   10       16    22  28    4.21   481.9    4.1      36.255
2014   10       16    22  33    4.21   481.7    4.1      36.218
2014   10       16    22  39    4.21   481.5    4.1      36.179
2014   10       16    22  45    4.20   481.3    4.1      36.141
2014   10       16    22  50    4.20   481.1    4.1      36.101
2014   10       16    22  56    4.20   480.9    4.1      36.062
2014   10       16    23   1    4.20   480.7    4.1      36.021
2014   10       16    23   7    4.19   480.5    4.1      35.980
2014   10       16    23  13    4.19   480.3    4.1      35.939
2014   10       16    23  18    4.19   480.1    4.1      35.897
2014   10       16    23  24    4.19   479.9    4.1      35.855
2014   10       16    23  29    4.18   479.7    4.1      35.812
2014   10       16    23  35    4.18   479.5    4.1      35.769
2014   10       16    23  41    4.18   479.3    4.1      35.726
2014   10       16    23  46    4.18   479.0    4.1      35.683
2014   10       16    23  52    4.17   478.8    4.1      35.640
2014   10       16    23  58    4.17   478.6    4.1      35.596
2014   10       17     0   3    4.17   478.4    4.1      35.552
2014   10       17     0   9    4.17   478.2    4.1      35.509
2014   10       17     0  14    4.16   478.0    4.1      35.465
2014   10       17     0  20    4.16   477.7    4.1      35.422
2014   10       17     0  26    4.16   477.5    4.1      35.378
2014   10       17     0  31    4.16   477.3    4.1      35.335
2014   10       17     0  37    4.15   477.1    4.1      35.292
2014   10       17     0  42    4.15   476.9    4.1      35.249
2014   10       17     0  48    4.15   476.6    4.1      35.207
2014   10       17     0  54    4.15   476.4    4.1      35.165
2014   10       17     0  59    4.15   476.2    4.1      35.123
2014   10       17     1   5    4.14   476.0    4.1      35.082
2014   10       17     1  10    4.14   475.8    4.1      35.041
2014   10       17     1  16    4.14   475.5    4.1      35.002
2014   10       17     1  22    4.14   475.3    4.1      34.962
2014   10       17     1  27    4.14   475.1    4.1      34.924
2014   10       17     1  33    4.13   474.9    4.1      34.886
2014   10       17     1  39    4.13   474.7    4.1      34.848
2014   10       17     1  44    4.13   474.5    4.1      34.811
2014   10       17     1  50    4.13   474.2    4.1      34.775
2014   10       17     1  55    4.13   474.0    4.1      34.739
2014   10       17     2   1    4.13   473.8    4.1      34.705
2014   10       17     2   7    4.12   473.6    4.1      34.670
2014   10       17     2  12    4.12   473.4    4.1      34.637
2014   10       17     2  18    4.12   473.2    4.1      34.603
2014   10       17     2  23    4.12   473.0    4.1      34.570
2014   10       17     2  29    4.12   472.7    4.1      34.536
2014   10       17     2  35    4.11   472.5    4.1      34.502
2014   10       17     2  40    4.11   472.3    4.1      34.468
2014   10       17     2  46    4.11   472.1    4.1      34.433
2014   10       17     2  51    4.11   471.9    4.1      34.398
2014   10       17     2  57    4.11   471.7    4.1      34.362
2014   10       17     3   3    4.11   471.5    4.1      34.327
2014   10       17     3   8    4.10   471.3    4.1      34.291
2014   10       17     3  14    4.10   471.0    4.1      34.255
2014   10       17     3  20    4.10   470.8    4.1      34.218
2014   10       17     3  25    4.10   470.6    4.1      34.182
2014   10       17     3  31    4.10   470.4    4.1      34.145
2014   10       17     3  36    4.10   470.2    4.1      34.108
2014   10       17     3  42    4.09   470.0    4.1      34.072
2014   10       17     3  48    4.09   469.8    4.1      34.035
2014   10       17     3  53    4.09   469.6    4.1      33.998
2014   10       17     3  59    4.09   469.3    4.1      33.961
2014   10       17     4   4    4.09   469.1    4.1      33.924
2014   10       17     4  10    4.08   468.9    4.1      33.887
2014   10       17     4  16    4.08   468.7    4.1      33.850
2014   10       17     4  21    4.08   468.5    4.1      33.813
2014   10       17     4  27    4.08   468.3    4.1      33.776
2014   10       17     4  33    4.08   468.1    4.1      33.738
2014   10       17     4  38    4.08   467.9    4.1      33.701
2014   10       17     4  44    4.07   467.6    4.1      33.664
2014   10       17     4  49    4.07   467.4    4.1      33.627
2014   10       17     4  55    4.07   467.2    4.1      33.589
2014   10       17     5   1    4.07   467.0    4.1      33.552
2014   10       17     5   6    4.07   466.8    4.1      33.514
2014   10       17     5  12    4.06   466.6    4.1      33.476
2014   10       17     5  17    4.06   466.3    4.1      33.438
2014   10       17     5  23    4.06   466.1    4.1      33.400
2014   10       17     5  29    4.06   465.9    4.1      33.362
2014   10       17     5  34    4.06   465.7    4.1      33.324
2014   10       17     5  40    4.05   465.5    4.1      33.285
2014   10       17     5  46    4.05   465.2    4.1      33.246
2014   10       17     5  51    4.05   465.0    4.1      33.208
2014   10       17     5  57    4.05   464.8    4.1      33.168
2014   10       17     6   2    4.05   464.5    4.1      33.129
2014   10       17     6   8    4.04   464.3    4.1      33.090
2014   10       17     6  14    4.04   464.1    4.1      33.050
2014   10       17     6  19    4.04   463.9    4.1      33.010
2014   10       17     6  25    4.04   463.6    4.1      32.970
2014   10       17     6  31    4.04   463.4    4.1      32.930
2014   10       17     6  36    4.03   463.2    4.1      32.890
2014   10       17     6  42    4.03   462.9    4.1      32.850
2014   10       17     6  47    4.03   462.7    4.1      32.810
2014   10       17     6  53    4.03   462.4    4.1      32.769
2014   10       17     6  59    4.03   462.2    4.1      32.729
2014   10       17     7   4    4.02   462.0    4.1      32.689
2014   10       17     7  10    4.02   461.7    4.1      32.649
2014   10       17     7  15    4.02   461.5    4.1      32.608
2014   10       17     7  21    4.02   461.2    4.1      32.568
2014   10       17     7  27    4.02   461.0    4.1      32.528
2014   10       17     7  32    4.01   460.7    4.1      32.488
2014   10       17     7  38    4.01   460.5    4.1      32.449
2014   10       17     7  44    4.01   460.2    4.1      32.409
2014   10       17     7  49    4.01   460.0    4.1      32.370
2014   10       17     7  55    4.01   459.8    4.1      32.331
2014   10       17     8   0    4.00   459.5    4.1      32.293
2014   10       17     8   6    4.00   459.2    4.1      32.255
2014   10       17     8  12    4.00   459.0    4.1      32.218
2014   10       17     8  17    4.00   458.7    4.1      32.181
2014   10       17     8  23    4.00   458.5    4.1      32.145
2014   10       17     8  28    4.00   458.2    4.1      32.110
2014   10       17     8  34    3.99   458.0    4.1      32.075
2014   10       17     8  40    3.99   457.8    4.1      32.041
2014   10       17     8  45    3.99   457.5    4.1      32.008
2014   10       17     8  51    3.99   457.3    4.1      31.976
2014   10       17     8  56    3.99   457.0    4.1      31.944
2014   10       17     9   2    3.99   456.8    4.1      31.914
2014   10       17     9   8    3.99   456.5    4.1      31.885
2014   10       17     9  13    3.99   456.3    4.1      31.856
2014   10       17     9  19    3.98   456.1    4.1      31.828
2014   10       17     9  24    3.98   455.8    4.1      31.802
2014   10       17     9  30    3.98   455.6    4.1      31.775
2014   10       17     9  36    3.98   455.3    4.1      31.748
2014   10       17     9  41    3.98   455.1    4.1      31.721
2014   10       17     9  47    3.98   454.9    4.1      31.694
2014   10       17     9  53    3.98   454.6    4.1      31.667
2014   10       17     9  58    3.98   454.4    4.1      31.640
2014   10       17    10   4    3.97   454.2    4.1      31.613
2014   10       17    10   9    3.97   453.9    4.1      31.586
2014   10       17    10  15    3.97   453.7    4.1      31.558
2014   10       17    10  21    3.97   453.4    4.1      31.531
2014   10       17    10  26    3.97   453.2    4.1      31.503
2014   10       17    10  32    3.97   453.0    4.1      31.475
2014   10       17    10  37    3.97   452.7    4.1      31.447
2014   10       17    10  43    3.97   452.5    4.1      31.419
2014   10       17    10  49    3.96   452.2    4.1      31.390
2014   10       17    10  54    3.96   452.0    4.1      31.361
2014   10       17    11   0    3.96   451.8    4.1      31.332
2014   10       17    11   5    3.96   451.5    4.1      31.303
2014   10       17    11  11    3.96   451.3    4.1      31.274
2014   10       17    11  17    3.96   451.0    4.2      31.244
2014   10       17    11  22    3.96   450.8    4.2      31.214
2014   10       17    11  28    3.95   450.5    4.2      31.184
2014   10       17    11  34    3.95   450.3    4.2      31.154
2014   10       17    11  39    3.95   450.0    4.2      31.124
2014   10       17    11  45    3.95   449.8    4.2      31.093
2014   10       17    11  50    3.95   449.5    4.2      31.062
2014   10       17    11  56    3.95   449.3    4.2      31.032
2014   10       17    12   2    3.95   449.0    4.2      31.000
2014   10       17    12   7    3.95   448.8    4.2      30.969
2014   10       17    12  13    3.94   448.5    4.2      30.938
2014   10       17    12  19    3.94   448.2    4.2      30.907
2014   10       17    12  24    3.94   448.0    4.2      30.875
2014   10       17    12  30    3.94   447.7    4.2      30.844
2014   10       17    12  35    3.94   447.5    4.2      30.812
2014   10       17    12  41    3.94   447.2    4.2      30.780
2014   10       17    12  47    3.94   447.0    4.2      30.749
2014   10       17    12  52    3.93   446.7    4.2      30.717
2014   10       17    12  58    3.93   446.4    4.2      30.685
2014   10       17    13   3    3.93   446.2    4.2      30.653
2014   10       17    13   9    3.93   445.9    4.2      30.622
2014   10       17    13  15    3.93   445.7    4.2      30.590
2014   10       17    13  20    3.93   445.4    4.2      30.558
2014   10       17    13  26    3.93   445.2    4.2      30.526
2014   10       17    13  32    3.93   444.9    4.2      30.494
2014   10       17    13  37    3.92   444.6    4.2      30.462
2014   10       17    13  43    3.92   444.4    4.2      30.430
2014   10       17    13  48    3.92   444.1    4.2      30.397
2014   10       17    13  54    3.92   443.9    4.2      30.365
2014   10       17    14   0    3.92   443.6    4.2      30.332
2014   10       17    14   5    3.92   443.3    4.2      30.299
2014   10       17    14  11    3.92   443.1    4.2      30.266
2014   10       17    14  17    3.92   442.8    4.2      30.233
2014   10       17    14  22    3.92   442.5    4.2      30.198
2014   10       17    14  28    3.91   442.3    4.2      30.164
2014   10       17    14  33    3.91   442.0    4.2      30.130
2014   10       17    14  39    3.91   441.7    4.2      30.095
2014   10       17    14  45    3.91   441.5    4.2      30.059
2014   10       17    14  50    3.91   441.2    4.2      30.024
2014   10       17    14  56    3.91   440.9    4.2      29.988
2014   10       17    15   1    3.91   440.7    4.2      29.952
2014   10       17    15   7    3.91   440.4    4.2      29.916
2014   10       17    15  13    3.91   440.1    4.2      29.879
2014   10       17    15  18    3.91   439.9    4.2      29.843
2014   10       17    15  24    3.90   439.6    4.3      29.806
2014   10       17    15  29    3.90   439.3    4.3      29.769
2014   10       17    15  35    3.90   439.1    4.3      29.732
2014   10       17    15  41    3.90   438.8    4.3      29.695
2014   10       17    15  46    3.90   438.5    4.3      29.659
2014   10       17    15  52    3.90   438.3    4.3      29.622
2014   10       17    15  57    3.90   438.0    4.3      29.585
2014   10       17    16   3    3.90   437.7    4.3      29.549
2014   10       17    16   9    3.90   437.5    4.3      29.513
2014   10       17    16  14    3.90   437.2    4.3      29.477
2014   10       17    16  20    3.90   436.9    4.3      29.441
2014   10       17    16  26    3.90   436.7    4.3      29.406
2014   10       17    16  31    3.90   436.4    4.3      29.371
2014   10       17    16  37    3.90   436.1    4.3      29.336
2014   10       17    16  42    3.90   435.9    4.3      29.302
2014   10       17    16  48    3.89   435.6    4.3      29.268
2014   10       17    16  54    3.89   435.4    4.3      29.235
2014   10       17    16  59    3.89   435.1    4.3      29.201
2014   10       17    17   5    3.89   434.8    4.3      29.169
2014   10       17    17  10    3.89   434.6    4.3      29.136
2014   10       17    17  16    3.89   434.3    4.3      29.104
2014   10       17    17  22    3.89   434.1    4.3      29.072
2014   10       17    17  27    3.89   433.8    4.3      29.041
2014   10       17    17  33    3.89   433.5    4.3      29.010
2014   10       17    17  38    3.89   433.3    4.3      28.979
2014   10       17    17  44    3.89   433.0    4.3      28.948
2014   10       17    17  50    3.89   432.8    4.3      28.918
2014   10       17    17  55    3.89   432.5    4.3      28.887
2014   10       17    18   1    3.89   432.2    4.3      28.857
2014   10       17    18   6    3.89   432.0    4.3      28.828
2014   10       17    18  12    3.89   431.7    4.3      28.798
2014   10       17    18  18    3.89   431.4    4.4      28.768
2014   10       17    18  23    3.89   431.2    4.4      28.739
2014   10       17    18  29    3.89   430.9    4.4      28.710
2014   10       17    18  35    3.89   430.7    4.4      28.681
2014   10       17    18  40    3.89   430.4    4.4      28.653
2014   10       17    18  46    3.89   430.1    4.4      28.625
2014   10       17    18  51    3.89   429.9    4.4      28.596
2014   10       17    18  57    3.89   429.6    4.4      28.569
2014   10       17    19   3    3.89   429.3    4.4      28.541
2014   10       17    19   8    3.89   429.1    4.4      28.514
2014   10       17    19  14    3.89   428.8    4.4      28.486
2014   10       17    19  20    3.89   428.5    4.4      28.460
2014   10       17    19  25    3.89   428.3    4.4      28.433
2014   10       17    19  31    3.89   428.0    4.4      28.407
2014   10       17    19  36    3.89   427.7    4.4      28.381
2014   10       17    19  42    3.89   427.5    4.4      28.356
2014   10       17    19  48    3.89   427.2    4.4      28.331
2014   10       17    19  53    3.89   427.0    4.4      28.307
2014   10       17    19  59    3.89   426.7    4.4      28.282
2014   10       17    20   4    3.89   426.4    4.5      28.259
2014   10       17    20  10    3.89   426.2    4.5      28.236
2014   10       17    20  16    3.89   425.9    4.5      28.213
2014   10       17    20  21    3.89   425.6    4.5      28.191
2014   10       17    20  27    3.89   425.4    4.5      28.169
2014   10       17    20  33    3.89   425.1    4.5      28.148
2014   10       17    20  38    3.89   424.9    4.5      28.127
2014   10       17    20  44    3.89   424.6    4.5      28.106
2014   10       17    20  49    3.89   424.3    4.5      28.086
2014   10       17    20  55    3.89   424.1    4.5      28.066
2014   10       17    21   1    3.89   423.8    4.5      28.047
2014   10       17    21   6    3.89   423.6    4.5      28.028
2014   10       17    21  12    3.89   423.3    4.5      28.009
2014   10       17    21  18    3.89   423.1    4.5      27.990
2014   10       17    21  23    3.89   422.8    4.5      27.971
2014   10       17    21  29    3.89   422.6    4.6      27.952
2014   10       17    21  34    3.89   422.3    4.6      27.933
2014   10       17    21  40    3.90   422.1    4.6      27.914
2014   10       17    21  46    3.90   421.8    4.6      27.896
2014   10       17    21  51    3.90   421.6    4.6      27.877
2014   10       17    21  57    3.90   421.4    4.6      27.858
2014   10       17    22   2    3.90   421.1    4.6      27.840
2014   10       17    22   8    3.90   420.9    4.6      27.821
2014   10       17    22  14    3.90   420.6    4.6      27.802
2014   10       17    22  19    3.90   420.4    4.6      27.783
2014   10       17    22  25    3.90   420.2    4.6      27.763
2014   10       17    22  30    3.90   419.9    4.6      27.744
2014   10       17    22  36    3.90   419.7    4.6      27.724
2014   10       17    22  42    3.90   419.4    4.6      27.704
2014   10       17    22  47    3.90   419.2    4.7      27.684
2014   10       17    22  53    3.90   419.0    4.7      27.663
2014   10       17    22  59    3.91   418.7    4.7      27.642
2014   10       17    23   4    3.91   418.5    4.7      27.620
2014   10       17    23  10    3.91   418.3    4.7      27.599
2014   10       17    23  15    3.91   418.0    4.7      27.576
2014   10       17    23  21    3.91   417.8    4.7      27.553
2014   10       17    23  27    3.91   417.5    4.7      27.530
2014   10       17    23  32    3.91   417.3    4.7      27.506
2014   10       17    23  38    3.91   417.1    4.7      27.483
2014   10       17    23  43    3.91   416.8    4.7      27.458
2014   10       17    23  49    3.91   416.6    4.7      27.434
2014   10       17    23  55    3.91   416.3    4.7      27.409
2014   10       18     0   0    3.91   416.1    4.7      27.385
2014   10       18     0   6    3.91   415.9    4.7      27.360
2014   10       18     0  11    3.91   415.6    4.8      27.334
2014   10       18     0  17    3.91   415.4    4.8      27.309
2014   10       18     0  23    3.91   415.2    4.8      27.283
2014   10       18     0  28    3.92   414.9    4.8      27.257
2014   10       18     0  34    3.92   414.7    4.8      27.231
2014   10       18     0  39    3.92   414.4    4.8      27.205
2014   10       18     0  45    3.92   414.2    4.8      27.179
2014   10       18     0  51    3.92   414.0    4.8      27.152
2014   10       18     0  56    3.92   413.7    4.8      27.125
2014   10       18     1   2    3.92   413.5    4.8      27.098
2014   10       18     1   8    3.92   413.3    4.8      27.071
2014   10       18     1  13    3.92   413.0    4.8      27.044
2014   10       18     1  19    3.92   412.8    4.8      27.016
2014   10       18     1  24    3.92   412.5    4.8      26.988
2014   10       18     1  30    3.92   412.3    4.8      26.961
2014   10       18     1  36    3.93   412.1    4.8      26.933
2014   10       18     1  41    3.93   411.8    4.9      26.905
2014   10       18     1  47    3.93   411.6    4.9      26.877
2014   10       18     1  52    3.93   411.3    4.9      26.849
2014   10       18     1  58    3.93   411.1    4.9      26.821
2014   10       18     2   4    3.93   410.9    4.9      26.793
2014   10       18     2   9    3.93   410.6    4.9      26.765
2014   10       18     2  15    3.93   410.4    4.9      26.737
2014   10       18     2  21    3.93   410.1    4.9      26.709
2014   10       18     2  26    3.93   409.9    4.9      26.681
2014   10       18     2  32    3.94   409.7    4.9      26.654
2014   10       18     2  37    3.94   409.4    4.9      26.626
2014   10       18     2  43    3.94   409.2    4.9      26.599
2014   10       18     2  49    3.94   408.9    4.9      26.572
2014   10       18     2  54    3.94   408.7    4.9      26.545
2014   10       18     3   0    3.94   408.5    4.9      26.518
2014   10       18     3   6    3.94   408.2    4.9      26.492
2014   10       18     3  11    3.94   408.0    5.0      26.466
2014   10       18     3  17    3.95   407.8    5.0      26.441
2014   10       18     3  22    3.95   407.5    5.0      26.415
2014   10       18     3  28    3.95   407.3    5.0      26.390
2014   10       18     3  34    3.95   407.1    5.0      26.366
2014   10       18     3  39    3.95   406.8    5.0      26.342
2014   10       18     3  45    3.95   406.6    5.0      26.319
2014   10       18     3  50    3.96   406.4    5.0      26.296
2014   10       18     3  56    3.96   406.1    5.0      26.273
2014   10       18     4   2    3.96   405.9    5.0      26.251
2014   10       18     4   7    3.96   405.7    5.0      26.230
2014   10       18     4  13    3.96   405.5    5.0      26.209
2014   10       18     4  19    3.96   405.2    5.0      26.189
2014   10       18     4  24    3.97   405.0    5.1      26.169
2014   10       18     4  30    3.97   404.8    5.1      26.150
2014   10       18     4  35    3.97   404.6    5.1      26.131
2014   10       18     4  41    3.97   404.4    5.1      26.113
2014   10       18     4  47    3.97   404.1    5.1      26.096
2014   10       18     4  52    3.98   403.9    5.1      26.079
2014   10       18     4  58    3.98   403.7    5.1      26.063
2014   10       18     5   3    3.98   403.5    5.1      26.048
2014   10       18     5   9    3.98   403.3    5.1      26.033
2014   10       18     5  15    3.99   403.1    5.1      26.019
2014   10       18     5  20    3.99   402.9    5.1      26.005
2014   10       18     5  26    3.99   402.7    5.2      25.992
2014   10       18     5  32    3.99   402.5    5.2      25.979
2014   10       18     5  37    3.99   402.3    5.2      25.967
2014   10       18     5  43    4.00   402.1    5.2      25.955
2014   10       18     5  48    4.00   401.9    5.2      25.944
2014   10       18     5  54    4.00   401.7    5.2      25.932
2014   10       18     6   0    4.00   401.5    5.2      25.922
2014   10       18     6   5    4.01   401.3    5.2      25.911
2014   10       18     6  11    4.01   401.1    5.2      25.901
2014   10       18     6  16    4.01   400.9    5.3      25.890
2014   10       18     6  22    4.01   400.7    5.3      25.881
2014   10       18     6  28    4.01   400.5    5.3      25.870
2014   10       18     6  33    4.02   400.3    5.3      25.860
2014   10       18     6  39    4.02   400.1    5.3      25.850
2014   10       18     6  44    4.02   399.9    5.3      25.840
2014   10       18     6  50    4.02   399.7    5.3      25.831
2014   10       18     6  56    4.03   399.5    5.3      25.821
2014   10       18     7   1    4.03   399.3    5.3      25.811
2014   10       18     7   7    4.03   399.2    5.4      25.801
2014   10       18     7  12    4.03   399.0    5.4      25.792
2014   10       18     7  18    4.03   398.8    5.4      25.782
2014   10       18     7  24    4.04   398.6    5.4      25.773
2014   10       18     7  29    4.04   398.4    5.4      25.763
2014   10       18     7  35    4.04   398.2    5.4      25.753
2014   10       18     7  41    4.04   398.0    5.4      25.744
2014   10       18     7  46    4.05   397.8    5.4      25.734
2014   10       18     7  52    4.05   397.7    5.4      25.725
2014   10       18     7  57    4.05   397.5    5.4      25.715
2014   10       18     8   3    4.05   397.3    5.5      25.705
2014   10       18     8   9    4.05   397.1    5.5      25.695
2014   10       18     8  14    4.06   396.9    5.5      25.685
2014   10       18     8  20    4.06   396.7    5.5      25.675
2014   10       18     8  25    4.06   396.5    5.5      25.665
2014   10       18     8  31    4.06   396.4    5.5      25.655
2014   10       18     8  37    4.07   396.2    5.5      25.645
2014   10       18     8  42    4.07   396.0    5.5      25.634
2014   10       18     8  48    4.07   395.8    5.5      25.624
2014   10       18     8  53    4.07   395.6    5.6      25.613
2014   10       18     8  59    4.08   395.5    5.6      25.603
2014   10       18     9   5    4.08   395.3    5.6      25.592
2014   10       18     9  10    4.08   395.1    5.6      25.581
2014   10       18     9  16    4.08   394.9    5.6      25.571
2014   10       18     9  22    4.08   394.7    5.6      25.560
2014   10       18     9  27    4.09   394.6    5.6      25.549
2014   10       18     9  33    4.09   394.4    5.6      25.538
2014   10       18     9  38    4.09   394.2    5.6      25.527
2014   10       18     9  44    4.09   394.0    5.6      25.516
2014   10       18     9  50    4.10   393.8    5.7      25.505
2014   10       18     9  55    4.10   393.7    5.7      25.494
2014   10       18    10   1    4.10   393.5    5.7      25.482
2014   10       18    10   6    4.10   393.3    5.7      25.471
2014   10       18    10  12    4.11   393.1    5.7      25.460
2014   10       18    10  18    4.11   393.0    5.7      25.448
2014   10       18    10  23    4.11   392.8    5.7      25.437
2014   10       18    10  29    4.11   392.6    5.7      25.426
2014   10       18    10  35    4.12   392.4    5.7      25.414
2014   10       18    10  40    4.12   392.3    5.7      25.403
2014   10       18    10  46    4.12   392.1    5.7      25.392
2014   10       18    10  51    4.12   391.9    5.8      25.380
2014   10       18    10  57    4.13   391.8    5.8      25.369
2014   10       18    11   3    4.13   391.6    5.8      25.358
2014   10       18    11   8    4.13   391.4    5.8      25.346
2014   10       18    11  14    4.14   391.2    5.8      25.335
2014   10       18    11  20    4.14   391.1    5.8      25.324
2014   10       18    11  25    4.14   390.9    5.8      25.313
2014   10       18    11  31    4.14   390.7    5.8      25.301
2014   10       18    11  36    4.15   390.6    5.8      25.291
2014   10       18    11  42    4.15   390.4    5.8      25.280
2014   10       18    11  48    4.15   390.2    5.9      25.269
2014   10       18    11  53    4.15   390.1    5.9      25.259
2014   10       18    11  59    4.16   389.9    5.9      25.248
2014   10       18    12   4    4.16   389.7    5.9      25.238
2014   10       18    12  10    4.16   389.6    5.9      25.228
2014   10       18    12  16    4.17   389.4    5.9      25.218
2014   10       18    12  21    4.17   389.3    5.9      25.209
2014   10       18    12  27    4.17   389.1    5.9      25.200
2014   10       18    12  33    4.17   388.9    5.9      25.191
2014   10       18    12  38    4.18   388.8    5.9      25.182
2014   10       18    12  44    4.18   388.6    5.9      25.174
2014   10       18    12  49    4.18   388.4    6.0      25.166
2014   10       18    12  55    4.19   388.3    6.0      25.158
2014   10       18    13   1    4.19   388.1    6.0      25.151
2014   10       18    13   6    4.19   388.0    6.0      25.144
2014   10       18    13  12    4.20   387.8    6.0      25.137
2014   10       18    13  17    4.20   387.7    6.0      25.131
2014   10       18    13  23    4.20   387.5    6.0      25.125
2014   10       18    13  29    4.20   387.4    6.0      25.119
2014   10       18    13  34    4.21   387.2    6.0      25.114
2014   10       18    13  40    4.21   387.1    6.1      25.109
2014   10       18    13  45    4.21   386.9    6.1      25.105
2014   10       18    13  51    4.22   386.8    6.1      25.101
2014   10       18    13  57    4.22   386.6    6.1      25.097
2014   10       18    14   2    4.22   386.5    6.1      25.093
2014   10       18    14   8    4.23   386.3    6.1      25.090
2014   10       18    14  14    4.23   386.2    6.1      25.087
2014   10       18    14  19    4.23   386.1    6.1      25.085
2014   10       18    14  25    4.24   385.9    6.1      25.082
2014   10       18    14  30    4.24   385.8    6.2      25.080
2014   10       18    14  36    4.24   385.6    6.2      25.079
2014   10       18    14  42    4.24   385.5    6.2      25.077
2014   10       18    14  47    4.25   385.4    6.2      25.076
2014   10       18    14  53    4.25   385.2    6.2      25.075
2014   10       18    14  58    4.25   385.1    6.2      25.074
2014   10       18    15   4    4.26   385.0    6.2      25.073
2014   10       18    15  10    4.26   384.8    6.2      25.073
2014   10       18    15  15    4.26   384.7    6.2      25.072
2014   10       18    15  21    4.27   384.6    6.3      25.072
2014   10       18    15  26    4.27   384.4    6.3      25.072
2014   10       18    15  32    4.27   384.3    6.3      25.072
2014   10       18    15  38    4.28   384.2    6.3      25.072
2014   10       18    15  43    4.28   384.0    6.3      25.073
2014   10       18    15  49    4.28   383.9    6.3      25.073
2014   10       18    15  54    4.29   383.8    6.3      25.073
2014   10       18    16   0    4.29   383.7    6.3      25.074
2014   10       18    16   6    4.29   383.5    6.4      25.074
2014   10       18    16  11    4.30   383.4    6.4      25.075
2014   10       18    16  17    4.30   383.3    6.4      25.075
2014   10       18    16  23    4.30   383.1    6.4      25.076
2014   10       18    16  28    4.31   383.0    6.4      25.077
2014   10       18    16  34    4.31   382.9    6.4      25.078
2014   10       18    16  39    4.31   382.7    6.4      25.078
2014   10       18    16  45    4.31   382.6    6.4      25.079
2014   10       18    16  51    4.32   382.5    6.4      25.080
2014   10       18    16  56    4.32   382.4    6.5      25.081
2014   10       18    17   2    4.32   382.2    6.5      25.082
2014   10       18    17   7    4.33   382.1    6.5      25.083
2014   10       18    17  13    4.33   382.0    6.5      25.084
2014   10       18    17  19    4.33   381.9    6.5      25.085
2014   10       18    17  24    4.34   381.7    6.5      25.086
2014   10       18    17  30    4.34   381.6    6.5      25.087
2014   10       18    17  36    4.34   381.5    6.5      25.088
2014   10       18    17  41    4.35   381.4    6.5      25.089
2014   10       18    17  47    4.35   381.2    6.6      25.090
2014   10       18    17  52    4.35   381.1    6.6      25.091
2014   10       18    17  58    4.36   381.0    6.6      25.092
2014   10       18    18   4    4.36   380.9    6.6      25.093
2014   10       18    18   9    4.36   380.7    6.6      25.094
2014   10       18    18  15    4.37   380.6    6.6      25.095
2014   10       18    18  21    4.37   380.5    6.6      25.096
2014   10       18    18  26    4.37   380.4    6.6      25.097
2014   10       18    18  32    4.38   380.3    6.6      25.098
2014   10       18    18  37    4.38   380.1    6.7      25.099
2014   10       18    18  43    4.38   380.0    6.7      25.100
2014   10       18    18  49    4.39   379.9    6.7      25.101
2014   10       18    18  54    4.39   379.8    6.7      25.102
2014   10       18    19   0    4.39   379.7    6.7      25.102
2014   10       18    19   5    4.40   379.5    6.7      25.103
2014   10       18    19  11    4.40   379.4    6.7      25.104
2014   10       18    19  17    4.40   379.3    6.7      25.105
2014   10       18    19  22    4.41   379.2    6.7      25.105
2014   10       18    19  28    4.41   379.1    6.7      25.106
2014   10       18    19  34    4.41   379.0    6.7      25.106
2014   10       18    19  39    4.42   378.9    6.8      25.107
2014   10       18    19  45    4.42   378.7    6.8      25.108
2014   10       18    19  50    4.42   378.6    6.8      25.108
2014   10       18    19  56    4.43   378.5    6.8      25.108
2014   10       18    20   2    4.43   378.4    6.8      25.109
2014   10       18    20   7    4.43   378.3    6.8      25.109
2014   10       18    20  13    4.44   378.2    6.8      25.110
2014   10       18    20  18    4.44   378.1    6.8      25.110
2014   10       18    20  24    4.44   378.0    6.8      25.110
2014   10       18    20  30    4.45   377.8    6.8      25.111
2014   10       18    20  35    4.45   377.7    6.9      25.111
2014   10       18    20  41    4.45   377.6    6.9      25.112
2014   10       18    20  46    4.46   377.5    6.9      25.112
2014   10       18    20  52    4.46   377.4    6.9      25.113
2014   10       18    20  58    4.46   377.3    6.9      25.113
2014   10       18    21   3    4.47   377.2    6.9      25.113
2014   10       18    21   9    4.47   377.1    6.9      25.114
2014   10       18    21  15    4.47   377.0    6.9      25.115
2014   10       18    21  20    4.48   376.9    6.9      25.115
2014   10       18    21  26    4.48   376.8    6.9      25.116
2014   10       18    21  31    4.48   376.7    6.9      25.117
2014   10       18    21  37    4.49   376.6    7.0      25.117
2014   10       18    21  43    4.49   376.4    7.0      25.118
2014   10       18    21  48    4.49   376.3    7.0      25.119
2014   10       18    21  54    4.50   376.2    7.0      25.120
2014   10       18    21  59    4.50   376.1    7.0      25.121
2014   10       18    22   5    4.50   376.0    7.0      25.122
2014   10       18    22  11    4.51   375.9    7.0      25.124
2014   10       18    22  16    4.51   375.8    7.0      25.125
2014   10       18    22  22    4.51   375.7    7.0      25.127
2014   10       18    22  27    4.52   375.6    7.0      25.128
2014   10       18    22  33    4.52   375.5    7.0      25.130
2014   10       18    22  39    4.53   375.4    7.1      25.131
2014   10       18    22  44    4.53   375.3    7.1      25.133
2014   10       18    22  50    4.53   375.2    7.1      25.135
2014   10       18    22  55    4.54   375.1    7.1      25.137
2014   10       18    23   1    4.54   375.0    7.1      25.140
2014   10       18    23   7    4.54   375.0    7.1      25.142
2014   10       18    23  12    4.55   374.9    7.1      25.144
2014   10       18    23  18    4.55   374.8    7.1      25.147
2014   10       18    23  24    4.55   374.7    7.1      25.149
2014   10       18    23  29    4.56   374.6    7.1      25.152
2014   10       18    23  35    4.56   374.5    7.1      25.155
2014   10       18    23  40    4.56   374.4    7.2      25.157
2014   10       18    23  46    4.57   374.3    7.2      25.160
2014   10       18    23  52    4.57   374.2    7.2      25.163
2014   10       18    23  57    4.57   374.1    7.2      25.167
2014   10       19     0   3    4.58   374.0    7.2      25.170
2014   10       19     0   8    4.58   373.9    7.2      25.173
2014   10       19     0  14    4.59   373.8    7.2      25.176
2014   10       19     0  20    4.59   373.7    7.2      25.180
2014   10       19     0  25    4.59   373.6    7.2      25.183
2014   10       19     0  31    4.60   373.6    7.2      25.187
2014   10       19     0  37    4.60   373.5    7.2      25.190
2014   10       19     0  42    4.60   373.4    7.3      25.194
2014   10       19     0  48    4.61   373.3    7.3      25.197
2014   10       19     0  53    4.61   373.2    7.3      25.201
2014   10       19     0  59    4.61   373.1    7.3      25.205
2014   10       19     1   5    4.62   373.0    7.3      25.209
2014   10       19     1  10    4.62   372.9    7.3      25.212
2014   10       19     1  16    4.62   372.8    7.3      25.216
2014   10       19     1  22    4.63   372.7    7.3      25.220
2014   10       19     1  27    4.63   372.7    7.3      25.224
2014   10       19     1  33    4.63   372.6    7.3      25.228
2014   10       19     1  38    4.64   372.5    7.3      25.232
2014   10       19     1  44    4.64   372.4    7.4      25.236
2014   10       19     1  50    4.65   372.3    7.4      25.240
2014   10       19     1  55    4.65   372.2    7.4      25.244
2014   10       19     2   1    4.65   372.1    7.4      25.248
2014   10       19     2   6    4.66   372.0    7.4      25.253
2014   10       19     2  12    4.66   372.0    7.4      25.257
2014   10       19     2  18    4.66   371.9    7.4      25.261
2014   10       19     2  23    4.67   371.8    7.4      25.265
2014   10       19     2  29    4.67   371.7    7.4      25.269
2014   10       19     2  35    4.67   371.6    7.4      25.273
2014   10       19     2  40    4.68   371.5    7.4      25.277
2014   10       19     2  46    4.68   371.4    7.4      25.282
2014   10       19     2  51    4.68   371.4    7.5      25.286
2014   10       19     2  57    4.69   371.3    7.5      25.290
2014   10       19     3   3    4.69   371.2    7.5      25.294
2014   10       19     3   8    4.69   371.1    7.5      25.298
2014   10       19     3  14    4.70   371.0    7.5      25.302
2014   10       19     3  19    4.70   370.9    7.5      25.307
2014   10       19     3  25    4.71   370.9    7.5      25.311
2014   10       19     3  31    4.71   370.8    7.5      25.315
2014   10       19     3  36    4.71   370.7    7.5      25.319
2014   10       19     3  42    4.72   370.6    7.5      25.323
2014   10       19     3  48    4.72   370.5    7.5      25.327
2014   10       19     3  53    4.72   370.4    7.5      25.331
2014   10       19     3  59    4.73   370.4    7.6      25.335
2014   10       19     4   4    4.73   370.3    7.6      25.339
2014   10       19     4  10    4.73   370.2    7.6      25.342
2014   10       19     4  16    4.74   370.1    7.6      25.346
2014   10       19     4  21    4.74   370.0    7.6      25.350
2014   10       19     4  27    4.74   370.0    7.6      25.354
2014   10       19     4  32    4.75   369.9    7.6      25.357
2014   10       19     4  38    4.75   369.8    7.6      25.361
2014   10       19     4  44    4.75   369.7    7.6      25.365
2014   10       19     4  49    4.76   369.6    7.6      25.368
2014   10       19     4  55    4.76   369.6    7.6      25.372
2014   10       19     5   0    4.77   369.5    7.6      25.375
2014   10       19     5   6    4.77   369.4    7.6      25.379
2014   10       19     5  12    4.77   369.3    7.7      25.382
2014   10       19     5  17    4.78   369.3    7.7      25.385
2014   10       19     5  23    4.78   369.2    7.7      25.389
2014   10       19     5  28    4.78   369.1    7.7      25.392
2014   10       19     5  34    4.79   369.0    7.7      25.395
2014   10       19     5  40    4.79   368.9    7.7      25.398
2014   10       19     5  45    4.79   368.9    7.7      25.402
2014   10       19     5  51    4.80   368.8    7.7      25.405
2014   10       19     5  56    4.80   368.7    7.7      25.408
2014   10       19     6   2    4.80   368.6    7.7      25.411
2014   10       19     6   8    4.81   368.6    7.7      25.414
2014   10       19     6  13    4.81   368.5    7.7      25.417
2014   10       19     6  19    4.81   368.4    7.7      25.420
2014   10       19     6  25    4.82   368.3    7.7      25.423
2014   10       19     6  30    4.82   368.3    7.8      25.426
2014   10       19     6  36    4.83   368.2    7.8      25.429
2014   10       19     6  41    4.83   368.1    7.8      25.432
2014   10       19     6  47    4.83   368.0    7.8      25.435
2014   10       19     6  53    4.84   368.0    7.8      25.438
2014   10       19     6  58    4.84   367.9    7.8      25.441
2014   10       19     7   4    4.84   367.8    7.8      25.444
2014   10       19     7   9    4.85   367.8    7.8      25.447
2014   10       19     7  15    4.85   367.7    7.8      25.450
2014   10       19     7  21    4.85   367.6    7.8      25.453
2014   10       19     7  26    4.86   367.5    7.8      25.456
2014   10       19     7  32    4.86   367.5    7.8      25.459
2014   10       19     7  38    4.86   367.4    7.8      25.462
2014   10       19     7  43    4.87   367.3    7.8      25.465
2014   10       19     7  49    4.87   367.2    7.8      25.468
2014   10       19     7  54    4.87   367.2    7.9      25.472
2014   10       19     8   0    4.88   367.1    7.9      25.475
2014   10       19     8   6    4.88   367.0    7.9      25.478
2014   10       19     8  11    4.89   367.0    7.9      25.481
2014   10       19     8  17    4.89   366.9    7.9      25.485
2014   10       19     8  23    4.89   366.8    7.9      25.488
2014   10       19     8  28    4.90   366.7    7.9      25.491
2014   10       19     8  34    4.90   366.7    7.9      25.495
2014   10       19     8  39    4.90   366.6    7.9      25.498
2014   10       19     8  45    4.91   366.5    7.9      25.502
2014   10       19     8  51    4.91   366.5    7.9      25.505
2014   10       19     8  56    4.91   366.4    7.9      25.509
2014   10       19     9   2    4.92   366.3    7.9      25.513
2014   10       19     9   7    4.92   366.3    7.9      25.516
2014   10       19     9  13    4.92   366.2    7.9      25.520
2014   10       19     9  19    4.93   366.1    7.9      25.524
2014   10       19     9  24    4.93   366.1    8.0      25.528
2014   10       19     9  30    4.94   366.0    8.0      25.532
2014   10       19     9  36    4.94   365.9    8.0      25.536
2014   10       19     9  41    4.94   365.9    8.0      25.540
2014   10       19     9  47    4.95   365.8    8.0      25.544
2014   10       19     9  52    4.95   365.7    8.0      25.548
2014   10       19     9  58    4.95   365.6    8.0      25.552
2014   10       19    10   4    4.96   365.6    8.0      25.556
2014   10       19    10   9    4.96   365.5    8.0      25.560
2014   10       19    10  15    4.96   365.5    8.0      25.564
2014   10       19    10  20    4.97   365.4    8.0      25.569
2014   10       19    10  26    4.97   365.3    8.0      25.573
2014   10       19    10  32    4.97   365.3    8.0      25.577
2014   10       19    10  37    4.98   365.2    8.0      25.582
2014   10       19    10  43    4.98   365.1    8.0      25.586
2014   10       19    10  49    4.98   365.1    8.1      25.590
2014   10       19    10  54    4.99   365.0    8.1      25.595
2014   10       19    11   0    4.99   364.9    8.1      25.599
2014   10       19    11   5    5.00   364.9    8.1      25.604
2014   10       19    11  11    5.00   364.8    8.1      25.608
2014   10       19    11  17    5.00   364.7    8.1      25.613
2014   10       19    11  22    5.01   364.7    8.1      25.617
2014   10       19    11  28    5.01   364.6    8.1      25.622
2014   10       19    11  33    5.01   364.5    8.1      25.626
2014   10       19    11  39    5.02   364.5    8.1      25.631
2014   10       19    11  45    5.02   364.4    8.1      25.635
2014   10       19    11  50    5.02   364.4    8.1      25.640
2014   10       19    11  56    5.03   364.3    8.1      25.644
2014   10       19    12   1    5.03   364.2    8.1      25.649
2014   10       19    12   7    5.03   364.2    8.1      25.653
2014   10       19    12  13    5.04   364.1    8.1      25.658
2014   10       19    12  18    5.04   364.0    8.2      25.662
2014   10       19    12  24    5.04   364.0    8.2      25.667
2014   10       19    12  29    5.05   363.9    8.2      25.671
2014   10       19    12  35    5.05   363.9    8.2      25.676
2014   10       19    12  41    5.06   363.8    8.2      25.680
2014   10       19    12  46    5.06   363.7    8.2      25.684
2014   10       19    12  52    5.06   363.7    8.2      25.689
2014   10       19    12  58    5.07   363.6    8.2      25.693
2014   10       19    13   3    5.07   363.5    8.2      25.697
2014   10       19    13   9    5.07   363.5    8.2      25.702
2014   10       19    13  14    5.08   363.4    8.2      25.706
2014   10       19    13  20    5.08   363.4    8.2      25.710
2014   10       19    13  26    5.08   363.3    8.2      25.714
2014   10       19    13  31    5.09   363.2    8.2      25.719
2014   10       19    13  37    5.09   363.2    8.2      25.723
2014   10       19    13  42    5.09   363.1    8.2      25.727
2014   10       19    13  48    5.10   363.0    8.3      25.731
2014   10       19    13  54    5.10   363.0    8.3      25.735
2014   10       19    13  59    5.10   362.9    8.3      25.739
2014   10       19    14   5    5.11   362.9    8.3      25.743
2014   10       19    14  10    5.11   362.8    8.3      25.747
2014   10       19    14  16    5.12   362.7    8.3      25.751
2014   10       19    14  22    5.12   362.7    8.3      25.755
2014   10       19    14  27    5.12   362.6    8.3      25.759
2014   10       19    14  33    5.13   362.6    8.3      25.763
2014   10       19    14  39    5.13   362.5    8.3      25.766
2014   10       19    14  44    5.13   362.4    8.3      25.770
2014   10       19    14  50    5.14   362.4    8.3      25.774
2014   10       19    14  55    5.14   362.3    8.3      25.778
2014   10       19    15   1    5.14   362.3    8.3      25.782
2014   10       19    15   7    5.15   362.2    8.3      25.786
2014   10       19    15  12    5.15   362.1    8.3      25.789
2014   10       19    15  18    5.15   362.1    8.3      25.793
2014   10       19    15  23    5.16   362.0    8.3      25.797
2014   10       19    15  29    5.16   362.0    8.4      25.801
2014   10       19    15  35    5.16   361.9    8.4      25.805
2014   10       19    15  40    5.17   361.8    8.4      25.808
2014   10       19    15  46    5.17   361.8    8.4      25.812
2014   10       19    15  52    5.18   361.7    8.4      25.816
2014   10       19    15  57    5.18   361.7    8.4      25.820
2014   10       19    16   3    5.18   361.6    8.4      25.824
2014   10       19    16   8    5.19   361.5    8.4      25.828
2014   10       19    16  14    5.19   361.5    8.4      25.832
2014   10       19    16  20    5.19   361.4    8.4      25.836
2014   10       19    16  25    5.20   361.4    8.4      25.840
2014   10       19    16  31    5.20   361.3    8.4      25.844
2014   10       19    16  37    5.21   361.2    8.4      25.848
2014   10       19    16  42    5.21   361.2    8.4      25.852
2014   10       19    16  48    5.21   361.1    8.4      25.856
2014   10       19    16  53    5.22   361.1    8.4      25.860
2014   10       19    16  59    5.22   361.0    8.4      25.864
2014   10       19    17   5    5.22   360.9    8.4      25.868
2014   10       19    17  10    5.23   360.9    8.4      25.873
2014   10       19    17  16    5.23   360.8    8.5      25.877
2014   10       19    17  21    5.23   360.8    8.5      25.881
2014   10       19    17  27    5.24   360.7    8.5      25.886
2014   10       19    17  33    5.24   360.7    8.5      25.890
2014   10       19    17  38    5.25   360.6    8.5      25.895
2014   10       19    17  44    5.25   360.5    8.5      25.899
2014   10       19    17  50    5.25   360.5    8.5      25.904
2014   10       19    17  55    5.26   360.4    8.5      25.908
2014   10       19    18   1    5.26   360.4    8.5      25.913
2014   10       19    18   6    5.27   360.3    8.5      25.918
2014   10       19    18  12    5.27   360.3    8.5      25.923
2014   10       19    18  18    5.27   360.2    8.5      25.927
2014   10       19    18  23    5.28   360.2    8.5      25.932
2014   10       19    18  29    5.28   360.1    8.5      25.937
2014   10       19    18  34    5.28   360.0    8.5      25.942
2014   10       19    18  40    5.29   360.0    8.5      25.948
2014   10       19    18  46    5.29   359.9    8.5      25.953
2014   10       19    18  51    5.30   359.9    8.5      25.958
2014   10       19    18  57    5.30   359.8    8.5      25.963
2014   10       19    19   2    5.30   359.8    8.6      25.968
2014   10       19    19   8    5.31   359.7    8.6      25.974
2014   10       19    19  14    5.31   359.7    8.6      25.979
2014   10       19    19  19    5.32   359.6    8.6      25.984
2014   10       19    19  25    5.32   359.5    8.6      25.990
2014   10       19    19  30    5.32   359.5    8.6      25.995
2014   10       19    19  36    5.33   359.4    8.6      26.001
2014   10       19    19  42    5.33   359.4    8.6      26.006
2014   10       19    19  47    5.33   359.3    8.6      26.012
2014   10       19    19  53    5.34   359.3    8.6      26.018
2014   10       19    19  59    5.34   359.2    8.6      26.023
2014   10       19    20   4    5.35   359.2    8.6      26.029
2014   10       19    20  10    5.35   359.1    8.6      26.035
2014   10       19    20  15    5.35   359.1    8.6      26.041
2014   10       19    20  21    5.36   359.0    8.6      26.047
2014   10       19    20  27    5.36   359.0    8.6      26.053
2014   10       19    20  32    5.37   358.9    8.6      26.059
2014   10       19    20  38    5.37   358.8    8.7      26.065
2014   10       19    20  43    5.37   358.8    8.7      26.071
2014   10       19    20  49    5.38   358.7    8.7      26.077
2014   10       19    20  55    5.38   358.7    8.7      26.083
2014   10       19    21   0    5.39   358.6    8.7      26.089
2014   10       19    21   6    5.39   358.6    8.7      26.095
2014   10       19    21  11    5.39   358.5    8.7      26.101
2014   10       19    21  17    5.40   358.5    8.7      26.107
2014   10       19    21  23    5.40   358.4    8.7      26.114
2014   10       19    21  28    5.41   358.4    8.7      26.120
2014   10       19    21  34    5.41   358.3    8.7      26.126
2014   10       19    21  40    5.41   358.3    8.7      26.133
2014   10       19    21  45    5.42   358.2    8.7      26.139
2014   10       19    21  51    5.42   358.1    8.7      26.145
2014   10       19    21  56    5.43   358.1    8.7      26.152
2014   10       19    22   2    5.43   358.0    8.7      26.158
2014   10       19    22   8    5.43   358.0    8.7      26.165
2014   10       19    22  13    5.44   357.9    8.8      26.171
2014   10       19    22  19    5.44   357.9    8.8      26.178
2014   10       19    22  24    5.45   357.8    8.8      26.184
2014   10       19    22  30    5.45   357.8    8.8      26.191
2014   10       19    22  36    5.46   357.7    8.8      26.198
2014   10       19    22  41    5.46   357.7    8.8      26.204
2014   10       19    22  47    5.46   357.6    8.8      26.211
2014   10       19    22  53    5.47   357.6    8.8      26.218
2014   10       19    22  58    5.47   357.5    8.8      26.224
2014   10       19    23   4    5.48   357.5    8.8      26.231
2014   10       19    23   9    5.48   357.4    8.8      26.238
2014   10       19    23  15    5.49   357.4    8.8      26.245
2014   10       19    23  21    5.49   357.3    8.8      26.252
2014   10       19    23  26    5.49   357.2    8.8      26.259
2014   10       19    23  32    5.50   357.2    8.8      26.266
2014   10       19    23  38    5.50   357.1    8.8      26.273
2014   10       19    23  43    5.51   357.1    8.9      26.281
2014   10       19    23  49    5.51   357.0    8.9      26.288
2014   10       19    23  54    5.52   357.0    8.9      26.295
2014   10       20     0   0    5.52   356.9    8.9      26.302
2014   10       20     0   6    5.52   356.9    8.9      26.310
2014   10       20     0  11    5.53   356.8    8.9      26.317
2014   10       20     0  17    5.53   356.8    8.9      26.325
2014   10       20     0  22    5.54   356.7    8.9      26.332
2014   10       20     0  28    5.54   356.7    8.9      26.340
2014   10       20     0  34    5.55   356.6    8.9      26.348
2014   10       20     0  39    5.55   356.6    8.9      26.355
2014   10       20     0  45    5.56   356.5    8.9      26.363
2014   10       20     0  51    5.56   356.5    8.9      26.371
2014   10       20     0  56    5.57   356.4    8.9      26.379
2014   10       20     1   2    5.57   356.4    8.9      26.387
2014   10       20     1   7    5.58   356.3    9.0      26.395
2014   10       20     1  13    5.58   356.3    9.0      26.403
2014   10       20     1  19    5.58   356.2    9.0      26.411
2014   10       20     1  24    5.59   356.2    9.0      26.419
2014   10       20     1  30    5.59   356.1    9.0      26.428
2014   10       20     1  35    5.60   356.1    9.0      26.436
2014   10       20     1  41    5.60   356.0    9.0      26.444
2014   10       20     1  47    5.61   356.0    9.0      26.453
2014   10       20     1  52    5.61   355.9    9.0      26.461
2014   10       20     1  58    5.62   355.9    9.0      26.470
2014   10       20     2   3    5.62   355.8    9.0      26.479
2014   10       20     2   9    5.63   355.8    9.0      26.488
2014   10       20     2  15    5.63   355.7    9.0      26.496
2014   10       20     2  20    5.64   355.7    9.0      26.505
2014   10       20     2  26    5.64   355.6    9.0      26.514
2014   10       20     2  31    5.65   355.6    9.0      26.523
2014   10       20     2  37    5.65   355.5    9.1      26.533
2014   10       20     2  43    5.66   355.5    9.1      26.542
2014   10       20     2  48    5.66   355.4    9.1      26.551
2014   10       20     2  54    5.67   355.4    9.1      26.561
2014   10       20     3   0    5.67   355.4    9.1      26.570
2014   10       20     3   5    5.68   355.3    9.1      26.580
2014   10       20     3  11    5.68   355.3    9.1      26.590
2014   10       20     3  16    5.69   355.2    9.1      26.599
2014   10       20     3  22    5.69   355.2    9.1      26.609
2014   10       20     3  28    5.70   355.1    9.1      26.619
2014   10       20     3  33    5.70   355.1    9.1      26.629
2014   10       20     3  39    5.71   355.0    9.1      26.639
2014   10       20     3  44    5.71   355.0    9.1      26.649
2014   10       20     3  50    5.72   354.9    9.1      26.660
2014   10       20     3  56    5.72   354.9    9.2      26.670
2014   10       20     4   1    5.73   354.8    9.2      26.681
2014   10       20     4   7    5.74   354.8    9.2      26.691
2014   10       20     4  12    5.74   354.8    9.2      26.702
2014   10       20     4  18    5.75   354.7    9.2      26.713
2014   10       20     4  24    5.75   354.7    9.2      26.724
2014   10       20     4  29    5.76   354.6    9.2      26.735
2014   10       20     4  35    5.76   354.6    9.2      26.746
2014   10       20     4  41    5.77   354.5    9.2      26.757
2014   10       20     4  46    5.77   354.5    9.2      26.768
2014   10       20     4  52    5.78   354.4    9.2      26.780
2014   10       20     4  57    5.78   354.4    9.2      26.791
2014   10       20     5   3    5.79   354.3    9.2      26.803
2014   10       20     5   9    5.79   354.3    9.2      26.815
2014   10       20     5  14    5.80   354.3    9.3      26.827
2014   10       20     5  20    5.81   354.2    9.3      26.839
2014   10       20     5  25    5.81   354.2    9.3      26.851
2014   10       20     5  31    5.82   354.1    9.3      26.863
2014   10       20     5  37    5.82   354.1    9.3      26.876
2014   10       20     5  42    5.83   354.0    9.3      26.889
2014   10       20     5  48    5.83   354.0    9.3      26.901
2014   10       20     5  54    5.84   353.9    9.3      26.914
2014   10       20     5  59    5.85   353.9    9.3      26.927
2014   10       20     6   5    5.85   353.9    9.3      26.940
2014   10       20     6  10    5.86   353.8    9.3      26.954
2014   10       20     6  16    5.86   353.8    9.4      26.967
2014   10       20     6  22    5.87   353.7    9.4      26.981
2014   10       20     6  27    5.88   353.7    9.4      26.994
2014   10       20     6  33    5.88   353.6    9.4      27.008
2014   10       20     6  38    5.89   353.6    9.4      27.022
2014   10       20     6  44    5.89   353.6    9.4      27.037
2014   10       20     6  50    5.90   353.5    9.4      27.051
2014   10       20     6  55    5.91   353.5    9.4      27.065
2014   10       20     7   1    5.91   353.4    9.4      27.080
2014   10       20     7   7    5.92   353.4    9.4      27.095
2014   10       20     7  12    5.92   353.3    9.4      27.110
2014   10       20     7  18    5.93   353.3    9.5      27.125
2014   10       20     7  23    5.94   353.3    9.5      27.140
2014   10       20     7  29    5.94   353.2    9.5      27.156
2014   10       20     7  35    5.95   353.2    9.5      27.171
2014   10       20     7  40    5.96   353.1    9.5      27.187
2014   10       20     7  46    5.96   353.1    9.5      27.203
2014   10       20     7  52    5.97   353.1    9.5      27.219
2014   10       20     7  57    5.98   353.0    9.5      27.235
2014   10       20     8   3    5.98   353.0    9.5      27.251
2014   10       20     8   8    5.99   352.9    9.5      27.268
2014   10       20     8  14    6.00   352.9    9.6      27.285
2014   10       20     8  20    6.00   352.9    9.6      27.301
2014   10       20     8  25    6.01   352.8    9.6      27.318
2014   10       20     8  31    6.02   352.8    9.6      27.335
2014   10       20     8  36    6.02   352.7    9.6      27.352
2014   10       20     8  42    6.03   352.7    9.6      27.369
2014   10       20     8  48    6.04   352.7    9.6      27.387
2014   10       20     8  53    6.05   352.6    9.6      27.404
2014   10       20     8  59    6.05   352.6    9.6      27.422
2014   10       20     9   4    6.06   352.5    9.6      27.439
2014   10       20     9  10    6.07   352.5    9.7      27.457
2014   10       20     9  16    6.07   352.5    9.7      27.475
2014   10       20     9  21    6.08   352.4    9.7      27.493
2014   10       20     9  27    6.09   352.4    9.7      27.511
2014   10       20     9  33    6.10   352.3    9.7      27.529
2014   10       20     9  38    6.10   352.3    9.7      27.547
2014   10       20     9  44    6.11   352.3    9.7      27.566
2014   10       20     9  49    6.12   352.2    9.7      27.584
2014   10       20     9  55    6.13   352.2    9.7      27.602
2014   10       20    10   1    6.13   352.1    9.8      27.621
2014   10       20    10   6    6.14   352.1    9.8      27.640
2014   10       20    10  12    6.15   352.1    9.8      27.658
2014   10       20    10  17    6.16   352.0    9.8      27.677
2014   10       20    10  23    6.16   352.0    9.8      27.696
2014   10       20    10  29    6.17   351.9    9.8      27.715
2014   10       20    10  34    6.18   351.9    9.8      27.733
2014   10       20    10  40    6.19   351.9    9.8      27.752
2014   10       20    10  45    6.19   351.8    9.8      27.771
2014   10       20    10  51    6.20   351.8    9.8      27.790
2014   10       20    10  57    6.21   351.8    9.9      27.809
2014   10       20    11   2    6.22   351.7    9.9      27.828
2014   10       20    11   8    6.22   351.7    9.9      27.847
2014   10       20    11  13    6.23   351.6    9.9      27.866
2014   10       20    11  19    6.24   351.6    9.9      27.885
2014   10       20    11  25    6.25   351.6    9.9      27.904
2014   10       20    11  30    6.26   351.5    9.9      27.923
2014   10       20    11  36    6.27   351.5    9.9      27.942
2014   10       20    11  42    6.27   351.4    9.9      27.961
2014   10       20    11  47    6.28   351.4   10.0      27.980
2014   10       20    11  53    6.29   351.4   10.0      27.999
2014   10       20    11  58    6.30   351.3   10.0      28.018
2014   10       20    12   4    6.31   351.3   10.0      28.037
2014   10       20    12  10    6.32   351.2   10.0      28.056
2014   10       20    12  15    6.32   351.2   10.0      28.075
2014   10       20    12  21    6.33   351.1   10.0      28.094
2014   10       20    12  26    6.34   351.1   10.0      28.113
2014   10       20    12  32    6.35   351.1   10.0      28.132
2014   10       20    12  38    6.36   351.0   10.1      28.151
2014   10       20    12  43    6.37   351.0   10.1      28.170
2014   10       20    12  49    6.38   350.9   10.1      28.190
2014   10       20    12  55    6.39   350.9   10.1      28.209
2014   10       20    13   0    6.39   350.8   10.1      28.229
2014   10       20    13   6    6.40   350.8   10.1      28.248
2014   10       20    13  11    6.41   350.7   10.1      28.268
2014   10       20    13  17    6.42   350.7   10.1      28.289
2014   10       20    13  23    6.43   350.6   10.2      28.309
2014   10       20    13  28    6.44   350.6   10.2      28.330
2014   10       20    13  34    6.45   350.5   10.2      28.351
2014   10       20    13  39    6.46   350.5   10.2      28.373
2014   10       20    13  45    6.47   350.4   10.2      28.395
2014   10       20    13  51    6.48   350.4   10.2      28.419
2014   10       20    13  56    6.49   350.3   10.3      28.442
2014   10       20    14   2    6.50   350.3   10.3      28.467
2014   10       20    14   8    6.51   350.2   10.3      28.492
2014   10       20    14  13    6.52   350.2   10.3      28.518
2014   10       20    14  19    6.53   350.1   10.3      28.545
2014   10       20    14  24    6.54   350.1   10.3      28.572
2014   10       20    14  30    6.56   350.1   10.4      28.601
2014   10       20    14  36    6.57   350.0   10.4      28.630
2014   10       20    14  41    6.58   350.0   10.4      28.661
2014   10       20    14  47    6.59   350.0   10.4      28.692
2014   10       20    14  53    6.60   349.9   10.4      28.725
2014   10       20    14  58    6.61   349.9   10.5      28.758
2014   10       20    15   4    6.62   349.9   10.5      28.793
2014   10       20    15   9    6.63   349.8   10.5      28.828
2014   10       20    15  15    6.65   349.8   10.5      28.865
2014   10       20    15  21    6.66   349.8   10.5      28.902
2014   10       20    15  26    6.67   349.8   10.6      28.941
2014   10       20    15  32    6.68   349.7   10.6      28.981
2014   10       20    15  37    6.69   349.7   10.6      29.021
2014   10       20    15  43    6.70   349.7   10.6      29.063
2014   10       20    15  49    6.72   349.7   10.7      29.106
2014   10       20    15  54    6.73   349.7   10.7      29.150
2014   10       20    16   0    6.74   349.7   10.7      29.195
2014   10       20    16   5    6.75   349.7   10.7      29.241
2014   10       20    16  11    6.76   349.7   10.7      29.288
2014   10       20    16  17    6.77   349.7   10.8      29.336
2014   10       20    16  22    6.79   349.7   10.8      29.384
2014   10       20    16  28    6.80   349.7   10.8      29.434
2014   10       20    16  34    6.81   349.7   10.8      29.483
2014   10       20    16  39    6.82   349.7   10.8      29.533
2014   10       20    16  45    6.83   349.7   10.9      29.582
2014   10       20    16  50    6.85   349.7   10.9      29.632
2014   10       20    16  56    6.86   349.7   10.9      29.681
2014   10       20    17   2    6.87   349.7   10.9      29.731
2014   10       20    17   7    6.88   349.7   10.9      29.779
2014   10       20    17  13    6.90   349.7   11.0      29.828
2014   10       20    17  18    6.91   349.7   11.0      29.875
2014   10       20    17  24    6.92   349.7   11.0      29.923
2014   10       20    17  30    6.93   349.7   11.0      29.971
2014   10       20    17  35    6.95   349.7   11.1      30.018
2014   10       20    17  41    6.96   349.7   11.1      30.065
2014   10       20    17  46    6.97   349.7   11.1      30.112
2014   10       20    17  52    6.98   349.8   11.1      30.158
2014   10       20    17  58    7.00   349.8   11.1      30.205
2014   10       20    18   3    7.01   349.8   11.2      30.251
2014   10       20    18   9    7.02   349.8   11.2      30.297
2014   10       20    18  14    7.04   349.8   11.2      30.343
2014   10       20    18  20    7.05   349.8   11.2      30.389
2014   10       20    18  26    7.06   349.8   11.2      30.435
2014   10       20    18  31    7.08   349.8   11.3      30.481
2014   10       20    18  37    7.09   349.9   11.3      30.527
2014   10       20    18  42    7.11   349.9   11.3      30.573
2014   10       20    18  48    7.12   349.9   11.3      30.619
2014   10       20    18  54    7.14   349.9   11.4      30.665
2014   10       20    18  59    7.15   349.9   11.4      30.712
2014   10       20    19   5    7.17   349.9   11.4      30.759
2014   10       20    19  11    7.18   350.0   11.4      30.806
2014   10       20    19  16    7.20   350.0   11.5      30.854
2014   10       20    19  22    7.21   350.0   11.5      30.902
2014   10       20    19  27    7.23   350.1   11.5      30.951
2014   10       20    19  33    7.24   350.1   11.5      31.000
2014   10       20    19  39    7.26   350.1   11.6      31.050
2014   10       20    19  44    7.28   350.2   11.6      31.101
2014   10       20    19  50    7.29   350.2   11.6      31.154
2014   10       20    19  56    7.31   350.3   11.7      31.209
2014   10       20    20   1    7.33   350.3   11.7      31.266
2014   10       20    20   7    7.35   350.3   11.7      31.323
2014   10       20    20  12    7.36   350.4   11.8      31.383
2014   10       20    20  18    7.38   350.5   11.8      31.444
2014   10       20    20  24    7.40   350.5   11.8      31.508
2014   10       20    20  29    7.42   350.6   11.9      31.573
2014   10       20    20  35    7.44   350.7   11.9      31.642
2014   10       20    20  40    7.45   350.8   11.9      31.714
2014   10       20    20  46    7.47   350.8   12.0      31.790
2014   10       20    20  52    7.49   350.9   12.0      31.869
2014   10       20    20  57    7.51   351.0   12.0      31.951
2014   10       20    21   3    7.53   351.1   12.1      32.036
2014   10       20    21   9    7.54   351.2   12.1      32.123
2014   10       20    21  14    7.56   351.3   12.1      32.212
2014   10       20    21  20    7.58   351.4   12.2      32.303
2014   10       20    21  25    7.60   351.5   12.2      32.394
2014   10       20    21  31    7.62   351.6   12.2      32.483
2014   10       20    21  37    7.63   351.7   12.3      32.572
2014   10       20    21  42    7.65   351.8   12.3      32.661
2014   10       20    21  48    7.67   351.9   12.3      32.750
2014   10       20    21  53    7.69   352.0   12.3      32.838
2014   10       20    21  59    7.70   352.1   12.4      32.926
2014   10       20    22   5    7.72   352.2   12.4      33.014
2014   10       20    22  10    7.74   352.3   12.4      33.102
2014   10       20    22  16    7.76   352.4   12.5      33.190
2014   10       20    22  22    7.77   352.5   12.5      33.278
2014   10       20    22  27    7.79   352.6   12.5      33.366
2014   10       20    22  33    7.81   352.7   12.5      33.453
2014   10       20    22  38    7.82   352.8   12.6      33.541
2014   10       20    22  44    7.84   352.9   12.6      33.629
2014   10       20    22  50    7.86   353.0   12.6      33.717
2014   10       20    22  55    7.88   353.2   12.7      33.805
2014   10       20    23   1    7.89   353.3   12.7      33.893
2014   10       20    23   6    7.91   353.4   12.7      33.982
2014   10       20    23  12    7.93   353.5   12.7      34.070
2014   10       20    23  18    7.95   353.6   12.8      34.159
2014   10       20    23  23    7.96   353.7   12.8      34.248
2014   10       20    23  29    7.98   353.8   12.8      34.338
2014   10       20    23  35    8.00   354.0   12.8      34.428
2014   10       20    23  40    8.01   354.1   12.9      34.518
2014   10       20    23  46    8.03   354.2   12.9      34.608
2014   10       20    23  51    8.05   354.3   12.9      34.697
2014   10       20    23  57    8.07   354.4   12.9      34.787
2014   10       21     0   3    8.08   354.6   12.9      34.876
2014   10       21     0   8    8.10   354.7   13.0      34.965
2014   10       21     0  14    8.12   354.8   13.0      35.054
2014   10       21     0  19    8.13   354.9   13.0      35.142
2014   10       21     0  25    8.15   355.0   13.0      35.229
2014   10       21     0  31    8.17   355.2   13.1      35.315
2014   10       21     0  36    8.18   355.3   13.1      35.401
2014   10       21     0  42    8.20   355.4   13.1      35.486
2014   10       21     0  47    8.22   355.5   13.1      35.571
2014   10       21     0  53    8.24   355.7   13.1      35.655
2014   10       21     0  59    8.25   355.8   13.2      35.739
2014   10       21     1   4    8.27   355.9   13.2      35.822
2014   10       21     1  10    8.29   356.0   13.2      35.906
2014   10       21     1  15    8.31   356.2   13.2      35.988
2014   10       21     1  21    8.32   356.3   13.2      36.071
2014   10       21     1  27    8.34   356.4   13.3      36.153
2014   10       21     1  32    8.36   356.5   13.3      36.236
2014   10       21     1  38    8.38   356.7   13.3      36.318
2014   10       21     1  43    8.40   356.8   13.3      36.400
2014   10       21     1  49    8.41   356.9   13.4      36.483
2014   10       21     1  55    8.43   357.1   13.4      36.566
2014   10       21     2   0    8.45   357.2   13.4      36.649
2014   10       21     2   6    8.47   357.3   13.4      36.733
2014   10       21     2  12    8.49   357.5   13.5      36.818
2014   10       21     2  17    8.51   357.6   13.5      36.903
2014   10       21     2  23    8.53   357.8   13.5      36.990
2014   10       21     2  28    8.55   357.9   13.5      37.077
2014   10       21     2  34    8.57   358.1   13.6      37.166
2014   10       21     2  40    8.59   358.2   13.6      37.256
2014   10       21     2  45    8.61   358.4   13.6      37.348
2014   10       21     2  51    8.63   358.6   13.7      37.442
2014   10       21     2  56    8.66   358.7   13.7      37.539
2014   10       21     3   2    8.68   358.9   13.7      37.638
2014   10       21     3   8    8.70   359.1   13.8      37.741
2014   10       21     3  13    8.72   359.3   13.8      37.847
2014   10       21     3  19    8.75   359.5   13.9      37.956
2014   10       21     3  25    8.77   359.7   13.9      38.067
2014   10       21     3  30    8.79   359.9   14.0      38.183
2014   10       21     3  36    8.82   360.1   14.0      38.303
2014   10       21     3  41    8.84   360.3   14.1      38.431
2014   10       21     3  47    8.87   360.6   14.1      38.564
2014   10       21     3  53    8.89   360.8   14.2      38.706
2014   10       21     3  58    8.92   361.1   14.2      38.854
2014   10       21     4   4    8.94   361.4   14.3      39.008
2014   10       21     4  10    8.97   361.7   14.3      39.169
2014   10       21     4  15    8.99   362.0   14.4      39.337
2014   10       21     4  21    9.02   362.3   14.4      39.512
2014   10       21     4  26    9.05   362.6   14.5      39.696
2014   10       21     4  32    9.07   363.0   14.5      39.887
2014   10       21     4  38    9.10   363.3   14.6      40.083
2014   10       21     4  43    9.12   363.7   14.6      40.285
2014   10       21     4  49    9.15   364.0   14.7      40.491
2014   10       21     4  54    9.17   364.4   14.7      40.701
2014   10       21     5   0    9.20   364.8   14.8      40.915
2014   10       21     5   6    9.22   365.1   14.8      41.126
2014   10       21     5  11    9.24   365.5   14.8      41.334
2014   10       21     5  17    9.27   365.8   14.9      41.539
2014   10       21     5  23    9.29   366.2   14.9      41.741
2014   10       21     5  28    9.31   366.6   14.9      41.938
2014   10       21     5  34    9.33   366.9   15.0      42.132
2014   10       21     5  39    9.35   367.3   15.0      42.322
2014   10       21     5  45    9.37   367.6   15.0      42.510
2014   10       21     5  51    9.39   368.0   15.0      42.692
2014   10       21     5  56    9.41   368.3   15.0      42.872
2014   10       21     6   2    9.43   368.6   15.1      43.047
2014   10       21     6   7    9.44   369.0   15.1      43.218
2014   10       21     6  13    9.46   369.3   15.1      43.386
2014   10       21     6  19    9.48   369.7   15.1      43.551
2014   10       21     6  24    9.50   370.0   15.1      43.711
2014   10       21     6  30    9.51   370.3   15.1      43.868
2014   10       21     6  36    9.53   370.6   15.1      44.022
2014   10       21     6  41    9.55   370.9   15.1      44.173
2014   10       21     6  47    9.56   371.3   15.1      44.319
2014   10       21     6  52    9.58   371.6   15.1      44.464
2014   10       21     6  58    9.59   371.9   15.1      44.605
2014   10       21     7   4    9.61   372.2   15.1      44.743
2014   10       21     7   9    9.62   372.5   15.1      44.878
2014   10       21     7  15    9.64   372.7   15.1      45.011
2014   10       21     7  20    9.65   373.0   15.1      45.141
2014   10       21     7  26    9.67   373.3   15.1      45.269
2014   10       21     7  32    9.68   373.6   15.1      45.394
2014   10       21     7  37    9.70   373.8   15.1      45.518
2014   10       21     7  43    9.71   374.1   15.1      45.639
2014   10       21     7  48    9.73   374.3   15.1      45.759
2014   10       21     7  54    9.74   374.6   15.1      45.877
2014   10       21     8   0    9.76   374.8   15.1      45.995
2014   10       21     8   5    9.77   375.1   15.1      46.110
2014   10       21     8  11    9.79   375.4   15.1      46.225
2014   10       21     8  16    9.80   375.6   15.1      46.337
2014   10       21     8  22    9.82   375.9   15.1      46.448
2014   10       21     8  28    9.83   376.1   15.1      46.557
2014   10       21     8  33    9.85   376.4   15.0      46.666
2014   10       21     8  39    9.86   376.7   15.0      46.772
2014   10       21     8  45    9.88   376.9   15.0      46.877
2014   10       21     8  50    9.89   377.2   15.0      46.981
2014   10       21     8  56    9.91   377.5   15.0      47.083
2014   10       21     9   1    9.92   377.7   15.0      47.184
2014   10       21     9   7    9.94   378.0   15.0      47.283
2014   10       21     9  13    9.95   378.3   15.0      47.382
2014   10       21     9  18    9.97   378.6   15.0      47.480
2014   10       21     9  24    9.98   378.8   15.0      47.576
2014   10       21     9  29   10.00   379.1   15.0      47.671
2014   10       21     9  35   10.01   379.3   15.0      47.764
2014   10       21     9  41   10.03   379.5   15.0      47.856
2014   10       21     9  46   10.04   379.8   15.0      47.948
2014   10       21     9  52   10.06   380.0   15.0      48.040
2014   10       21     9  57   10.08   380.2   15.0      48.132
2014   10       21    10   3   10.09   380.4   15.0      48.225
2014   10       21    10   9   10.11   380.6   15.0      48.321
2014   10       21    10  14   10.13   380.8   15.0      48.419
2014   10       21    10  20   10.14   381.0   15.0      48.523
2014   10       21    10  26   10.16   381.3   15.0      48.631
2014   10       21    10  31   10.18   381.5   15.0      48.744
2014   10       21    10  37   10.20   381.7   15.0      48.862
2014   10       21    10  42   10.22   382.0   15.0      48.986
2014   10       21    10  48   10.24   382.3   15.0      49.116
2014   10       21    10  54   10.26   382.6   15.1      49.255
2014   10       21    10  59   10.28   382.9   15.1      49.402
2014   10       21    11   5   10.31   383.2   15.1      49.556
2014   10       21    11  11   10.33   383.5   15.1      49.719
2014   10       21    11  16   10.35   383.9   15.2      49.890
2014   10       21    11  22   10.38   384.2   15.2      50.070
2014   10       21    11  27   10.40   384.6   15.2      50.258
2014   10       21    11  33   10.43   385.0   15.3      50.454
2014   10       21    11  39   10.46   385.4   15.3      50.661
2014   10       21    11  44   10.48   385.8   15.4      50.875
2014   10       21    11  50   10.51   386.2   15.4      51.097
2014   10       21    11  55   10.54   386.7   15.5      51.332
2014   10       21    12   1   10.56   387.2   15.5      51.577
2014   10       21    12   7   10.59   387.7   15.6      51.831
2014   10       21    12  12   10.62   388.2   15.6      52.093
2014   10       21    12  18   10.64   388.7   15.7      52.361
2014   10       21    12  24   10.66   389.3   15.7      52.630
2014   10       21    12  29   10.69   389.8   15.7      52.901
2014   10       21    12  35   10.71   390.4   15.8      53.169
2014   10       21    12  40   10.73   391.0   15.8      53.433
2014   10       21    12  46   10.75   391.5   15.8      53.691
2014   10       21    12  52   10.77   392.1   15.9      53.946
2014   10       21    12  57   10.79   392.7   15.9      54.195
2014   10       21    13   3   10.80   393.2   15.9      54.440
2014   10       21    13   8   10.82   393.8   15.9      54.680
2014   10       21    13  14   10.84   394.4   15.9      54.916
2014   10       21    13  20   10.85   395.0   15.9      55.146
2014   10       21    13  25   10.86   395.5   15.9      55.373
2014   10       21    13  31   10.88   396.1   15.9      55.595
2014   10       21    13  37   10.89   396.6   15.9      55.813
2014   10       21    13  42   10.90   397.2   15.9      56.029
2014   10       21    13  48   10.91   397.8   15.9      56.242
2014   10       21    13  53   10.92   398.3   15.9      56.452
2014   10       21    13  59   10.93   398.8   15.9      56.660
2014   10       21    14   5   10.94   399.4   15.9      56.866
2014   10       21    14  10   10.95   399.9   15.8      57.071
2014   10       21    14  16   10.96   400.4   15.8      57.275
2014   10       21    14  21   10.97   401.0   15.8      57.478
2014   10       21    14  27   10.98   401.5   15.8      57.680
2014   10       21    14  33   10.99   402.0   15.8      57.883
2014   10       21    14  38   11.00   402.5   15.8      58.084
2014   10       21    14  44   11.01   403.0   15.7      58.287
2014   10       21    14  49   11.02   403.5   15.7      58.490
2014   10       21    14  55   11.03   404.0   15.7      58.694
2014   10       21    15   1   11.04   404.5   15.7      58.899
2014   10       21    15   6   11.05   405.0   15.7      59.105
2014   10       21    15  12   11.07   405.5   15.6      59.313
2014   10       21    15  17   11.08   406.0   15.6      59.523
2014   10       21    15  23   11.09   406.5   15.6      59.737
2014   10       21    15  29   11.10   407.0   15.6      59.952
2014   10       21    15  34   11.11   407.6   15.5      60.170
2014   10       21    15  40   11.12   408.1   15.5      60.390
2014   10       21    15  46   11.13   408.6   15.5      60.611
2014   10       21    15  51   11.14   409.1   15.5      60.833
2014   10       21    15  57   11.15   409.7   15.4      61.056
2014   10       21    16   2   11.17   410.2   15.4      61.278
2014   10       21    16   8   11.18   410.8   15.4      61.498
2014   10       21    16  14   11.19   411.3   15.3      61.717
2014   10       21    16  19   11.20   411.9   15.3      61.935
2014   10       21    16  25   11.21   412.4   15.3      62.151
2014   10       21    16  30   11.23   413.0   15.3      62.364
2014   10       21    16  36   11.24   413.5   15.2      62.576
2014   10       21    16  42   11.25   414.1   15.2      62.783
2014   10       21    16  47   11.26   414.6   15.2      62.988
2014   10       21    16  53   11.27   415.1   15.1      63.189
2014   10       21    16  58   11.28   415.6   15.1      63.386
2014   10       21    17   4   11.30   416.2   15.1      63.580
2014   10       21    17  10   11.31   416.7   15.1      63.771
2014   10       21    17  15   11.32   417.2   15.0      63.959
2014   10       21    17  21   11.33   417.7   15.0      64.145
2014   10       21    17  27   11.35   418.3   15.0      64.330
2014   10       21    17  32   11.36   418.8   14.9      64.515
2014   10       21    17  38   11.37   419.4   14.9      64.698
2014   10       21    17  43   11.38   419.9   14.9      64.881
2014   10       21    17  49   11.40   420.5   14.9      65.063
2014   10       21    17  55   11.41   421.1   14.8      65.245
2014   10       21    18   0   11.42   421.7   14.8      65.426
2014   10       21    18   6   11.44   422.3   14.8      65.608
2014   10       21    18  11   11.45   422.9   14.8      65.790
2014   10       21    18  17   11.46   423.6   14.8      65.972
2014   10       21    18  23   11.48   424.2   14.7      66.151
2014   10       21    18  28   11.49   424.8   14.7      66.330
2014   10       21    18  34   11.51   425.5   14.7      66.509
2014   10       21    18  40   11.52   426.2   14.7      66.690
2014   10       21    18  45   11.54   426.9   14.7      66.871
2014   10       21    18  51   11.55   427.5   14.6      67.052
2014   10       21    18  56   11.57   428.2   14.6      67.231
2014   10       21    19   2   11.58   428.9   14.6      67.411
2014   10       21    19   8   11.59   429.6   14.6      67.589
2014   10       21    19  13   11.61   430.3   14.6      67.771
2014   10       21    19  19   11.62   431.0   14.6      67.956
2014   10       21    19  25   11.63   431.7   14.6      68.145
2014   10       21    19  30   11.64   432.4   14.6      68.335
2014   10       21    19  36   11.65   433.1   14.5      68.523
2014   10       21    19  41   11.66   433.8   14.5      68.710
2014   10       21    19  47   11.67   434.6   14.5      68.900
2014   10       21    19  53   11.68   435.3   14.5      69.088
2014   10       21    19  58   11.68   436.0   14.5      69.274
2014   10       21    20   4   11.69   436.7   14.4      69.455
2014   10       21    20   9   11.70   437.5   14.4      69.632
2014   10       21    20  15   11.70   438.2   14.4      69.809
2014   10       21    20  21   11.70   438.9   14.4      69.989
2014   10       21    20  26   11.71   439.6   14.3      70.171
2014   10       21    20  32   11.71   440.4   14.3      70.355
2014   10       21    20  38   11.72   441.1   14.3      70.540
2014   10       21    20  43   11.72   441.8   14.3      70.726
2014   10       21    20  49   11.72   442.6   14.2      70.914
2014   10       21    20  54   11.73   443.4   14.2      71.103
2014   10       21    21   0   11.73   444.1   14.2      71.293
2014   10       21    21   6   11.73   444.9   14.1      71.486
2014   10       21    21  11   11.73   445.6   14.1      71.680
2014   10       21    21  17   11.74   446.4   14.1      71.876
2014   10       21    21  22   11.74   447.2   14.0      72.073
2014   10       21    21  28   11.74   447.9   14.0      72.273
2014   10       21    21  34   11.75   448.7   14.0      72.474
2014   10       21    21  39   11.75   449.4   13.9      72.678
2014   10       21    21  45   11.75   450.2   13.9      72.883
2014   10       21    21  50   11.75   451.0   13.8      73.090
2014   10       21    21  56   11.76   451.7   13.8      73.299
2014   10       21    22   2   11.76   452.5   13.8      73.512
2014   10       21    22   7   11.76   453.3   13.7      73.728
2014   10       21    22  13   11.76   454.0   13.7      73.946
2014   10       21    22  18   11.77   454.8   13.6      74.167
2014   10       21    22  24   11.77   455.6   13.6      74.392
2014   10       21    22  30   11.77   456.4   13.6      74.620
2014   10       21    22  35   11.77   457.2   13.5      74.851
2014   10       21    22  41   11.78   458.0   13.5      75.086
2014   10       21    22  47   11.78   458.8   13.4      75.325
2014   10       21    22  52   11.78   459.6   13.4      75.566
2014   10       21    22  58   11.78   460.4   13.3      75.809
2014   10       21    23   3   11.79   461.2   13.3      76.055
2014   10       21    23   9   11.79   462.0   13.2      76.300
2014   10       21    23  15   11.79   462.8   13.2      76.546
2014   10       21    23  20   11.79   463.6   13.1      76.790
2014   10       21    23  26   11.80   464.4   13.1      77.030
2014   10       21    23  31   11.80   465.3   13.0      77.267
2014   10       21    23  37   11.80   466.1   13.0      77.500
2014   10       21    23  43   11.80   467.0   12.9      77.730
2014   10       21    23  48   11.80   467.8   12.9      77.955
2014   10       21    23  54   11.80   468.7   12.8      78.174
2014   10       21    23  59   11.80   469.5   12.8      78.385
2014   10       22     0   5   11.80   470.4   12.7      78.590
