year    month   day   hour  minute  B_enl V_enl   n_enl       T_enl
[year] [month] [day] [hour][minute] [nT]  [km/s]  [cm-3]      [kK]
2014   10       14     0   4    5.76   455.6    7.0      42.664
2014   10       14     0  10    5.76   455.7    7.0      42.673
2014   10       14     0  16    5.76   455.8    7.0      42.683
2014   10       14     0  22    5.76   455.9    7.0      42.694
2014   10       14     0  28    5.76   456.0    7.0      42.704
2014   10       14     0  33    5.76   456.1    6.9      42.716
2014   10       14     0  39    5.76   456.3    6.9      42.728
2014   10       14     0  45    5.76   456.4    6.9      42.740
2014   10       14     0  51    5.76   456.5    6.9      42.754
2014   10       14     0  57    5.76   456.6    6.9      42.769
2014   10       14     1   3    5.76   456.7    6.9      42.785
2014   10       14     1   9    5.76   456.9    6.9      42.801
2014   10       14     1  14    5.76   457.0    6.9      42.819
2014   10       14     1  20    5.76   457.1    6.9      42.836
2014   10       14     1  26    5.76   457.2    6.9      42.854
2014   10       14     1  32    5.76   457.4    6.9      42.870
2014   10       14     1  38    5.76   457.5    6.9      42.886
2014   10       14     1  44    5.76   457.6    6.9      42.902
2014   10       14     1  50    5.76   457.7    6.9      42.917
2014   10       14     1  55    5.76   457.9    6.9      42.932
2014   10       14     2   1    5.76   458.0    6.9      42.947
2014   10       14     2   7    5.76   458.1    6.9      42.960
2014   10       14     2  13    5.76   458.2    6.9      42.974
2014   10       14     2  19    5.76   458.4    6.9      42.987
2014   10       14     2  25    5.76   458.5    6.9      42.999
2014   10       14     2  30    5.76   458.6    6.9      43.012
2014   10       14     2  36    5.76   458.7    6.9      43.024
2014   10       14     2  42    5.76   458.8    6.9      43.035
2014   10       14     2  48    5.76   459.0    6.9      43.047
2014   10       14     2  54    5.76   459.1    6.9      43.058
2014   10       14     3   0    5.76   459.2    6.9      43.069
2014   10       14     3   5    5.76   459.3    6.9      43.079
2014   10       14     3  11    5.76   459.5    6.9      43.089
2014   10       14     3  17    5.76   459.6    6.9      43.099
2014   10       14     3  23    5.76   459.7    6.8      43.109
2014   10       14     3  29    5.76   459.8    6.8      43.119
2014   10       14     3  35    5.76   459.9    6.8      43.128
2014   10       14     3  41    5.76   460.1    6.8      43.137
2014   10       14     3  46    5.76   460.2    6.8      43.146
2014   10       14     3  52    5.76   460.3    6.8      43.155
2014   10       14     3  58    5.76   460.4    6.8      43.163
2014   10       14     4   4    5.76   460.5    6.8      43.172
2014   10       14     4  10    5.76   460.7    6.8      43.180
2014   10       14     4  16    5.76   460.8    6.8      43.188
2014   10       14     4  21    5.76   460.9    6.8      43.196
2014   10       14     4  27    5.76   461.0    6.8      43.203
2014   10       14     4  33    5.76   461.1    6.8      43.211
2014   10       14     4  39    5.76   461.3    6.8      43.218
2014   10       14     4  45    5.75   461.4    6.8      43.225
2014   10       14     4  51    5.75   461.5    6.8      43.232
2014   10       14     4  56    5.75   461.6    6.8      43.238
2014   10       14     5   2    5.75   461.7    6.8      43.245
2014   10       14     5   8    5.75   461.9    6.8      43.252
2014   10       14     5  14    5.75   462.0    6.8      43.258
2014   10       14     5  20    5.75   462.1    6.7      43.264
2014   10       14     5  26    5.75   462.2    6.7      43.270
2014   10       14     5  31    5.75   462.3    6.7      43.276
2014   10       14     5  37    5.75   462.4    6.7      43.282
2014   10       14     5  43    5.75   462.5    6.7      43.288
2014   10       14     5  49    5.75   462.7    6.7      43.294
2014   10       14     5  55    5.75   462.8    6.7      43.299
2014   10       14     6   1    5.75   462.9    6.7      43.305
2014   10       14     6   6    5.75   463.0    6.7      43.310
2014   10       14     6  12    5.75   463.1    6.7      43.316
2014   10       14     6  18    5.75   463.2    6.7      43.321
2014   10       14     6  24    5.75   463.3    6.7      43.326
2014   10       14     6  30    5.75   463.5    6.7      43.332
2014   10       14     6  36    5.75   463.6    6.7      43.337
2014   10       14     6  42    5.75   463.7    6.7      43.342
2014   10       14     6  47    5.75   463.8    6.7      43.347
2014   10       14     6  53    5.75   463.9    6.7      43.353
2014   10       14     6  59    5.75   464.0    6.7      43.358
2014   10       14     7   5    5.75   464.1    6.7      43.363
2014   10       14     7  11    5.75   464.3    6.7      43.368
2014   10       14     7  17    5.75   464.4    6.6      43.374
2014   10       14     7  22    5.75   464.5    6.6      43.379
2014   10       14     7  28    5.74   464.6    6.6      43.384
2014   10       14     7  34    5.74   464.7    6.6      43.389
2014   10       14     7  40    5.74   464.8    6.6      43.394
2014   10       14     7  46    5.74   464.9    6.6      43.399
2014   10       14     7  52    5.74   465.0    6.6      43.404
2014   10       14     7  57    5.74   465.1    6.6      43.408
2014   10       14     8   3    5.74   465.2    6.6      43.413
2014   10       14     8   9    5.74   465.4    6.6      43.418
2014   10       14     8  15    5.74   465.5    6.6      43.423
2014   10       14     8  21    5.74   465.6    6.6      43.428
2014   10       14     8  27    5.74   465.7    6.6      43.433
2014   10       14     8  33    5.74   465.8    6.6      43.438
2014   10       14     8  38    5.74   465.9    6.6      43.443
2014   10       14     8  44    5.74   466.0    6.6      43.448
2014   10       14     8  50    5.74   466.1    6.6      43.453
2014   10       14     8  56    5.74   466.2    6.6      43.459
2014   10       14     9   2    5.74   466.3    6.6      43.464
2014   10       14     9   8    5.74   466.4    6.6      43.470
2014   10       14     9  13    5.74   466.5    6.6      43.476
2014   10       14     9  19    5.74   466.6    6.5      43.482
2014   10       14     9  25    5.74   466.7    6.5      43.489
2014   10       14     9  31    5.74   466.8    6.5      43.495
2014   10       14     9  37    5.74   466.9    6.5      43.502
2014   10       14     9  43    5.74   467.0    6.5      43.509
2014   10       14     9  49    5.74   467.1    6.5      43.517
2014   10       14     9  54    5.74   467.2    6.5      43.525
2014   10       14    10   0    5.74   467.3    6.5      43.533
2014   10       14    10   6    5.74   467.4    6.5      43.541
2014   10       14    10  12    5.74   467.5    6.5      43.550
2014   10       14    10  18    5.74   467.6    6.5      43.559
2014   10       14    10  24    5.74   467.7    6.5      43.568
2014   10       14    10  29    5.74   467.8    6.5      43.578
2014   10       14    10  35    5.74   467.9    6.5      43.588
2014   10       14    10  41    5.74   468.0    6.5      43.598
2014   10       14    10  47    5.74   468.1    6.5      43.608
2014   10       14    10  53    5.74   468.2    6.5      43.619
2014   10       14    10  59    5.74   468.3    6.5      43.630
2014   10       14    11   4    5.74   468.4    6.5      43.642
2014   10       14    11  10    5.74   468.5    6.5      43.653
2014   10       14    11  16    5.74   468.6    6.5      43.665
2014   10       14    11  22    5.74   468.7    6.5      43.677
2014   10       14    11  28    5.74   468.8    6.5      43.690
2014   10       14    11  34    5.74   468.9    6.5      43.702
2014   10       14    11  39    5.74   469.0    6.5      43.715
2014   10       14    11  45    5.74   469.1    6.5      43.728
2014   10       14    11  51    5.74   469.2    6.5      43.741
2014   10       14    11  57    5.74   469.3    6.4      43.755
2014   10       14    12   3    5.74   469.4    6.4      43.768
2014   10       14    12   9    5.74   469.5    6.4      43.782
2014   10       14    12  15    5.74   469.6    6.4      43.796
2014   10       14    12  20    5.74   469.7    6.4      43.811
2014   10       14    12  26    5.74   469.8    6.4      43.826
2014   10       14    12  32    5.74   469.9    6.4      43.841
2014   10       14    12  38    5.74   470.0    6.4      43.856
2014   10       14    12  44    5.74   470.1    6.4      43.872
2014   10       14    12  50    5.74   470.2    6.4      43.888
2014   10       14    12  55    5.74   470.3    6.4      43.905
2014   10       14    13   1    5.74   470.4    6.4      43.922
2014   10       14    13   7    5.74   470.5    6.4      43.940
2014   10       14    13  13    5.74   470.6    6.4      43.958
2014   10       14    13  19    5.74   470.7    6.4      43.976
2014   10       14    13  25    5.74   470.8    6.4      43.994
2014   10       14    13  30    5.74   470.9    6.4      44.011
2014   10       14    13  36    5.74   471.0    6.4      44.028
2014   10       14    13  42    5.74   471.1    6.4      44.045
2014   10       14    13  48    5.74   471.2    6.4      44.061
2014   10       14    13  54    5.74   471.3    6.4      44.077
2014   10       14    14   0    5.74   471.5    6.4      44.092
2014   10       14    14   5    5.74   471.6    6.4      44.108
2014   10       14    14  11    5.74   471.7    6.4      44.123
2014   10       14    14  17    5.74   471.8    6.4      44.137
2014   10       14    14  23    5.74   471.9    6.4      44.151
2014   10       14    14  29    5.74   472.0    6.4      44.165
2014   10       14    14  35    5.74   472.1    6.4      44.179
2014   10       14    14  40    5.74   472.2    6.4      44.193
2014   10       14    14  46    5.74   472.3    6.4      44.206
2014   10       14    14  52    5.74   472.4    6.4      44.219
2014   10       14    14  58    5.74   472.5    6.4      44.232
2014   10       14    15   4    5.74   472.6    6.4      44.245
2014   10       14    15  10    5.74   472.8    6.4      44.257
2014   10       14    15  16    5.74   472.9    6.4      44.269
2014   10       14    15  21    5.74   473.0    6.3      44.281
2014   10       14    15  27    5.74   473.1    6.3      44.293
2014   10       14    15  33    5.74   473.2    6.3      44.305
2014   10       14    15  39    5.74   473.3    6.3      44.316
2014   10       14    15  45    5.74   473.4    6.3      44.327
2014   10       14    15  51    5.74   473.5    6.3      44.338
2014   10       14    15  56    5.74   473.6    6.3      44.349
2014   10       14    16   2    5.74   473.7    6.3      44.360
2014   10       14    16   8    5.74   473.8    6.3      44.371
2014   10       14    16  14    5.74   473.9    6.3      44.382
2014   10       14    16  20    5.74   474.0    6.3      44.393
2014   10       14    16  26    5.74   474.1    6.3      44.404
2014   10       14    16  32    5.74   474.2    6.3      44.416
2014   10       14    16  37    5.74   474.4    6.3      44.427
2014   10       14    16  43    5.74   474.5    6.3      44.439
2014   10       14    16  49    5.74   474.6    6.3      44.451
2014   10       14    16  55    5.74   474.7    6.3      44.463
2014   10       14    17   1    5.74   474.8    6.3      44.475
2014   10       14    17   7    5.74   474.9    6.3      44.488
2014   10       14    17  12    5.74   475.0    6.3      44.501
2014   10       14    17  18    5.74   475.1    6.3      44.515
2014   10       14    17  24    5.74   475.2    6.3      44.529
2014   10       14    17  30    5.74   475.3    6.3      44.544
2014   10       14    17  36    5.74   475.4    6.3      44.560
2014   10       14    17  42    5.74   475.6    6.3      44.576
2014   10       14    17  48    5.74   475.7    6.3      44.592
2014   10       14    17  53    5.74   475.8    6.3      44.609
2014   10       14    17  59    5.74   475.9    6.3      44.627
2014   10       14    18   5    5.74   476.0    6.3      44.646
2014   10       14    18  11    5.74   476.1    6.3      44.666
2014   10       14    18  17    5.74   476.3    6.3      44.687
2014   10       14    18  23    5.74   476.4    6.3      44.708
2014   10       14    18  28    5.74   476.5    6.3      44.730
2014   10       14    18  34    5.74   476.6    6.3      44.753
2014   10       14    18  40    5.74   476.7    6.3      44.775
2014   10       14    18  46    5.74   476.9    6.3      44.797
2014   10       14    18  52    5.74   477.0    6.2      44.820
2014   10       14    18  58    5.74   477.1    6.2      44.842
2014   10       14    19   3    5.74   477.2    6.2      44.864
2014   10       14    19   9    5.74   477.3    6.2      44.885
2014   10       14    19  15    5.74   477.5    6.2      44.907
2014   10       14    19  21    5.74   477.6    6.2      44.928
2014   10       14    19  27    5.74   477.7    6.2      44.950
2014   10       14    19  33    5.74   477.8    6.2      44.972
2014   10       14    19  38    5.74   477.9    6.2      44.994
2014   10       14    19  44    5.74   478.1    6.2      45.016
2014   10       14    19  50    5.74   478.2    6.2      45.038
2014   10       14    19  56    5.74   478.3    6.2      45.060
2014   10       14    20   2    5.74   478.4    6.2      45.083
2014   10       14    20   8    5.74   478.6    6.2      45.106
2014   10       14    20  14    5.74   478.7    6.2      45.129
2014   10       14    20  19    5.74   478.8    6.2      45.152
2014   10       14    20  25    5.74   478.9    6.2      45.176
2014   10       14    20  31    5.74   479.1    6.2      45.200
2014   10       14    20  37    5.74   479.2    6.2      45.223
2014   10       14    20  43    5.74   479.3    6.2      45.245
2014   10       14    20  49    5.74   479.4    6.2      45.267
2014   10       14    20  54    5.74   479.6    6.2      45.288
2014   10       14    21   0    5.74   479.7    6.2      45.309
2014   10       14    21   6    5.74   479.8    6.2      45.329
2014   10       14    21  12    5.74   479.9    6.2      45.349
2014   10       14    21  18    5.74   480.1    6.2      45.368
2014   10       14    21  24    5.74   480.2    6.2      45.387
2014   10       14    21  29    5.74   480.3    6.2      45.406
2014   10       14    21  35    5.74   480.4    6.2      45.424
2014   10       14    21  41    5.74   480.6    6.2      45.441
2014   10       14    21  47    5.74   480.7    6.2      45.459
2014   10       14    21  53    5.74   480.8    6.2      45.476
2014   10       14    21  59    5.74   480.9    6.2      45.492
2014   10       14    22   4    5.74   481.1    6.2      45.509
2014   10       14    22  10    5.74   481.2    6.2      45.525
2014   10       14    22  16    5.74   481.3    6.2      45.541
2014   10       14    22  22    5.74   481.5    6.2      45.557
2014   10       14    22  28    5.74   481.6    6.2      45.573
2014   10       14    22  34    5.74   481.7    6.2      45.589
2014   10       14    22  40    5.73   481.9    6.1      45.604
2014   10       14    22  45    5.73   482.0    6.1      45.619
2014   10       14    22  51    5.73   482.1    6.1      45.634
2014   10       14    22  57    5.73   482.3    6.1      45.649
2014   10       14    23   3    5.73   482.4    6.1      45.664
2014   10       14    23   9    5.73   482.5    6.1      45.678
2014   10       14    23  15    5.73   482.7    6.1      45.693
2014   10       14    23  20    5.73   482.8    6.1      45.707
2014   10       14    23  26    5.73   482.9    6.1      45.721
2014   10       14    23  32    5.73   483.1    6.1      45.734
2014   10       14    23  38    5.73   483.2    6.1      45.748
2014   10       14    23  44    5.73   483.3    6.1      45.761
2014   10       14    23  50    5.73   483.5    6.1      45.773
2014   10       14    23  56    5.73   483.6    6.1      45.786
2014   10       15     0   1    5.73   483.8    6.1      45.798
2014   10       15     0   7    5.73   483.9    6.1      45.810
2014   10       15     0  13    5.72   484.0    6.1      45.822
2014   10       15     0  19    5.72   484.2    6.1      45.834
2014   10       15     0  25    5.72   484.3    6.1      45.846
2014   10       15     0  31    5.72   484.4    6.1      45.858
2014   10       15     0  36    5.72   484.6    6.1      45.870
2014   10       15     0  42    5.72   484.7    6.1      45.883
2014   10       15     0  48    5.72   484.8    6.1      45.896
2014   10       15     0  54    5.72   485.0    6.1      45.909
2014   10       15     1   0    5.72   485.1    6.1      45.922
2014   10       15     1   5    5.72   485.2    6.1      45.936
2014   10       15     1  11    5.72   485.4    6.1      45.950
2014   10       15     1  17    5.72   485.5    6.1      45.965
2014   10       15     1  22    5.71   485.6    6.1      45.980
2014   10       15     1  28    5.71   485.8    6.1      45.996
2014   10       15     1  34    5.71   485.9    6.1      46.013
2014   10       15     1  40    5.71   486.0    6.1      46.029
2014   10       15     1  45    5.71   486.2    6.0      46.047
2014   10       15     1  51    5.71   486.3    6.0      46.063
2014   10       15     1  57    5.71   486.4    6.0      46.080
2014   10       15     2   2    5.71   486.6    6.0      46.096
2014   10       15     2   8    5.71   486.7    6.0      46.112
2014   10       15     2  14    5.70   486.8    6.0      46.127
2014   10       15     2  20    5.70   487.0    6.0      46.142
2014   10       15     2  25    5.70   487.1    6.0      46.157
2014   10       15     2  31    5.70   487.2    6.0      46.171
2014   10       15     2  37    5.70   487.4    6.0      46.185
2014   10       15     2  43    5.70   487.5    6.0      46.199
2014   10       15     2  48    5.70   487.6    6.0      46.212
2014   10       15     2  54    5.69   487.8    6.0      46.225
2014   10       15     3   0    5.69   487.9    6.0      46.238
2014   10       15     3   5    5.69   488.0    6.0      46.250
2014   10       15     3  11    5.69   488.1    6.0      46.262
2014   10       15     3  17    5.69   488.3    6.0      46.274
2014   10       15     3  23    5.69   488.4    6.0      46.285
2014   10       15     3  28    5.69   488.5    6.0      46.297
2014   10       15     3  34    5.68   488.7    6.0      46.307
2014   10       15     3  40    5.68   488.8    6.0      46.318
2014   10       15     3  46    5.68   488.9    6.0      46.328
2014   10       15     3  51    5.68   489.0    6.0      46.338
2014   10       15     3  57    5.68   489.2    5.9      46.347
2014   10       15     4   3    5.68   489.3    5.9      46.356
2014   10       15     4   9    5.67   489.4    5.9      46.365
2014   10       15     4  14    5.67   489.5    5.9      46.374
2014   10       15     4  20    5.67   489.7    5.9      46.382
2014   10       15     4  26    5.67   489.8    5.9      46.390
2014   10       15     4  32    5.67   489.9    5.9      46.398
2014   10       15     4  37    5.67   490.0    5.9      46.405
2014   10       15     4  43    5.66   490.2    5.9      46.412
2014   10       15     4  49    5.66   490.3    5.9      46.419
2014   10       15     4  55    5.66   490.4    5.9      46.426
2014   10       15     5   0    5.66   490.5    5.9      46.432
2014   10       15     5   6    5.66   490.6    5.9      46.438
2014   10       15     5  12    5.66   490.8    5.9      46.444
2014   10       15     5  17    5.65   490.9    5.9      46.450
2014   10       15     5  23    5.65   491.0    5.9      46.455
2014   10       15     5  29    5.65   491.1    5.9      46.460
2014   10       15     5  35    5.65   491.3    5.9      46.465
2014   10       15     5  40    5.65   491.4    5.9      46.470
2014   10       15     5  46    5.65   491.5    5.9      46.474
2014   10       15     5  52    5.64   491.6    5.9      46.479
2014   10       15     5  58    5.64   491.7    5.8      46.483
2014   10       15     6   3    5.64   491.9    5.8      46.487
2014   10       15     6   9    5.64   492.0    5.8      46.491
2014   10       15     6  15    5.64   492.1    5.8      46.494
2014   10       15     6  21    5.63   492.2    5.8      46.497
2014   10       15     6  26    5.63   492.4    5.8      46.500
2014   10       15     6  32    5.63   492.5    5.8      46.503
2014   10       15     6  38    5.63   492.6    5.8      46.506
2014   10       15     6  44    5.63   492.7    5.8      46.508
2014   10       15     6  49    5.62   492.8    5.8      46.510
2014   10       15     6  55    5.62   493.0    5.8      46.511
2014   10       15     7   1    5.62   493.1    5.8      46.513
2014   10       15     7   6    5.62   493.2    5.8      46.514
2014   10       15     7  12    5.61   493.3    5.8      46.515
2014   10       15     7  18    5.61   493.4    5.8      46.515
2014   10       15     7  24    5.61   493.6    5.8      46.516
2014   10       15     7  29    5.61   493.7    5.8      46.516
2014   10       15     7  35    5.60   493.8    5.8      46.515
2014   10       15     7  41    5.60   493.9    5.8      46.515
2014   10       15     7  46    5.60   494.0    5.8      46.515
2014   10       15     7  52    5.60   494.1    5.8      46.514
2014   10       15     7  58    5.59   494.3    5.8      46.514
2014   10       15     8   3    5.59   494.4    5.8      46.514
2014   10       15     8   9    5.59   494.5    5.8      46.514
2014   10       15     8  15    5.59   494.6    5.7      46.513
2014   10       15     8  20    5.58   494.7    5.7      46.513
2014   10       15     8  26    5.58   494.8    5.7      46.513
2014   10       15     8  32    5.58   494.9    5.7      46.514
2014   10       15     8  38    5.58   495.0    5.7      46.514
2014   10       15     8  43    5.57   495.1    5.7      46.514
2014   10       15     8  49    5.57   495.2    5.7      46.514
2014   10       15     8  55    5.57   495.3    5.7      46.514
2014   10       15     9   1    5.56   495.4    5.7      46.515
2014   10       15     9   7    5.56   495.5    5.7      46.515
2014   10       15     9  13    5.56   495.6    5.7      46.516
2014   10       15     9  18    5.56   495.7    5.7      46.516
2014   10       15     9  24    5.55   495.8    5.7      46.516
2014   10       15     9  30    5.55   495.9    5.7      46.516
2014   10       15     9  36    5.55   496.0    5.7      46.516
2014   10       15     9  42    5.54   496.1    5.7      46.516
2014   10       15     9  47    5.54   496.2    5.7      46.516
2014   10       15     9  53    5.54   496.3    5.7      46.516
2014   10       15     9  59    5.54   496.4    5.7      46.515
2014   10       15    10   5    5.53   496.5    5.7      46.514
2014   10       15    10  11    5.53   496.6    5.7      46.513
2014   10       15    10  17    5.53   496.7    5.6      46.511
2014   10       15    10  22    5.52   496.8    5.6      46.510
2014   10       15    10  28    5.52   496.9    5.6      46.508
2014   10       15    10  34    5.52   497.0    5.6      46.505
2014   10       15    10  40    5.52   497.1    5.6      46.502
2014   10       15    10  46    5.51   497.2    5.6      46.499
2014   10       15    10  52    5.51   497.3    5.6      46.496
2014   10       15    10  57    5.51   497.3    5.6      46.493
2014   10       15    11   3    5.50   497.4    5.6      46.489
2014   10       15    11   9    5.50   497.5    5.6      46.485
2014   10       15    11  15    5.50   497.6    5.6      46.480
2014   10       15    11  21    5.49   497.7    5.6      46.476
2014   10       15    11  27    5.49   497.8    5.6      46.471
2014   10       15    11  32    5.49   497.9    5.6      46.465
2014   10       15    11  38    5.49   498.0    5.6      46.460
2014   10       15    11  44    5.48   498.0    5.6      46.454
2014   10       15    11  50    5.48   498.1    5.6      46.448
2014   10       15    11  56    5.48   498.2    5.6      46.442
2014   10       15    12   2    5.47   498.3    5.6      46.436
2014   10       15    12   7    5.47   498.4    5.6      46.429
2014   10       15    12  13    5.47   498.4    5.5      46.422
2014   10       15    12  19    5.46   498.5    5.5      46.415
2014   10       15    12  25    5.46   498.6    5.5      46.408
2014   10       15    12  31    5.46   498.7    5.5      46.401
2014   10       15    12  36    5.45   498.8    5.5      46.393
2014   10       15    12  42    5.45   498.8    5.5      46.386
2014   10       15    12  48    5.45   498.9    5.5      46.378
2014   10       15    12  54    5.44   499.0    5.5      46.370
2014   10       15    13   0    5.44   499.1    5.5      46.362
2014   10       15    13   6    5.44   499.2    5.5      46.354
2014   10       15    13  11    5.43   499.2    5.5      46.346
2014   10       15    13  17    5.43   499.3    5.5      46.337
2014   10       15    13  23    5.43   499.4    5.5      46.329
2014   10       15    13  29    5.42   499.4    5.5      46.321
2014   10       15    13  35    5.42   499.5    5.5      46.312
2014   10       15    13  41    5.42   499.6    5.5      46.304
2014   10       15    13  46    5.41   499.7    5.5      46.295
2014   10       15    13  52    5.41   499.7    5.5      46.287
2014   10       15    13  58    5.41   499.8    5.5      46.279
2014   10       15    14   4    5.40   499.9    5.5      46.270
2014   10       15    14  10    5.40   500.0    5.5      46.262
2014   10       15    14  16    5.40   500.0    5.5      46.253
2014   10       15    14  22    5.39   500.1    5.5      46.244
2014   10       15    14  27    5.39   500.2    5.4      46.235
2014   10       15    14  33    5.39   500.2    5.4      46.227
2014   10       15    14  39    5.38   500.3    5.4      46.218
2014   10       15    14  45    5.38   500.4    5.4      46.209
2014   10       15    14  51    5.38   500.4    5.4      46.200
2014   10       15    14  57    5.37   500.5    5.4      46.192
2014   10       15    15   2    5.37   500.5    5.4      46.183
2014   10       15    15   8    5.37   500.6    5.4      46.174
2014   10       15    15  14    5.36   500.6    5.4      46.164
2014   10       15    15  20    5.36   500.7    5.4      46.155
2014   10       15    15  26    5.35   500.8    5.4      46.145
2014   10       15    15  32    5.35   500.8    5.4      46.136
2014   10       15    15  38    5.35   500.9    5.4      46.126
2014   10       15    15  43    5.34   500.9    5.4      46.116
2014   10       15    15  49    5.34   501.0    5.4      46.106
2014   10       15    15  55    5.34   501.0    5.4      46.096
2014   10       15    16   1    5.33   501.1    5.4      46.086
2014   10       15    16   7    5.33   501.1    5.4      46.076
2014   10       15    16  12    5.32   501.2    5.4      46.066
2014   10       15    16  18    5.32   501.2    5.4      46.056
2014   10       15    16  24    5.32   501.3    5.4      46.045
2014   10       15    16  30    5.31   501.3    5.4      46.034
2014   10       15    16  36    5.31   501.4    5.4      46.024
2014   10       15    16  42    5.31   501.4    5.4      46.013
2014   10       15    16  47    5.30   501.4    5.3      46.002
2014   10       15    16  53    5.30   501.5    5.3      45.990
2014   10       15    16  59    5.29   501.5    5.3      45.979
2014   10       15    17   5    5.29   501.6    5.3      45.968
2014   10       15    17  11    5.29   501.6    5.3      45.956
2014   10       15    17  17    5.28   501.7    5.3      45.944
2014   10       15    17  22    5.28   501.7    5.3      45.932
2014   10       15    17  28    5.28   501.7    5.3      45.920
2014   10       15    17  34    5.27   501.8    5.3      45.908
2014   10       15    17  40    5.27   501.8    5.3      45.895
2014   10       15    17  46    5.27   501.9    5.3      45.883
2014   10       15    17  51    5.26   501.9    5.3      45.870
2014   10       15    17  57    5.26   501.9    5.3      45.857
2014   10       15    18   3    5.25   502.0    5.3      45.844
2014   10       15    18   9    5.25   502.0    5.3      45.831
2014   10       15    18  15    5.25   502.0    5.3      45.818
2014   10       15    18  21    5.24   502.1    5.3      45.805
2014   10       15    18  26    5.24   502.1    5.3      45.791
2014   10       15    18  32    5.24   502.1    5.3      45.778
2014   10       15    18  38    5.23   502.2    5.3      45.765
2014   10       15    18  44    5.23   502.2    5.3      45.751
2014   10       15    18  50    5.22   502.2    5.3      45.738
2014   10       15    18  56    5.22   502.2    5.2      45.725
2014   10       15    19   1    5.22   502.3    5.2      45.711
2014   10       15    19   7    5.21   502.3    5.2      45.698
2014   10       15    19  13    5.21   502.3    5.2      45.684
2014   10       15    19  19    5.21   502.4    5.2      45.670
2014   10       15    19  25    5.20   502.4    5.2      45.657
2014   10       15    19  31    5.20   502.4    5.2      45.642
2014   10       15    19  36    5.20   502.4    5.2      45.628
2014   10       15    19  42    5.19   502.5    5.2      45.614
2014   10       15    19  48    5.19   502.5    5.2      45.599
2014   10       15    19  54    5.18   502.5    5.2      45.584
2014   10       15    20   0    5.18   502.5    5.2      45.568
2014   10       15    20   6    5.18   502.6    5.2      45.552
2014   10       15    20  11    5.17   502.6    5.2      45.536
2014   10       15    20  17    5.17   502.6    5.2      45.518
2014   10       15    20  23    5.17   502.6    5.2      45.501
2014   10       15    20  29    5.16   502.6    5.2      45.482
2014   10       15    20  35    5.16   502.7    5.2      45.464
2014   10       15    20  41    5.16   502.7    5.2      45.445
2014   10       15    20  46    5.15   502.7    5.2      45.426
2014   10       15    20  52    5.15   502.7    5.2      45.406
2014   10       15    20  58    5.14   502.7    5.2      45.387
2014   10       15    21   4    5.14   502.8    5.2      45.367
2014   10       15    21  10    5.14   502.8    5.2      45.347
2014   10       15    21  16    5.13   502.8    5.2      45.327
2014   10       15    21  21    5.13   502.8    5.1      45.306
2014   10       15    21  27    5.13   502.8    5.1      45.285
2014   10       15    21  33    5.12   502.8    5.1      45.265
2014   10       15    21  39    5.12   502.8    5.1      45.244
2014   10       15    21  45    5.11   502.8    5.1      45.223
2014   10       15    21  51    5.11   502.8    5.1      45.202
2014   10       15    21  56    5.11   502.8    5.1      45.181
2014   10       15    22   2    5.10   502.8    5.1      45.159
2014   10       15    22   8    5.10   502.9    5.1      45.138
2014   10       15    22  14    5.09   502.9    5.1      45.116
2014   10       15    22  20    5.09   502.9    5.1      45.094
2014   10       15    22  26    5.09   502.9    5.1      45.071
2014   10       15    22  32    5.08   502.9    5.1      45.049
2014   10       15    22  37    5.08   502.8    5.1      45.025
2014   10       15    22  43    5.07   502.8    5.1      45.002
2014   10       15    22  49    5.07   502.8    5.1      44.978
2014   10       15    22  55    5.07   502.8    5.1      44.955
2014   10       15    23   1    5.06   502.8    5.1      44.931
2014   10       15    23   7    5.06   502.8    5.1      44.907
2014   10       15    23  12    5.05   502.8    5.1      44.882
2014   10       15    23  18    5.05   502.8    5.1      44.858
2014   10       15    23  24    5.05   502.8    5.1      44.834
2014   10       15    23  30    5.04   502.8    5.1      44.809
2014   10       15    23  36    5.04   502.8    5.1      44.785
2014   10       15    23  42    5.04   502.7    5.0      44.761
2014   10       15    23  47    5.03   502.7    5.0      44.736
2014   10       15    23  53    5.03   502.7    5.0      44.712
2014   10       15    23  59    5.02   502.7    5.0      44.688
2014   10       16     0   5    5.02   502.7    5.0      44.665
2014   10       16     0  11    5.02   502.7    5.0      44.641
2014   10       16     0  16    5.01   502.6    5.0      44.618
2014   10       16     0  22    5.01   502.6    5.0      44.594
2014   10       16     0  28    5.00   502.6    5.0      44.572
2014   10       16     0  34    5.00   502.6    5.0      44.549
2014   10       16     0  40    5.00   502.5    5.0      44.526
2014   10       16     0  46    4.99   502.5    5.0      44.505
2014   10       16     0  51    4.99   502.5    5.0      44.483
2014   10       16     0  57    4.99   502.5    5.0      44.462
2014   10       16     1   3    4.98   502.4    5.0      44.441
2014   10       16     1   9    4.98   502.4    5.0      44.420
2014   10       16     1  15    4.97   502.4    5.0      44.400
2014   10       16     1  21    4.97   502.4    5.0      44.380
2014   10       16     1  26    4.97   502.3    5.0      44.360
2014   10       16     1  32    4.96   502.3    5.0      44.340
2014   10       16     1  38    4.96   502.3    5.0      44.321
2014   10       16     1  44    4.96   502.2    5.0      44.303
2014   10       16     1  50    4.95   502.2    5.0      44.284
2014   10       16     1  56    4.95   502.2    5.0      44.266
2014   10       16     2   1    4.95   502.1    5.0      44.248
2014   10       16     2   7    4.94   502.1    4.9      44.230
2014   10       16     2  13    4.94   502.1    4.9      44.212
2014   10       16     2  19    4.93   502.0    4.9      44.194
2014   10       16     2  25    4.93   502.0    4.9      44.176
2014   10       16     2  30    4.93   501.9    4.9      44.157
2014   10       16     2  36    4.92   501.9    4.9      44.139
2014   10       16     2  42    4.92   501.9    4.9      44.120
2014   10       16     2  48    4.92   501.8    4.9      44.100
2014   10       16     2  54    4.91   501.8    4.9      44.081
2014   10       16     3   0    4.91   501.7    4.9      44.060
2014   10       16     3   5    4.91   501.7    4.9      44.039
2014   10       16     3  11    4.90   501.7    4.9      44.017
2014   10       16     3  17    4.90   501.6    4.9      43.993
2014   10       16     3  23    4.90   501.6    4.9      43.969
2014   10       16     3  29    4.89   501.5    4.9      43.944
2014   10       16     3  35    4.89   501.5    4.9      43.918
2014   10       16     3  40    4.89   501.4    4.9      43.891
2014   10       16     3  46    4.88   501.4    4.9      43.864
2014   10       16     3  52    4.88   501.3    4.9      43.835
2014   10       16     3  58    4.88   501.3    4.9      43.806
2014   10       16     4   4    4.87   501.2    4.9      43.776
2014   10       16     4  10    4.87   501.2    4.9      43.746
2014   10       16     4  15    4.86   501.1    4.9      43.715
2014   10       16     4  21    4.86   501.1    4.9      43.683
2014   10       16     4  27    4.86   501.0    4.9      43.651
2014   10       16     4  33    4.85   500.9    4.9      43.618
2014   10       16     4  39    4.85   500.9    4.9      43.585
2014   10       16     4  45    4.85   500.8    4.8      43.552
2014   10       16     4  51    4.84   500.8    4.8      43.519
2014   10       16     4  56    4.84   500.7    4.8      43.485
2014   10       16     5   2    4.84   500.6    4.8      43.450
2014   10       16     5   8    4.83   500.6    4.8      43.416
2014   10       16     5  14    4.83   500.5    4.8      43.382
2014   10       16     5  20    4.83   500.4    4.8      43.347
2014   10       16     5  26    4.82   500.4    4.8      43.312
2014   10       16     5  31    4.82   500.3    4.8      43.277
2014   10       16     5  37    4.82   500.2    4.8      43.242
2014   10       16     5  43    4.81   500.2    4.8      43.207
2014   10       16     5  49    4.81   500.1    4.8      43.172
2014   10       16     5  55    4.80   500.0    4.8      43.137
2014   10       16     6   1    4.80   500.0    4.8      43.102
2014   10       16     6   6    4.80   499.9    4.8      43.068
2014   10       16     6  12    4.79   499.8    4.8      43.033
2014   10       16     6  18    4.79   499.7    4.8      42.998
2014   10       16     6  24    4.79   499.7    4.8      42.964
2014   10       16     6  30    4.78   499.6    4.8      42.930
2014   10       16     6  36    4.78   499.5    4.8      42.897
2014   10       16     6  41    4.78   499.4    4.8      42.863
2014   10       16     6  47    4.77   499.4    4.8      42.830
2014   10       16     6  53    4.77   499.3    4.8      42.797
2014   10       16     6  59    4.77   499.2    4.8      42.765
2014   10       16     7   5    4.76   499.1    4.8      42.733
2014   10       16     7  11    4.76   499.1    4.8      42.701
2014   10       16     7  16    4.76   499.0    4.8      42.670
2014   10       16     7  22    4.75   498.9    4.8      42.639
2014   10       16     7  28    4.75   498.8    4.8      42.608
2014   10       16     7  34    4.75   498.7    4.8      42.578
2014   10       16     7  40    4.74   498.6    4.8      42.549
2014   10       16     7  46    4.74   498.5    4.8      42.520
2014   10       16     7  51    4.74   498.4    4.8      42.491
2014   10       16     7  57    4.73   498.3    4.8      42.463
2014   10       16     8   3    4.73   498.3    4.8      42.436
2014   10       16     8   9    4.73   498.2    4.8      42.409
2014   10       16     8  15    4.72   498.1    4.8      42.383
2014   10       16     8  20    4.72   498.0    4.8      42.357
2014   10       16     8  26    4.72   497.9    4.8      42.331
2014   10       16     8  32    4.71   497.8    4.7      42.307
2014   10       16     8  38    4.71   497.7    4.7      42.283
2014   10       16     8  44    4.71   497.6    4.7      42.259
2014   10       16     8  50    4.71   497.5    4.7      42.236
2014   10       16     8  55    4.70   497.4    4.7      42.213
2014   10       16     9   1    4.70   497.3    4.7      42.190
2014   10       16     9   7    4.70   497.2    4.7      42.168
2014   10       16     9  13    4.69   497.1    4.7      42.146
2014   10       16     9  19    4.69   497.0    4.7      42.124
2014   10       16     9  25    4.69   496.9    4.7      42.103
2014   10       16     9  30    4.68   496.8    4.7      42.081
2014   10       16     9  36    4.68   496.7    4.7      42.060
2014   10       16     9  42    4.68   496.6    4.7      42.038
2014   10       16     9  48    4.68   496.5    4.7      42.017
2014   10       16     9  54    4.67   496.4    4.7      41.995
2014   10       16    10   0    4.67   496.3    4.7      41.973
2014   10       16    10   5    4.67   496.2    4.7      41.951
2014   10       16    10  11    4.66   496.1    4.7      41.929
2014   10       16    10  17    4.66   496.0    4.7      41.906
2014   10       16    10  23    4.66   495.9    4.7      41.883
2014   10       16    10  29    4.66   495.8    4.7      41.859
2014   10       16    10  35    4.65   495.6    4.7      41.834
2014   10       16    10  40    4.65   495.5    4.7      41.809
2014   10       16    10  46    4.65   495.4    4.7      41.783
2014   10       16    10  52    4.64   495.3    4.7      41.757
2014   10       16    10  58    4.64   495.2    4.7      41.730
2014   10       16    11   4    4.64   495.1    4.7      41.703
2014   10       16    11  10    4.64   495.0    4.7      41.674
2014   10       16    11  15    4.63   494.9    4.7      41.645
2014   10       16    11  21    4.63   494.8    4.7      41.616
2014   10       16    11  27    4.63   494.6    4.7      41.586
2014   10       16    11  33    4.63   494.5    4.7      41.556
2014   10       16    11  39    4.62   494.4    4.7      41.524
2014   10       16    11  45    4.62   494.3    4.7      41.493
2014   10       16    11  50    4.62   494.2    4.7      41.461
2014   10       16    11  56    4.61   494.1    4.7      41.428
2014   10       16    12   2    4.61   494.0    4.7      41.395
2014   10       16    12   8    4.61   493.8    4.7      41.361
2014   10       16    12  14    4.61   493.7    4.7      41.328
2014   10       16    12  20    4.60   493.6    4.7      41.294
2014   10       16    12  25    4.60   493.5    4.7      41.259
2014   10       16    12  31    4.60   493.4    4.7      41.225
2014   10       16    12  37    4.59   493.3    4.7      41.190
2014   10       16    12  43    4.59   493.1    4.6      41.155
2014   10       16    12  49    4.59   493.0    4.6      41.120
2014   10       16    12  55    4.59   492.9    4.6      41.085
2014   10       16    13   1    4.58   492.8    4.6      41.050
2014   10       16    13   6    4.58   492.7    4.6      41.015
2014   10       16    13  12    4.58   492.6    4.6      40.980
2014   10       16    13  18    4.58   492.4    4.6      40.945
2014   10       16    13  24    4.57   492.3    4.6      40.910
2014   10       16    13  30    4.57   492.2    4.6      40.875
2014   10       16    13  36    4.57   492.1    4.6      40.840
2014   10       16    13  41    4.57   492.0    4.6      40.806
2014   10       16    13  47    4.56   491.8    4.6      40.771
2014   10       16    13  53    4.56   491.7    4.6      40.736
2014   10       16    13  59    4.56   491.6    4.6      40.702
2014   10       16    14   5    4.55   491.5    4.6      40.667
2014   10       16    14  11    4.55   491.4    4.6      40.633
2014   10       16    14  16    4.55   491.3    4.6      40.599
2014   10       16    14  22    4.55   491.1    4.6      40.565
2014   10       16    14  28    4.54   491.0    4.6      40.531
2014   10       16    14  34    4.54   490.9    4.6      40.497
2014   10       16    14  40    4.54   490.8    4.6      40.464
2014   10       16    14  45    4.54   490.6    4.6      40.430
2014   10       16    14  51    4.53   490.5    4.6      40.397
2014   10       16    14  57    4.53   490.4    4.6      40.364
2014   10       16    15   3    4.53   490.2    4.6      40.332
2014   10       16    15   9    4.53   490.1    4.6      40.300
2014   10       16    15  15    4.52   490.0    4.6      40.269
2014   10       16    15  20    4.52   489.8    4.6      40.238
2014   10       16    15  26    4.52   489.7    4.6      40.208
2014   10       16    15  32    4.52   489.6    4.6      40.178
2014   10       16    15  38    4.51   489.4    4.6      40.149
2014   10       16    15  44    4.51   489.3    4.6      40.121
2014   10       16    15  50    4.51   489.2    4.6      40.094
2014   10       16    15  55    4.51   489.0    4.6      40.068
2014   10       16    16   1    4.50   488.9    4.6      40.043
2014   10       16    16   7    4.50   488.8    4.6      40.018
2014   10       16    16  13    4.50   488.6    4.6      39.995
2014   10       16    16  19    4.50   488.5    4.6      39.973
2014   10       16    16  25    4.50   488.4    4.6      39.952
2014   10       16    16  30    4.49   488.2    4.6      39.933
2014   10       16    16  36    4.49   488.1    4.6      39.915
2014   10       16    16  42    4.49   488.0    4.6      39.898
2014   10       16    16  48    4.49   487.8    4.6      39.882
2014   10       16    16  54    4.49   487.7    4.6      39.867
2014   10       16    16  59    4.48   487.6    4.6      39.853
2014   10       16    17   5    4.48   487.4    4.6      39.841
2014   10       16    17  11    4.48   487.3    4.6      39.829
2014   10       16    17  17    4.48   487.2    4.6      39.818
2014   10       16    17  23    4.48   487.1    4.6      39.808
2014   10       16    17  29    4.47   486.9    4.6      39.799
2014   10       16    17  34    4.47   486.8    4.6      39.789
2014   10       16    17  40    4.47   486.7    4.6      39.778
2014   10       16    17  46    4.47   486.5    4.6      39.765
2014   10       16    17  52    4.46   486.4    4.6      39.752
2014   10       16    17  58    4.46   486.3    4.6      39.737
2014   10       16    18   4    4.46   486.2    4.6      39.721
2014   10       16    18   9    4.46   486.0    4.6      39.704
2014   10       16    18  15    4.46   485.9    4.6      39.686
2014   10       16    18  21    4.45   485.8    4.6      39.667
2014   10       16    18  27    4.45   485.6    4.6      39.646
2014   10       16    18  33    4.45   485.5    4.6      39.625
2014   10       16    18  39    4.45   485.4    4.6      39.602
2014   10       16    18  44    4.44   485.3    4.6      39.579
2014   10       16    18  50    4.44   485.1    4.6      39.554
2014   10       16    18  56    4.44   485.0    4.6      39.529
2014   10       16    19   2    4.44   484.9    4.6      39.502
2014   10       16    19   8    4.44   484.7    4.6      39.475
2014   10       16    19  14    4.43   484.6    4.6      39.446
2014   10       16    19  20    4.43   484.5    4.6      39.417
2014   10       16    19  25    4.43   484.3    4.6      39.388
2014   10       16    19  31    4.43   484.2    4.6      39.357
2014   10       16    19  37    4.42   484.1    4.6      39.326
2014   10       16    19  43    4.42   483.9    4.6      39.295
2014   10       16    19  49    4.42   483.8    4.6      39.262
2014   10       16    19  55    4.42   483.7    4.6      39.229
2014   10       16    20   0    4.42   483.5    4.6      39.196
2014   10       16    20   6    4.41   483.4    4.6      39.162
2014   10       16    20  12    4.41   483.2    4.6      39.128
2014   10       16    20  18    4.41   483.1    4.6      39.093
2014   10       16    20  24    4.41   483.0    4.6      39.058
2014   10       16    20  30    4.40   482.8    4.6      39.023
2014   10       16    20  35    4.40   482.7    4.6      38.986
2014   10       16    20  41    4.40   482.6    4.6      38.950
2014   10       16    20  47    4.40   482.4    4.6      38.914
2014   10       16    20  53    4.39   482.3    4.6      38.877
2014   10       16    20  59    4.39   482.1    4.6      38.840
2014   10       16    21   5    4.39   482.0    4.6      38.803
2014   10       16    21  10    4.39   481.8    4.6      38.766
2014   10       16    21  16    4.39   481.7    4.6      38.728
2014   10       16    21  22    4.38   481.6    4.6      38.691
2014   10       16    21  28    4.38   481.4    4.6      38.653
2014   10       16    21  34    4.38   481.3    4.6      38.615
2014   10       16    21  40    4.38   481.1    4.6      38.577
2014   10       16    21  45    4.38   481.0    4.6      38.539
2014   10       16    21  51    4.37   480.8    4.6      38.501
2014   10       16    21  57    4.37   480.7    4.6      38.462
2014   10       16    22   3    4.37   480.5    4.6      38.424
2014   10       16    22   9    4.37   480.4    4.6      38.386
2014   10       16    22  15    4.37   480.2    4.6      38.349
2014   10       16    22  20    4.36   480.1    4.6      38.311
2014   10       16    22  26    4.36   479.9    4.6      38.274
2014   10       16    22  32    4.36   479.8    4.6      38.237
2014   10       16    22  38    4.36   479.6    4.6      38.200
2014   10       16    22  44    4.36   479.5    4.6      38.164
2014   10       16    22  50    4.35   479.3    4.6      38.129
2014   10       16    22  55    4.35   479.2    4.6      38.094
2014   10       16    23   1    4.35   479.0    4.5      38.060
2014   10       16    23   7    4.35   478.9    4.5      38.027
2014   10       16    23  13    4.35   478.7    4.5      37.995
2014   10       16    23  19    4.34   478.6    4.5      37.964
2014   10       16    23  24    4.34   478.4    4.5      37.933
2014   10       16    23  30    4.34   478.3    4.5      37.904
2014   10       16    23  36    4.34   478.1    4.5      37.877
2014   10       16    23  42    4.34   478.0    4.6      37.850
2014   10       16    23  48    4.34   477.9    4.6      37.825
2014   10       16    23  54    4.33   477.7    4.6      37.802
2014   10       16    23  59    4.33   477.6    4.6      37.779
2014   10       17     0   5    4.33   477.4    4.6      37.757
2014   10       17     0  11    4.33   477.3    4.6      37.736
2014   10       17     0  17    4.33   477.1    4.6      37.718
2014   10       17     0  23    4.33   477.0    4.6      37.700
2014   10       17     0  29    4.32   476.9    4.6      37.682
2014   10       17     0  34    4.32   476.7    4.6      37.666
2014   10       17     0  40    4.32   476.6    4.6      37.650
2014   10       17     0  46    4.32   476.5    4.6      37.634
2014   10       17     0  52    4.32   476.3    4.6      37.617
2014   10       17     0  58    4.31   476.2    4.6      37.599
2014   10       17     1   4    4.31   476.0    4.6      37.580
2014   10       17     1   9    4.31   475.9    4.6      37.560
2014   10       17     1  15    4.31   475.8    4.6      37.540
2014   10       17     1  21    4.31   475.6    4.6      37.518
2014   10       17     1  27    4.30   475.5    4.6      37.496
2014   10       17     1  33    4.30   475.3    4.6      37.473
2014   10       17     1  39    4.30   475.2    4.6      37.449
2014   10       17     1  44    4.30   475.0    4.6      37.424
2014   10       17     1  50    4.30   474.9    4.6      37.399
2014   10       17     1  56    4.29   474.7    4.6      37.373
2014   10       17     2   2    4.29   474.6    4.6      37.346
2014   10       17     2   8    4.29   474.4    4.6      37.318
2014   10       17     2  14    4.29   474.3    4.6      37.290
2014   10       17     2  19    4.29   474.1    4.6      37.261
2014   10       17     2  25    4.28   473.9    4.6      37.232
2014   10       17     2  31    4.28   473.8    4.6      37.203
2014   10       17     2  37    4.28   473.6    4.6      37.173
2014   10       17     2  43    4.28   473.5    4.6      37.143
2014   10       17     2  49    4.27   473.3    4.6      37.113
2014   10       17     2  55    4.27   473.1    4.6      37.083
2014   10       17     3   0    4.27   473.0    4.6      37.052
2014   10       17     3   6    4.27   472.8    4.6      37.022
2014   10       17     3  12    4.27   472.6    4.6      36.991
2014   10       17     3  18    4.26   472.5    4.6      36.961
2014   10       17     3  24    4.26   472.3    4.6      36.930
2014   10       17     3  30    4.26   472.1    4.6      36.900
2014   10       17     3  35    4.26   472.0    4.6      36.870
2014   10       17     3  41    4.26   471.8    4.6      36.841
2014   10       17     3  47    4.26   471.6    4.6      36.811
2014   10       17     3  53    4.25   471.5    4.6      36.783
2014   10       17     3  59    4.25   471.3    4.6      36.755
2014   10       17     4   5    4.25   471.1    4.6      36.727
2014   10       17     4  10    4.25   471.0    4.6      36.699
2014   10       17     4  16    4.25   470.8    4.6      36.673
2014   10       17     4  22    4.25   470.7    4.6      36.646
2014   10       17     4  28    4.24   470.5    4.6      36.621
2014   10       17     4  34    4.24   470.3    4.6      36.596
2014   10       17     4  40    4.24   470.2    4.6      36.572
2014   10       17     4  45    4.24   470.0    4.6      36.548
2014   10       17     4  51    4.24   469.8    4.6      36.525
2014   10       17     4  57    4.24   469.7    4.6      36.502
2014   10       17     5   3    4.24   469.5    4.6      36.477
2014   10       17     5   9    4.23   469.4    4.6      36.453
2014   10       17     5  15    4.23   469.2    4.6      36.427
2014   10       17     5  20    4.23   469.0    4.6      36.402
2014   10       17     5  26    4.23   468.9    4.6      36.376
2014   10       17     5  32    4.23   468.7    4.6      36.349
2014   10       17     5  38    4.23   468.6    4.6      36.322
2014   10       17     5  44    4.22   468.4    4.6      36.294
2014   10       17     5  49    4.22   468.2    4.6      36.266
2014   10       17     5  55    4.22   468.1    4.6      36.237
2014   10       17     6   1    4.22   467.9    4.6      36.208
2014   10       17     6   7    4.22   467.8    4.6      36.178
2014   10       17     6  13    4.22   467.6    4.6      36.149
2014   10       17     6  19    4.21   467.4    4.6      36.118
2014   10       17     6  24    4.21   467.3    4.6      36.087
2014   10       17     6  30    4.21   467.1    4.6      36.056
2014   10       17     6  36    4.21   467.0    4.6      36.025
2014   10       17     6  42    4.21   466.8    4.6      35.993
2014   10       17     6  48    4.21   466.6    4.6      35.961
2014   10       17     6  54    4.20   466.5    4.6      35.929
2014   10       17     6  59    4.20   466.3    4.6      35.896
2014   10       17     7   5    4.20   466.1    4.6      35.863
2014   10       17     7  11    4.20   466.0    4.6      35.830
2014   10       17     7  17    4.20   465.8    4.6      35.797
2014   10       17     7  23    4.20   465.6    4.6      35.764
2014   10       17     7  29    4.19   465.5    4.6      35.730
2014   10       17     7  34    4.19   465.3    4.6      35.697
2014   10       17     7  40    4.19   465.2    4.6      35.663
2014   10       17     7  46    4.19   465.0    4.6      35.629
2014   10       17     7  52    4.19   464.8    4.6      35.594
2014   10       17     7  58    4.18   464.6    4.6      35.560
2014   10       17     8   4    4.18   464.5    4.6      35.526
2014   10       17     8   9    4.18   464.3    4.6      35.491
2014   10       17     8  15    4.18   464.1    4.6      35.456
2014   10       17     8  21    4.18   464.0    4.6      35.421
2014   10       17     8  27    4.17   463.8    4.6      35.386
2014   10       17     8  33    4.17   463.6    4.6      35.351
2014   10       17     8  39    4.17   463.4    4.6      35.316
2014   10       17     8  44    4.17   463.3    4.6      35.280
2014   10       17     8  50    4.17   463.1    4.6      35.244
2014   10       17     8  56    4.16   462.9    4.6      35.209
2014   10       17     9   2    4.16   462.7    4.6      35.173
2014   10       17     9   8    4.16   462.5    4.6      35.137
2014   10       17     9  14    4.16   462.4    4.6      35.101
2014   10       17     9  19    4.16   462.2    4.6      35.065
2014   10       17     9  25    4.15   462.0    4.6      35.029
2014   10       17     9  31    4.15   461.8    4.6      34.993
2014   10       17     9  37    4.15   461.6    4.6      34.957
2014   10       17     9  43    4.15   461.4    4.6      34.921
2014   10       17     9  49    4.15   461.2    4.6      34.886
2014   10       17     9  54    4.15   461.1    4.6      34.850
2014   10       17    10   0    4.14   460.9    4.6      34.814
2014   10       17    10   6    4.14   460.7    4.6      34.779
2014   10       17    10  12    4.14   460.5    4.6      34.744
2014   10       17    10  18    4.14   460.3    4.6      34.709
2014   10       17    10  24    4.14   460.1    4.6      34.675
2014   10       17    10  30    4.13   459.9    4.6      34.641
2014   10       17    10  35    4.13   459.7    4.6      34.607
2014   10       17    10  41    4.13   459.5    4.6      34.573
2014   10       17    10  47    4.13   459.3    4.6      34.540
2014   10       17    10  53    4.13   459.1    4.6      34.508
2014   10       17    10  59    4.13   458.9    4.6      34.477
2014   10       17    11   5    4.13   458.7    4.6      34.447
2014   10       17    11  10    4.12   458.5    4.6      34.417
2014   10       17    11  16    4.12   458.3    4.6      34.389
2014   10       17    11  22    4.12   458.1    4.6      34.361
2014   10       17    11  28    4.12   457.9    4.6      34.334
2014   10       17    11  34    4.12   457.7    4.6      34.308
2014   10       17    11  40    4.12   457.5    4.6      34.284
2014   10       17    11  45    4.12   457.4    4.6      34.261
2014   10       17    11  51    4.12   457.2    4.6      34.239
2014   10       17    11  57    4.12   457.0    4.6      34.218
2014   10       17    12   3    4.12   456.8    4.6      34.197
2014   10       17    12   9    4.12   456.6    4.6      34.178
2014   10       17    12  15    4.11   456.4    4.6      34.158
2014   10       17    12  20    4.11   456.2    4.6      34.138
2014   10       17    12  26    4.11   456.0    4.6      34.118
2014   10       17    12  32    4.11   455.9    4.6      34.098
2014   10       17    12  38    4.11   455.7    4.6      34.078
2014   10       17    12  44    4.11   455.5    4.6      34.058
2014   10       17    12  49    4.11   455.3    4.6      34.038
2014   10       17    12  55    4.11   455.1    4.6      34.017
2014   10       17    13   1    4.11   454.9    4.6      33.997
2014   10       17    13   7    4.11   454.8    4.6      33.976
2014   10       17    13  13    4.11   454.6    4.6      33.955
2014   10       17    13  19    4.10   454.4    4.6      33.934
2014   10       17    13  24    4.10   454.2    4.6      33.912
2014   10       17    13  30    4.10   454.0    4.6      33.890
2014   10       17    13  36    4.10   453.8    4.6      33.868
2014   10       17    13  42    4.10   453.6    4.6      33.845
2014   10       17    13  48    4.10   453.5    4.6      33.822
2014   10       17    13  54    4.10   453.3    4.6      33.799
2014   10       17    13  59    4.10   453.1    4.6      33.775
2014   10       17    14   5    4.09   452.9    4.6      33.751
2014   10       17    14  11    4.09   452.7    4.7      33.727
2014   10       17    14  17    4.09   452.5    4.7      33.702
2014   10       17    14  23    4.09   452.3    4.7      33.677
2014   10       17    14  29    4.09   452.1    4.7      33.652
2014   10       17    14  34    4.09   451.9    4.7      33.627
2014   10       17    14  40    4.09   451.7    4.7      33.601
2014   10       17    14  46    4.09   451.5    4.7      33.575
2014   10       17    14  52    4.08   451.3    4.7      33.548
2014   10       17    14  58    4.08   451.1    4.7      33.522
2014   10       17    15   4    4.08   450.9    4.7      33.495
2014   10       17    15   9    4.08   450.7    4.7      33.468
2014   10       17    15  15    4.08   450.5    4.7      33.442
2014   10       17    15  21    4.08   450.3    4.7      33.415
2014   10       17    15  27    4.08   450.1    4.7      33.388
2014   10       17    15  33    4.07   449.9    4.7      33.361
2014   10       17    15  39    4.07   449.7    4.7      33.333
2014   10       17    15  44    4.07   449.5    4.7      33.306
2014   10       17    15  50    4.07   449.3    4.7      33.279
2014   10       17    15  56    4.07   449.1    4.7      33.252
2014   10       17    16   2    4.07   448.9    4.7      33.225
2014   10       17    16   8    4.07   448.7    4.7      33.197
2014   10       17    16  14    4.07   448.5    4.7      33.170
2014   10       17    16  19    4.07   448.3    4.7      33.143
2014   10       17    16  25    4.06   448.0    4.7      33.115
2014   10       17    16  31    4.06   447.8    4.7      33.087
2014   10       17    16  37    4.06   447.6    4.7      33.060
2014   10       17    16  43    4.06   447.4    4.7      33.032
2014   10       17    16  49    4.06   447.2    4.7      33.003
2014   10       17    16  54    4.06   447.0    4.7      32.975
2014   10       17    17   0    4.06   446.8    4.7      32.946
2014   10       17    17   6    4.06   446.6    4.7      32.916
2014   10       17    17  12    4.06   446.4    4.7      32.886
2014   10       17    17  18    4.05   446.1    4.7      32.856
2014   10       17    17  24    4.05   445.9    4.7      32.825
2014   10       17    17  30    4.05   445.7    4.7      32.794
2014   10       17    17  35    4.05   445.5    4.7      32.763
2014   10       17    17  41    4.05   445.3    4.7      32.731
2014   10       17    17  47    4.05   445.1    4.7      32.699
2014   10       17    17  53    4.05   444.9    4.7      32.667
2014   10       17    17  59    4.05   444.6    4.7      32.634
2014   10       17    18   5    4.05   444.4    4.7      32.601
2014   10       17    18  10    4.05   444.2    4.7      32.568
2014   10       17    18  16    4.05   444.0    4.7      32.535
2014   10       17    18  22    4.05   443.8    4.7      32.502
2014   10       17    18  28    4.05   443.6    4.7      32.470
2014   10       17    18  34    4.05   443.3    4.7      32.437
2014   10       17    18  40    4.05   443.1    4.7      32.404
2014   10       17    18  45    4.04   442.9    4.7      32.372
2014   10       17    18  51    4.04   442.7    4.7      32.340
2014   10       17    18  57    4.04   442.5    4.7      32.307
2014   10       17    19   3    4.04   442.3    4.7      32.276
2014   10       17    19   9    4.04   442.0    4.7      32.244
2014   10       17    19  15    4.04   441.8    4.7      32.214
2014   10       17    19  20    4.04   441.6    4.8      32.183
2014   10       17    19  26    4.04   441.4    4.8      32.153
2014   10       17    19  32    4.04   441.2    4.8      32.123
2014   10       17    19  38    4.04   441.0    4.8      32.093
2014   10       17    19  44    4.04   440.8    4.8      32.064
2014   10       17    19  49    4.04   440.6    4.8      32.035
2014   10       17    19  55    4.04   440.4    4.8      32.006
2014   10       17    20   1    4.04   440.2    4.8      31.978
2014   10       17    20   7    4.04   439.9    4.8      31.950
2014   10       17    20  13    4.04   439.7    4.8      31.922
2014   10       17    20  19    4.04   439.5    4.8      31.894
2014   10       17    20  24    4.04   439.3    4.8      31.866
2014   10       17    20  30    4.04   439.1    4.8      31.839
2014   10       17    20  36    4.04   438.9    4.8      31.812
2014   10       17    20  42    4.04   438.7    4.8      31.784
2014   10       17    20  48    4.04   438.5    4.8      31.757
2014   10       17    20  54    4.04   438.3    4.8      31.730
2014   10       17    20  59    4.04   438.0    4.8      31.703
2014   10       17    21   5    4.04   437.8    4.8      31.675
2014   10       17    21  11    4.04   437.6    4.8      31.648
2014   10       17    21  17    4.04   437.4    4.8      31.621
2014   10       17    21  23    4.04   437.2    4.8      31.593
2014   10       17    21  29    4.04   437.0    4.8      31.566
2014   10       17    21  34    4.04   436.7    4.8      31.539
2014   10       17    21  40    4.04   436.5    4.8      31.512
2014   10       17    21  46    4.04   436.3    4.8      31.484
2014   10       17    21  52    4.03   436.1    4.8      31.457
2014   10       17    21  58    4.03   435.8    4.8      31.430
2014   10       17    22   4    4.03   435.6    4.9      31.403
2014   10       17    22   9    4.03   435.4    4.9      31.377
2014   10       17    22  15    4.03   435.2    4.9      31.350
2014   10       17    22  21    4.03   434.9    4.9      31.324
2014   10       17    22  27    4.03   434.7    4.9      31.298
2014   10       17    22  33    4.03   434.5    4.9      31.272
2014   10       17    22  39    4.03   434.3    4.9      31.247
2014   10       17    22  44    4.03   434.0    4.9      31.223
2014   10       17    22  50    4.03   433.8    4.9      31.198
2014   10       17    22  56    4.03   433.6    4.9      31.174
2014   10       17    23   2    4.03   433.4    4.9      31.151
2014   10       17    23   8    4.03   433.1    4.9      31.128
2014   10       17    23  14    4.03   432.9    4.9      31.106
2014   10       17    23  19    4.03   432.7    4.9      31.084
2014   10       17    23  25    4.03   432.4    4.9      31.063
2014   10       17    23  31    4.03   432.2    4.9      31.042
2014   10       17    23  37    4.04   432.0    4.9      31.022
2014   10       17    23  43    4.04   431.8    4.9      31.002
2014   10       17    23  49    4.04   431.6    4.9      30.982
2014   10       17    23  54    4.04   431.3    5.0      30.963
2014   10       18     0   0    4.04   431.1    5.0      30.944
2014   10       18     0   6    4.04   430.9    5.0      30.925
2014   10       18     0  12    4.04   430.7    5.0      30.906
2014   10       18     0  18    4.04   430.4    5.0      30.887
2014   10       18     0  24    4.04   430.2    5.0      30.868
2014   10       18     0  29    4.04   430.0    5.0      30.849
2014   10       18     0  35    4.04   429.8    5.0      30.831
2014   10       18     0  41    4.04   429.6    5.0      30.812
2014   10       18     0  47    4.04   429.4    5.0      30.793
2014   10       18     0  53    4.04   429.1    5.0      30.773
2014   10       18     0  59    4.05   428.9    5.0      30.754
2014   10       18     1   5    4.05   428.7    5.0      30.734
2014   10       18     1  10    4.05   428.5    5.0      30.714
2014   10       18     1  16    4.05   428.3    5.0      30.694
2014   10       18     1  22    4.05   428.1    5.1      30.674
2014   10       18     1  28    4.05   427.9    5.1      30.654
2014   10       18     1  34    4.05   427.6    5.1      30.633
2014   10       18     1  40    4.05   427.4    5.1      30.612
2014   10       18     1  45    4.05   427.2    5.1      30.591
2014   10       18     1  51    4.05   427.0    5.1      30.570
2014   10       18     1  57    4.05   426.8    5.1      30.548
2014   10       18     2   3    4.06   426.5    5.1      30.526
2014   10       18     2   9    4.06   426.3    5.1      30.504
2014   10       18     2  15    4.06   426.1    5.1      30.482
2014   10       18     2  20    4.06   425.9    5.1      30.459
2014   10       18     2  26    4.06   425.7    5.1      30.437
2014   10       18     2  32    4.06   425.4    5.1      30.414
2014   10       18     2  38    4.06   425.2    5.1      30.391
2014   10       18     2  44    4.06   425.0    5.1      30.368
2014   10       18     2  50    4.06   424.8    5.2      30.345
2014   10       18     2  55    4.06   424.6    5.2      30.321
2014   10       18     3   1    4.07   424.4    5.2      30.298
2014   10       18     3   7    4.07   424.1    5.2      30.274
2014   10       18     3  13    4.07   423.9    5.2      30.250
2014   10       18     3  19    4.07   423.7    5.2      30.226
2014   10       18     3  24    4.07   423.5    5.2      30.202
2014   10       18     3  30    4.07   423.3    5.2      30.178
2014   10       18     3  36    4.07   423.0    5.2      30.153
2014   10       18     3  42    4.07   422.8    5.2      30.129
2014   10       18     3  48    4.07   422.6    5.2      30.104
2014   10       18     3  54    4.08   422.4    5.2      30.079
2014   10       18     3  59    4.08   422.2    5.2      30.054
2014   10       18     4   5    4.08   421.9    5.2      30.029
2014   10       18     4  11    4.08   421.7    5.2      30.003
2014   10       18     4  17    4.08   421.5    5.2      29.978
2014   10       18     4  23    4.08   421.3    5.2      29.952
2014   10       18     4  29    4.08   421.1    5.2      29.926
2014   10       18     4  34    4.09   420.8    5.3      29.901
2014   10       18     4  40    4.09   420.6    5.3      29.875
2014   10       18     4  46    4.09   420.4    5.3      29.849
2014   10       18     4  52    4.09   420.2    5.3      29.823
2014   10       18     4  58    4.09   420.0    5.3      29.798
2014   10       18     5   4    4.09   419.7    5.3      29.772
2014   10       18     5   9    4.10   419.5    5.3      29.747
2014   10       18     5  15    4.10   419.3    5.3      29.721
2014   10       18     5  21    4.10   419.1    5.3      29.696
2014   10       18     5  27    4.10   418.8    5.3      29.671
2014   10       18     5  33    4.10   418.6    5.3      29.647
2014   10       18     5  39    4.10   418.4    5.3      29.622
2014   10       18     5  44    4.11   418.2    5.3      29.599
2014   10       18     5  50    4.11   417.9    5.3      29.575
2014   10       18     5  56    4.11   417.7    5.3      29.552
2014   10       18     6   2    4.11   417.5    5.3      29.529
2014   10       18     6   8    4.12   417.3    5.3      29.507
2014   10       18     6  14    4.12   417.1    5.4      29.485
2014   10       18     6  19    4.12   416.9    5.4      29.464
2014   10       18     6  25    4.12   416.6    5.4      29.444
2014   10       18     6  31    4.13   416.4    5.4      29.424
2014   10       18     6  37    4.13   416.2    5.4      29.404
2014   10       18     6  43    4.13   416.0    5.4      29.386
2014   10       18     6  49    4.13   415.8    5.4      29.367
2014   10       18     6  54    4.14   415.6    5.4      29.350
2014   10       18     7   0    4.14   415.4    5.4      29.333
2014   10       18     7   6    4.14   415.1    5.4      29.317
2014   10       18     7  12    4.15   414.9    5.4      29.301
2014   10       18     7  18    4.15   414.7    5.5      29.286
2014   10       18     7  24    4.15   414.5    5.5      29.271
2014   10       18     7  29    4.16   414.3    5.5      29.257
2014   10       18     7  35    4.16   414.1    5.5      29.244
2014   10       18     7  41    4.16   413.9    5.5      29.231
2014   10       18     7  47    4.17   413.7    5.5      29.218
2014   10       18     7  53    4.17   413.5    5.5      29.206
2014   10       18     7  59    4.18   413.3    5.5      29.195
2014   10       18     8   5    4.18   413.1    5.5      29.183
2014   10       18     8  10    4.18   412.9    5.5      29.172
2014   10       18     8  16    4.19   412.7    5.6      29.162
2014   10       18     8  22    4.19   412.5    5.6      29.152
2014   10       18     8  28    4.19   412.3    5.6      29.142
2014   10       18     8  34    4.20   412.1    5.6      29.132
2014   10       18     8  40    4.20   411.9    5.6      29.122
2014   10       18     8  45    4.21   411.8    5.6      29.113
2014   10       18     8  51    4.21   411.6    5.6      29.104
2014   10       18     8  57    4.21   411.4    5.6      29.095
2014   10       18     9   3    4.22   411.2    5.7      29.086
2014   10       18     9   9    4.22   411.0    5.7      29.077
2014   10       18     9  15    4.23   410.8    5.7      29.069
2014   10       18     9  20    4.23   410.6    5.7      29.060
2014   10       18     9  26    4.24   410.4    5.7      29.052
2014   10       18     9  32    4.24   410.2    5.7      29.043
2014   10       18     9  38    4.24   410.0    5.7      29.034
2014   10       18     9  44    4.25   409.8    5.7      29.026
2014   10       18     9  50    4.25   409.6    5.8      29.018
2014   10       18     9  55    4.26   409.4    5.8      29.009
2014   10       18    10   1    4.26   409.2    5.8      29.001
2014   10       18    10   7    4.27   409.0    5.8      28.992
2014   10       18    10  13    4.27   408.8    5.8      28.984
2014   10       18    10  19    4.28   408.6    5.8      28.975
2014   10       18    10  24    4.28   408.4    5.8      28.967
2014   10       18    10  30    4.29   408.2    5.8      28.958
2014   10       18    10  36    4.29   408.0    5.8      28.950
2014   10       18    10  42    4.30   407.8    5.9      28.941
2014   10       18    10  48    4.30   407.6    5.9      28.932
2014   10       18    10  54    4.31   407.5    5.9      28.923
2014   10       18    10  59    4.31   407.3    5.9      28.914
2014   10       18    11   5    4.32   407.1    5.9      28.905
2014   10       18    11  11    4.32   406.9    5.9      28.895
2014   10       18    11  17    4.33   406.7    5.9      28.886
2014   10       18    11  23    4.33   406.5    5.9      28.877
2014   10       18    11  29    4.34   406.3    6.0      28.867
2014   10       18    11  34    4.34   406.1    6.0      28.857
2014   10       18    11  40    4.35   405.9    6.0      28.847
2014   10       18    11  46    4.35   405.7    6.0      28.837
2014   10       18    11  52    4.36   405.5    6.0      28.826
2014   10       18    11  58    4.37   405.3    6.0      28.816
2014   10       18    12   4    4.37   405.1    6.0      28.806
2014   10       18    12   9    4.38   404.9    6.0      28.795
2014   10       18    12  15    4.38   404.7    6.1      28.784
2014   10       18    12  21    4.39   404.5    6.1      28.773
2014   10       18    12  27    4.39   404.3    6.1      28.762
2014   10       18    12  33    4.40   404.1    6.1      28.751
2014   10       18    12  39    4.41   403.9    6.1      28.740
2014   10       18    12  44    4.41   403.7    6.1      28.729
2014   10       18    12  50    4.42   403.5    6.1      28.718
2014   10       18    12  56    4.43   403.3    6.1      28.706
2014   10       18    13   2    4.43   403.1    6.1      28.695
2014   10       18    13   8    4.44   402.9    6.2      28.683
2014   10       18    13  14    4.45   402.7    6.2      28.672
2014   10       18    13  19    4.45   402.5    6.2      28.660
2014   10       18    13  25    4.46   402.3    6.2      28.648
2014   10       18    13  31    4.46   402.1    6.2      28.637
2014   10       18    13  37    4.47   401.9    6.2      28.625
2014   10       18    13  43    4.48   401.7    6.2      28.614
2014   10       18    13  49    4.48   401.5    6.2      28.602
2014   10       18    13  54    4.49   401.4    6.3      28.591
2014   10       18    14   0    4.50   401.2    6.3      28.579
2014   10       18    14   6    4.50   401.0    6.3      28.568
2014   10       18    14  12    4.51   400.8    6.3      28.557
2014   10       18    14  18    4.52   400.6    6.3      28.546
2014   10       18    14  24    4.52   400.4    6.3      28.535
2014   10       18    14  29    4.53   400.2    6.3      28.524
2014   10       18    14  35    4.54   400.0    6.3      28.513
2014   10       18    14  41    4.54   399.8    6.4      28.503
2014   10       18    14  47    4.55   399.6    6.4      28.492
2014   10       18    14  53    4.56   399.4    6.4      28.482
2014   10       18    14  59    4.57   399.2    6.4      28.472
2014   10       18    15   4    4.57   399.0    6.4      28.462
2014   10       18    15  10    4.58   398.8    6.4      28.452
2014   10       18    15  16    4.59   398.6    6.4      28.443
2014   10       18    15  22    4.59   398.4    6.4      28.434
2014   10       18    15  28    4.60   398.2    6.5      28.425
2014   10       18    15  34    4.61   398.0    6.5      28.417
2014   10       18    15  40    4.61   397.8    6.5      28.409
2014   10       18    15  45    4.62   397.6    6.5      28.401
2014   10       18    15  51    4.63   397.4    6.5      28.394
2014   10       18    15  57    4.64   397.2    6.5      28.387
2014   10       18    16   3    4.64   397.0    6.5      28.381
2014   10       18    16   9    4.65   396.8    6.6      28.375
2014   10       18    16  15    4.66   396.6    6.6      28.370
2014   10       18    16  20    4.66   396.5    6.6      28.365
2014   10       18    16  26    4.67   396.3    6.6      28.360
2014   10       18    16  32    4.68   396.1    6.6      28.357
2014   10       18    16  38    4.69   395.9    6.6      28.354
2014   10       18    16  44    4.69   395.7    6.7      28.351
2014   10       18    16  50    4.70   395.5    6.7      28.350
2014   10       18    16  55    4.71   395.3    6.7      28.349
2014   10       18    17   1    4.72   395.1    6.7      28.349
2014   10       18    17   7    4.72   394.9    6.7      28.349
2014   10       18    17  13    4.73   394.7    6.8      28.351
2014   10       18    17  19    4.74   394.5    6.8      28.353
2014   10       18    17  24    4.75   394.4    6.8      28.356
2014   10       18    17  30    4.76   394.2    6.8      28.360
2014   10       18    17  36    4.76   394.0    6.8      28.365
2014   10       18    17  42    4.77   393.8    6.9      28.371
2014   10       18    17  48    4.78   393.6    6.9      28.377
2014   10       18    17  54    4.79   393.4    6.9      28.385
2014   10       18    17  59    4.80   393.3    6.9      28.394
2014   10       18    18   5    4.80   393.1    6.9      28.404
2014   10       18    18  11    4.81   392.9    7.0      28.415
2014   10       18    18  17    4.82   392.8    7.0      28.427
2014   10       18    18  23    4.83   392.6    7.0      28.439
2014   10       18    18  29    4.84   392.4    7.0      28.453
2014   10       18    18  34    4.85   392.3    7.1      28.468
2014   10       18    18  40    4.86   392.1    7.1      28.484
2014   10       18    18  46    4.86   391.9    7.1      28.501
2014   10       18    18  52    4.87   391.8    7.1      28.520
2014   10       18    18  58    4.88   391.6    7.2      28.539
2014   10       18    19   4    4.89   391.5    7.2      28.559
2014   10       18    19   9    4.90   391.4    7.2      28.581
2014   10       18    19  15    4.91   391.2    7.2      28.604
2014   10       18    19  21    4.92   391.1    7.3      28.627
2014   10       18    19  27    4.93   390.9    7.3      28.651
2014   10       18    19  33    4.94   390.8    7.3      28.675
2014   10       18    19  39    4.95   390.7    7.3      28.698
2014   10       18    19  44    4.95   390.5    7.4      28.722
2014   10       18    19  50    4.96   390.4    7.4      28.746
2014   10       18    19  56    4.97   390.3    7.4      28.769
2014   10       18    20   2    4.98   390.1    7.4      28.794
2014   10       18    20   8    4.99   390.0    7.4      28.818
2014   10       18    20  14    5.00   389.9    7.5      28.843
2014   10       18    20  19    5.01   389.8    7.5      28.868
2014   10       18    20  25    5.02   389.7    7.5      28.893
2014   10       18    20  31    5.03   389.5    7.5      28.919
2014   10       18    20  37    5.04   389.4    7.6      28.945
2014   10       18    20  43    5.05   389.3    7.6      28.971
2014   10       18    20  49    5.06   389.2    7.6      28.998
2014   10       18    20  54    5.07   389.1    7.6      29.026
2014   10       18    21   0    5.08   389.0    7.6      29.053
2014   10       18    21   6    5.09   388.9    7.7      29.082
2014   10       18    21  12    5.10   388.8    7.7      29.110
2014   10       18    21  18    5.11   388.7    7.7      29.139
2014   10       18    21  24    5.12   388.6    7.7      29.169
2014   10       18    21  29    5.13   388.5    7.7      29.198
2014   10       18    21  35    5.14   388.4    7.8      29.228
2014   10       18    21  41    5.15   388.3    7.8      29.258
2014   10       18    21  47    5.16   388.2    7.8      29.289
2014   10       18    21  53    5.17   388.1    7.8      29.319
2014   10       18    21  59    5.18   388.0    7.8      29.350
2014   10       18    22   4    5.19   387.9    7.9      29.380
2014   10       18    22  10    5.20   387.8    7.9      29.411
2014   10       18    22  16    5.21   387.7    7.9      29.442
2014   10       18    22  22    5.22   387.6    7.9      29.473
2014   10       18    22  28    5.23   387.6    7.9      29.503
2014   10       18    22  34    5.24   387.5    8.0      29.534
2014   10       18    22  40    5.25   387.4    8.0      29.564
2014   10       18    22  45    5.26   387.3    8.0      29.594
2014   10       18    22  51    5.27   387.2    8.0      29.625
2014   10       18    22  57    5.28   387.2    8.0      29.654
2014   10       18    23   3    5.29   387.1    8.1      29.684
2014   10       18    23   9    5.30   387.0    8.1      29.714
2014   10       18    23  15    5.31   386.9    8.1      29.743
2014   10       18    23  20    5.32   386.9    8.1      29.772
2014   10       18    23  26    5.33   386.8    8.1      29.801
2014   10       18    23  32    5.34   386.7    8.2      29.829
2014   10       18    23  38    5.35   386.7    8.2      29.858
2014   10       18    23  44    5.36   386.6    8.2      29.886
2014   10       18    23  50    5.37   386.5    8.2      29.914
2014   10       18    23  55    5.38   386.4    8.2      29.942
2014   10       19     0   1    5.39   386.4    8.2      29.970
2014   10       19     0   7    5.40   386.3    8.3      29.998
2014   10       19     0  13    5.41   386.2    8.3      30.026
2014   10       19     0  19    5.42   386.2    8.3      30.054
2014   10       19     0  24    5.43   386.1    8.3      30.082
2014   10       19     0  30    5.44   386.0    8.3      30.110
2014   10       19     0  36    5.45   385.9    8.4      30.139
2014   10       19     0  42    5.46   385.9    8.4      30.168
2014   10       19     0  48    5.47   385.8    8.4      30.197
2014   10       19     0  54    5.49   385.7    8.4      30.227
2014   10       19     0  59    5.50   385.7    8.4      30.257
2014   10       19     1   5    5.51   385.6    8.5      30.287
2014   10       19     1  11    5.52   385.5    8.5      30.319
2014   10       19     1  17    5.53   385.5    8.5      30.351
2014   10       19     1  23    5.54   385.4    8.5      30.384
2014   10       19     1  29    5.56   385.3    8.6      30.418
2014   10       19     1  34    5.57   385.3    8.6      30.452
2014   10       19     1  40    5.58   385.2    8.6      30.488
2014   10       19     1  46    5.59   385.2    8.6      30.526
2014   10       19     1  52    5.61   385.1    8.7      30.564
2014   10       19     1  58    5.62   385.1    8.7      30.604
2014   10       19     2   4    5.63   385.0    8.7      30.646
2014   10       19     2   9    5.65   385.0    8.7      30.689
2014   10       19     2  15    5.66   384.9    8.8      30.734
2014   10       19     2  21    5.68   384.9    8.8      30.780
2014   10       19     2  27    5.69   384.8    8.9      30.830
2014   10       19     2  33    5.71   384.8    8.9      30.883
2014   10       19     2  39    5.72   384.8    8.9      30.939
2014   10       19     2  44    5.74   384.8    9.0      30.999
2014   10       19     2  50    5.76   384.8    9.0      31.062
2014   10       19     2  56    5.77   384.7    9.0      31.127
2014   10       19     3   2    5.79   384.7    9.1      31.196
2014   10       19     3   8    5.80   384.8    9.1      31.268
2014   10       19     3  14    5.82   384.8    9.2      31.346
2014   10       19     3  19    5.84   384.8    9.2      31.427
2014   10       19     3  25    5.85   384.9    9.3      31.514
2014   10       19     3  31    5.87   384.9    9.3      31.604
2014   10       19     3  37    5.89   385.0    9.4      31.699
2014   10       19     3  43    5.90   385.1    9.4      31.798
2014   10       19     3  48    5.92   385.2    9.4      31.901
2014   10       19     3  54    5.93   385.3    9.5      32.004
2014   10       19     4   0    5.95   385.4    9.5      32.105
2014   10       19     4   6    5.97   385.5    9.6      32.205
2014   10       19     4  12    5.98   385.6    9.6      32.303
2014   10       19     4  18    5.99   385.7    9.6      32.399
2014   10       19     4  23    6.01   385.8    9.7      32.492
2014   10       19     4  29    6.02   385.9    9.7      32.582
2014   10       19     4  35    6.04   386.0    9.7      32.669
2014   10       19     4  41    6.05   386.0    9.7      32.753
2014   10       19     4  47    6.06   386.1    9.8      32.835
2014   10       19     4  53    6.08   386.2    9.8      32.915
2014   10       19     4  59    6.09   386.3    9.8      32.992
2014   10       19     5   4    6.11   386.4    9.8      33.067
2014   10       19     5  10    6.12   386.4    9.9      33.141
2014   10       19     5  16    6.13   386.5    9.9      33.212
2014   10       19     5  22    6.15   386.6    9.9      33.282
2014   10       19     5  28    6.16   386.6    9.9      33.349
2014   10       19     5  34    6.17   386.7   10.0      33.416
2014   10       19     5  39    6.18   386.8   10.0      33.481
2014   10       19     5  45    6.20   386.8   10.0      33.545
2014   10       19     5  51    6.21   386.9   10.0      33.607
2014   10       19     5  57    6.22   386.9   10.0      33.669
2014   10       19     6   3    6.24   387.0   10.0      33.730
2014   10       19     6   9    6.25   387.0   10.1      33.790
2014   10       19     6  15    6.26   387.1   10.1      33.849
2014   10       19     6  20    6.28   387.2   10.1      33.907
2014   10       19     6  26    6.29   387.2   10.1      33.965
2014   10       19     6  32    6.30   387.3   10.1      34.023
2014   10       19     6  38    6.32   387.3   10.1      34.080
2014   10       19     6  44    6.33   387.4   10.2      34.136
2014   10       19     6  50    6.34   387.4   10.2      34.192
2014   10       19     6  55    6.36   387.5   10.2      34.248
2014   10       19     7   1    6.37   387.6   10.2      34.304
2014   10       19     7   7    6.38   387.6   10.2      34.360
2014   10       19     7  13    6.40   387.7   10.2      34.415
2014   10       19     7  19    6.41   387.7   10.3      34.471
2014   10       19     7  24    6.42   387.8   10.3      34.526
2014   10       19     7  30    6.44   387.9   10.3      34.581
2014   10       19     7  36    6.45   387.9   10.3      34.637
2014   10       19     7  42    6.47   388.0   10.3      34.693
2014   10       19     7  48    6.48   388.0   10.3      34.749
2014   10       19     7  54    6.50   388.1   10.4      34.806
2014   10       19     7  59    6.51   388.2   10.4      34.864
2014   10       19     8   5    6.53   388.3   10.4      34.922
2014   10       19     8  11    6.54   388.3   10.4      34.982
2014   10       19     8  17    6.56   388.4   10.4      35.042
2014   10       19     8  23    6.57   388.5   10.4      35.104
2014   10       19     8  29    6.59   388.6   10.5      35.167
2014   10       19     8  34    6.60   388.6   10.5      35.232
2014   10       19     8  40    6.62   388.7   10.5      35.298
2014   10       19     8  46    6.64   388.8   10.5      35.367
2014   10       19     8  52    6.65   388.9   10.6      35.437
2014   10       19     8  58    6.67   389.0   10.6      35.510
2014   10       19     9   4    6.69   389.1   10.6      35.584
2014   10       19     9   9    6.70   389.2   10.6      35.661
2014   10       19     9  15    6.72   389.3   10.7      35.741
2014   10       19     9  21    6.74   389.5   10.7      35.824
2014   10       19     9  27    6.76   389.6   10.7      35.911
2014   10       19     9  33    6.78   389.7   10.8      36.002
2014   10       19     9  39    6.80   389.9   10.8      36.097
2014   10       19     9  44    6.81   390.0   10.8      36.196
2014   10       19     9  50    6.83   390.1   10.9      36.297
2014   10       19     9  56    6.85   390.3   10.9      36.402
2014   10       19    10   2    6.87   390.4   11.0      36.513
2014   10       19    10   8    6.89   390.6   11.0      36.629
2014   10       19    10  13    6.91   390.8   11.0      36.751
2014   10       19    10  19    6.93   391.0   11.1      36.878
2014   10       19    10  25    6.95   391.2   11.1      37.008
2014   10       19    10  31    6.97   391.4   11.2      37.143
2014   10       19    10  37    6.99   391.7   11.2      37.284
2014   10       19    10  43    7.01   391.9   11.3      37.429
2014   10       19    10  48    7.03   392.1   11.3      37.576
2014   10       19    10  54    7.05   392.4   11.4      37.725
2014   10       19    11   0    7.07   392.6   11.4      37.876
2014   10       19    11   6    7.09   392.9   11.4      38.027
2014   10       19    11  12    7.11   393.1   11.5      38.179
2014   10       19    11  18    7.13   393.4   11.5      38.333
2014   10       19    11  23    7.14   393.6   11.6      38.490
2014   10       19    11  29    7.16   393.9   11.6      38.650
2014   10       19    11  35    7.18   394.2   11.6      38.813
2014   10       19    11  41    7.20   394.4   11.7      38.978
2014   10       19    11  47    7.22   394.7   11.7      39.145
2014   10       19    11  53    7.24   395.0   11.8      39.316
2014   10       19    11  58    7.26   395.3   11.8      39.488
2014   10       19    12   4    7.28   395.6   11.8      39.661
2014   10       19    12  10    7.29   395.9   11.9      39.832
2014   10       19    12  16    7.31   396.2   11.9      39.999
2014   10       19    12  22    7.33   396.5   11.9      40.162
2014   10       19    12  28    7.35   396.8   11.9      40.322
2014   10       19    12  34    7.37   397.1   11.9      40.479
2014   10       19    12  39    7.38   397.4   12.0      40.632
2014   10       19    12  45    7.40   397.8   12.0      40.782
2014   10       19    12  51    7.42   398.1   12.0      40.928
2014   10       19    12  57    7.44   398.4   12.0      41.071
2014   10       19    13   3    7.45   398.7   12.0      41.210
2014   10       19    13   9    7.47   399.0   12.0      41.345
2014   10       19    13  14    7.48   399.3   12.0      41.476
2014   10       19    13  20    7.50   399.6   12.0      41.604
2014   10       19    13  26    7.52   399.9   12.1      41.727
2014   10       19    13  32    7.53   400.2   12.1      41.847
2014   10       19    13  38    7.55   400.5   12.1      41.962
2014   10       19    13  44    7.56   400.8   12.1      42.075
2014   10       19    13  49    7.58   401.1   12.1      42.183
2014   10       19    13  55    7.59   401.4   12.1      42.287
2014   10       19    14   1    7.61   401.7   12.1      42.388
2014   10       19    14   7    7.62   402.0   12.0      42.486
2014   10       19    14  13    7.63   402.2   12.0      42.580
2014   10       19    14  19    7.65   402.5   12.0      42.672
2014   10       19    14  24    7.66   402.7   12.0      42.761
2014   10       19    14  30    7.68   403.0   12.0      42.848
2014   10       19    14  36    7.69   403.2   12.0      42.932
2014   10       19    14  42    7.71   403.4   12.0      43.015
2014   10       19    14  48    7.72   403.6   12.0      43.097
2014   10       19    14  54    7.73   403.8   12.0      43.177
2014   10       19    14  59    7.75   404.0   12.0      43.256
2014   10       19    15   5    7.76   404.3   12.0      43.334
2014   10       19    15  11    7.78   404.5   12.0      43.412
2014   10       19    15  17    7.79   404.7   12.0      43.490
2014   10       19    15  23    7.81   404.9   12.0      43.567
2014   10       19    15  29    7.82   405.1   12.0      43.643
2014   10       19    15  34    7.83   405.4   11.9      43.718
2014   10       19    15  40    7.85   405.6   11.9      43.793
2014   10       19    15  46    7.86   405.8   11.9      43.868
2014   10       19    15  52    7.88   406.0   11.9      43.942
2014   10       19    15  58    7.89   406.3   11.9      44.015
2014   10       19    16   4    7.91   406.5   11.9      44.088
2014   10       19    16   9    7.92   406.8   11.9      44.160
2014   10       19    16  15    7.94   407.1   11.9      44.232
2014   10       19    16  21    7.95   407.3   11.9      44.305
2014   10       19    16  27    7.97   407.5   11.9      44.377
2014   10       19    16  33    7.98   407.8   11.9      44.449
2014   10       19    16  38    8.00   408.0   11.9      44.521
2014   10       19    16  44    8.02   408.3   11.9      44.593
2014   10       19    16  50    8.03   408.5   11.9      44.664
2014   10       19    16  56    8.05   408.7   11.9      44.738
2014   10       19    17   2    8.06   408.9   11.9      44.812
2014   10       19    17   8    8.08   409.0   11.9      44.887
2014   10       19    17  13    8.09   409.2   11.9      44.966
2014   10       19    17  19    8.11   409.4   11.9      45.047
2014   10       19    17  25    8.13   409.6   11.9      45.133
2014   10       19    17  31    8.14   409.8   11.9      45.226
2014   10       19    17  37    8.16   410.0   11.9      45.325
2014   10       19    17  43    8.18   410.2   11.9      45.430
2014   10       19    17  48    8.20   410.5   11.9      45.542
2014   10       19    17  54    8.22   410.7   11.9      45.659
2014   10       19    18   0    8.23   410.9   11.9      45.784
2014   10       19    18   6    8.25   411.2   12.0      45.916
2014   10       19    18  12    8.27   411.5   12.0      46.057
2014   10       19    18  18    8.29   411.8   12.0      46.205
2014   10       19    18  23    8.31   412.1   12.0      46.361
2014   10       19    18  29    8.33   412.4   12.1      46.522
2014   10       19    18  35    8.35   412.7   12.1      46.689
2014   10       19    18  41    8.37   413.0   12.1      46.862
2014   10       19    18  47    8.39   413.3   12.1      47.042
2014   10       19    18  53    8.41   413.6   12.2      47.228
2014   10       19    18  58    8.44   414.0   12.2      47.422
2014   10       19    19   4    8.46   414.3   12.3      47.621
2014   10       19    19  10    8.48   414.7   12.3      47.827
2014   10       19    19  16    8.50   415.1   12.3      48.037
2014   10       19    19  22    8.52   415.5   12.4      48.255
2014   10       19    19  28    8.54   415.9   12.4      48.478
2014   10       19    19  33    8.56   416.3   12.4      48.702
2014   10       19    19  39    8.59   416.7   12.5      48.928
2014   10       19    19  45    8.61   417.2   12.5      49.155
2014   10       19    19  51    8.63   417.6   12.6      49.380
2014   10       19    19  57    8.65   418.0   12.6      49.606
2014   10       19    20   3    8.67   418.5   12.6      49.833
2014   10       19    20   9    8.69   419.0   12.7      50.064
2014   10       19    20  14    8.71   419.5   12.7      50.295
2014   10       19    20  20    8.73   420.0   12.7      50.527
2014   10       19    20  26    8.75   420.5   12.8      50.757
2014   10       19    20  32    8.76   421.1   12.8      50.988
2014   10       19    20  38    8.78   421.6   12.8      51.219
2014   10       19    20  44    8.80   422.2   12.8      51.444
2014   10       19    20  49    8.81   422.8   12.8      51.662
2014   10       19    20  55    8.83   423.3   12.8      51.874
2014   10       19    21   1    8.85   423.9   12.8      52.079
2014   10       19    21   7    8.86   424.5   12.8      52.278
2014   10       19    21  13    8.87   425.0   12.9      52.471
2014   10       19    21  19    8.89   425.6   12.8      52.658
2014   10       19    21  24    8.90   426.1   12.8      52.839
2014   10       19    21  30    8.91   426.6   12.8      53.016
2014   10       19    21  36    8.92   427.2   12.8      53.188
2014   10       19    21  42    8.93   427.7   12.8      53.356
2014   10       19    21  48    8.94   428.2   12.8      53.521
2014   10       19    21  54    8.95   428.7   12.8      53.683
2014   10       19    21  59    8.97   429.2   12.8      53.843
2014   10       19    22   5    8.98   429.7   12.8      54.002
2014   10       19    22  11    8.99   430.2   12.7      54.159
2014   10       19    22  17    9.00   430.7   12.7      54.315
2014   10       19    22  23    9.01   431.2   12.7      54.470
2014   10       19    22  28    9.02   431.7   12.7      54.625
2014   10       19    22  34    9.03   432.2   12.7      54.780
2014   10       19    22  40    9.04   432.6   12.6      54.935
2014   10       19    22  46    9.05   433.1   12.6      55.089
2014   10       19    22  52    9.06   433.6   12.6      55.245
2014   10       19    22  58    9.07   434.1   12.6      55.400
2014   10       19    23   3    9.08   434.6   12.6      55.558
2014   10       19    23   9    9.09   435.1   12.5      55.716
2014   10       19    23  15    9.10   435.7   12.5      55.875
2014   10       19    23  21    9.11   436.2   12.5      56.035
2014   10       19    23  27    9.12   436.7   12.5      56.197
2014   10       19    23  33    9.13   437.2   12.4      56.361
2014   10       19    23  38    9.15   437.8   12.4      56.528
2014   10       19    23  44    9.16   438.3   12.4      56.696
2014   10       19    23  50    9.17   438.9   12.4      56.867
2014   10       19    23  56    9.18   439.4   12.3      57.040
2014   10       20     0   2    9.19   440.0   12.3      57.214
2014   10       20     0   8    9.20   440.5   12.3      57.389
2014   10       20     0  13    9.22   441.0   12.2      57.564
2014   10       20     0  19    9.23   441.5   12.2      57.735
2014   10       20     0  25    9.24   442.0   12.2      57.903
2014   10       20     0  31    9.25   442.5   12.2      58.069
2014   10       20     0  37    9.26   443.0   12.1      58.232
2014   10       20     0  42    9.28   443.5   12.1      58.392
2014   10       20     0  48    9.29   444.0   12.1      58.551
2014   10       20     0  54    9.30   444.4   12.1      58.708
2014   10       20     1   0    9.31   444.9   12.0      58.867
2014   10       20     1   6    9.33   445.4   12.0      59.026
2014   10       20     1  12    9.34   445.9   12.0      59.186
2014   10       20     1  17    9.35   446.4   12.0      59.346
2014   10       20     1  23    9.36   447.0   12.0      59.507
2014   10       20     1  29    9.38   447.5   11.9      59.669
2014   10       20     1  35    9.39   448.1   11.9      59.834
2014   10       20     1  41    9.40   448.7   11.9      60.001
2014   10       20     1  47    9.42   449.3   11.9      60.167
2014   10       20     1  52    9.43   449.9   11.9      60.333
2014   10       20     1  58    9.44   450.5   11.8      60.500
2014   10       20     2   4    9.46   451.1   11.8      60.669
2014   10       20     2  10    9.47   451.8   11.8      60.839
2014   10       20     2  16    9.48   452.5   11.8      61.006
2014   10       20     2  22    9.50   453.2   11.8      61.169
2014   10       20     2  27    9.51   453.9   11.8      61.331
2014   10       20     2  33    9.52   454.5   11.7      61.490
2014   10       20     2  39    9.53   455.2   11.7      61.650
2014   10       20     2  45    9.54   456.0   11.7      61.813
2014   10       20     2  51    9.55   456.7   11.7      61.976
2014   10       20     2  57    9.56   457.3   11.7      62.130
2014   10       20     3   3    9.57   457.9   11.7      62.273
2014   10       20     3   8    9.58   458.5   11.6      62.405
2014   10       20     3  14    9.59   459.1   11.6      62.526
2014   10       20     3  20    9.59   459.6   11.6      62.640
2014   10       20     3  26    9.60   460.1   11.6      62.743
2014   10       20     3  32    9.61   460.5   11.6      62.843
2014   10       20     3  38    9.61   461.0   11.6      62.951
2014   10       20     3  43    9.62   461.4   11.6      63.067
2014   10       20     3  49    9.63   461.9   11.6      63.193
2014   10       20     3  55    9.63   462.5   11.6      63.330
2014   10       20     4   1    9.64   463.0   11.6      63.471
2014   10       20     4   7    9.65   463.5   11.6      63.619
2014   10       20     4  13    9.66   464.0   11.6      63.766
2014   10       20     4  18    9.67   464.6   11.6      63.920
2014   10       20     4  24    9.68   465.1   11.6      64.080
2014   10       20     4  30    9.68   465.6   11.6      64.251
2014   10       20     4  36    9.69   466.2   11.6      64.431
2014   10       20     4  42    9.70   466.8   11.6      64.622
2014   10       20     4  48    9.71   467.4   11.6      64.821
2014   10       20     4  53    9.72   468.1   11.6      65.033
2014   10       20     4  59    9.73   468.8   11.6      65.264
2014   10       20     5   5    9.73   469.6   11.6      65.512
2014   10       20     5  11    9.74   470.3   11.5      65.771
2014   10       20     5  17    9.75   471.1   11.5      66.041
2014   10       20     5  23    9.76   471.9   11.5      66.316
2014   10       20     5  28    9.77   472.8   11.5      66.598
2014   10       20     5  34    9.78   473.5   11.5      66.882
2014   10       20     5  40    9.79   474.3   11.5      67.156
2014   10       20     5  46    9.79   475.1   11.5      67.421
2014   10       20     5  52    9.80   475.8   11.4      67.680
2014   10       20     5  58    9.81   476.5   11.4      67.933
2014   10       20     6   3    9.82   477.2   11.4      68.182
2014   10       20     6   9    9.83   477.9   11.4      68.428
2014   10       20     6  15    9.83   478.7   11.4      68.674
2014   10       20     6  21    9.84   479.4   11.4      68.918
2014   10       20     6  27    9.85   480.1   11.3      69.163
2014   10       20     6  32    9.86   480.9   11.3      69.407
2014   10       20     6  38    9.87   481.6   11.3      69.651
2014   10       20     6  44    9.88   482.4   11.3      69.895
2014   10       20     6  50    9.88   483.2   11.2      70.142
2014   10       20     6  56    9.89   484.0   11.2      70.388
2014   10       20     7   2    9.90   484.8   11.2      70.636
2014   10       20     7   7    9.91   485.6   11.2      70.885
2014   10       20     7  13    9.92   486.5   11.1      71.137
2014   10       20     7  19    9.92   487.3   11.1      71.390
2014   10       20     7  25    9.93   488.2   11.1      71.643
2014   10       20     7  31    9.94   489.2   11.0      71.892
2014   10       20     7  37    9.95   490.1   11.0      72.142
2014   10       20     7  42    9.95   491.1   10.9      72.393
2014   10       20     7  48    9.96   492.1   10.9      72.646
2014   10       20     7  54    9.96   493.1   10.9      72.889
2014   10       20     8   0    9.96   494.1   10.8      73.123
2014   10       20     8   6    9.97   495.0   10.8      73.344
2014   10       20     8  12    9.97   496.0   10.7      73.553
2014   10       20     8  17    9.97   497.0   10.7      73.745
2014   10       20     8  23    9.97   498.0   10.6      73.924
2014   10       20     8  29    9.97   499.0   10.5      74.086
2014   10       20     8  35    9.96   499.9   10.5      74.213
2014   10       20     8  41    9.96   500.9   10.4      74.309
2014   10       20     8  46    9.95   501.8   10.3      74.381
2014   10       20     8  52    9.94   502.6   10.3      74.434
2014   10       20     8  58    9.94   503.5   10.2      74.473
2014   10       20     9   4    9.93   504.4   10.1      74.490
2014   10       20     9  10    9.92   505.2   10.0      74.490
2014   10       20     9  16    9.91   506.1   10.0      74.502
2014   10       20     9  21    9.90   507.0    9.9      74.527
2014   10       20     9  27    9.90   508.0    9.8      74.562
2014   10       20     9  33    9.89   509.0    9.8      74.600
2014   10       20     9  39    9.88   510.1    9.7      74.640
2014   10       20     9  45    9.87   511.1    9.7      74.686
2014   10       20     9  51    9.86   512.2    9.6      74.734
2014   10       20     9  57    9.85   513.3    9.5      74.790
2014   10       20    10   2    9.84   514.5    9.5      74.856
2014   10       20    10   8    9.83   515.6    9.4      74.926
2014   10       20    10  14    9.82   516.8    9.3      74.987
2014   10       20    10  20    9.81   517.8    9.3      75.040
2014   10       20    10  26    9.79   518.9    9.2      75.082
2014   10       20    10  32    9.78   519.9    9.1      75.114
2014   10       20    10  37    9.77   520.9    9.1      75.130
2014   10       20    10  43    9.75   521.7    9.0      75.125
2014   10       20    10  49    9.74   522.5    9.0      75.114
2014   10       20    10  55    9.73   523.2    8.9      75.109
2014   10       20    11   1    9.72   523.9    8.8      75.109
2014   10       20    11   7    9.71   524.6    8.8      75.114
2014   10       20    11  12    9.70   525.3    8.8      75.124
2014   10       20    11  18    9.69   525.9    8.7      75.142
2014   10       20    11  24    9.68   526.6    8.7      75.169
2014   10       20    11  30    9.67   527.2    8.6      75.197
2014   10       20    11  36    9.66   527.7    8.6      75.234
2014   10       20    11  42    9.66   528.3    8.6      75.283
2014   10       20    11  47    9.65   528.8    8.5      75.345
2014   10       20    11  53    9.64   529.4    8.5      75.424
2014   10       20    11  59    9.64   530.0    8.5      75.519
2014   10       20    12   5    9.63   530.6    8.5      75.626
2014   10       20    12  11    9.63   531.3    8.4      75.755
2014   10       20    12  17    9.62   532.0    8.4      75.911
2014   10       20    12  22    9.61   532.7    8.4      76.087
2014   10       20    12  28    9.61   533.5    8.4      76.280
2014   10       20    12  34    9.60   534.3    8.3      76.484
2014   10       20    12  40    9.60   535.1    8.3      76.697
2014   10       20    12  46    9.60   535.9    8.3      76.918
2014   10       20    12  52    9.59   536.7    8.3      77.137
2014   10       20    12  57    9.59   537.4    8.3      77.342
2014   10       20    13   3    9.58   538.1    8.2      77.537
2014   10       20    13   9    9.58   538.8    8.2      77.723
2014   10       20    13  15    9.57   539.6    8.2      77.902
2014   10       20    13  21    9.56   540.3    8.2      78.074
2014   10       20    13  26    9.56   541.0    8.1      78.242
2014   10       20    13  32    9.55   541.7    8.1      78.406
2014   10       20    13  38    9.55   542.5    8.1      78.568
2014   10       20    13  44    9.54   543.3    8.1      78.725
2014   10       20    13  50    9.53   544.1    8.0      78.876
2014   10       20    13  56    9.53   544.9    8.0      79.021
2014   10       20    14   1    9.52   545.7    8.0      79.160
2014   10       20    14   7    9.51   546.5    7.9      79.293
2014   10       20    14  13    9.51   547.4    7.9      79.420
2014   10       20    14  19    9.50   548.2    7.9      79.537
2014   10       20    14  25    9.49   549.1    7.8      79.644
2014   10       20    14  31    9.48   549.9    7.8      79.744
2014   10       20    14  36    9.47   550.8    7.8      79.838
2014   10       20    14  42    9.46   551.7    7.7      79.925
2014   10       20    14  48    9.45   552.7    7.7      80.004
2014   10       20    14  54    9.44   553.7    7.7      80.076
2014   10       20    15   0    9.43   554.7    7.6      80.154
2014   10       20    15   6    9.41   555.8    7.6      80.239
2014   10       20    15  11    9.40   557.0    7.5      80.326
2014   10       20    15  17    9.39   558.1    7.5      80.403
2014   10       20    15  23    9.37   559.2    7.4      80.470
2014   10       20    15  29    9.35   560.4    7.4      80.525
2014   10       20    15  35    9.34   561.5    7.3      80.567
2014   10       20    15  40    9.32   562.7    7.3      80.592
2014   10       20    15  46    9.30   564.0    7.2      80.607
2014   10       20    15  52    9.28   565.2    7.1      80.597
2014   10       20    15  58    9.26   566.3    7.1      80.545
2014   10       20    16   4    9.24   567.4    7.0      80.460
2014   10       20    16  10    9.22   568.5    7.0      80.349
2014   10       20    16  15    9.20   569.6    6.9      80.216
2014   10       20    16  21    9.17   570.6    6.8      80.065
2014   10       20    16  27    9.15   571.5    6.8      79.886
2014   10       20    16  33    9.13   572.4    6.7      79.698
2014   10       20    16  39    9.11   573.3    6.7      79.531
2014   10       20    16  45    9.09   574.3    6.6      79.380
2014   10       20    16  50    9.06   575.2    6.6      79.241
2014   10       20    16  56    9.04   576.2    6.5      79.113
2014   10       20    17   2    9.02   577.1    6.5      78.994
2014   10       20    17   8    9.00   578.0    6.4      78.881
2014   10       20    17  14    8.98   579.0    6.4      78.776
2014   10       20    17  20    8.96   579.9    6.3      78.676
2014   10       20    17  26    8.94   580.8    6.3      78.584
2014   10       20    17  31    8.92   581.7    6.2      78.497
2014   10       20    17  37    8.90   582.6    6.2      78.414
2014   10       20    17  43    8.88   583.5    6.2      78.333
2014   10       20    17  49    8.86   584.3    6.1      78.256
2014   10       20    17  55    8.84   585.2    6.1      78.182
2014   10       20    18   1    8.82   586.1    6.1      78.113
2014   10       20    18   6    8.80   586.9    6.0      78.045
2014   10       20    18  12    8.79   587.7    6.0      77.983
2014   10       20    18  18    8.77   588.5    6.0      77.924
2014   10       20    18  24    8.75   589.2    5.9      77.868
2014   10       20    18  30    8.73   589.9    5.9      77.812
2014   10       20    18  36    8.71   590.7    5.9      77.759
2014   10       20    18  41    8.69   591.3    5.8      77.707
2014   10       20    18  47    8.67   592.0    5.8      77.659
2014   10       20    18  53    8.65   592.7    5.8      77.610
2014   10       20    18  59    8.64   593.3    5.7      77.565
2014   10       20    19   5    8.62   593.9    5.7      77.521
2014   10       20    19  11    8.60   594.6    5.7      77.479
2014   10       20    19  16    8.59   595.2    5.6      77.438
2014   10       20    19  22    8.57   595.8    5.6      77.399
2014   10       20    19  28    8.55   596.4    5.6      77.361
2014   10       20    19  34    8.54   596.9    5.6      77.325
2014   10       20    19  40    8.52   597.5    5.5      77.289
2014   10       20    19  46    8.50   598.1    5.5      77.254
2014   10       20    19  51    8.49   598.7    5.5      77.218
2014   10       20    19  57    8.47   599.3    5.5      77.182
2014   10       20    20   3    8.45   599.9    5.5      77.144
2014   10       20    20   9    8.44   600.4    5.4      77.105
2014   10       20    20  15    8.42   601.0    5.4      77.065
2014   10       20    20  21    8.40   601.5    5.4      77.024
2014   10       20    20  26    8.39   602.1    5.4      76.983
2014   10       20    20  32    8.37   602.6    5.3      76.941
2014   10       20    20  38    8.35   603.2    5.3      76.898
2014   10       20    20  44    8.34   603.7    5.3      76.855
2014   10       20    20  50    8.32   604.3    5.3      76.812
2014   10       20    20  55    8.31   604.8    5.3      76.769
2014   10       20    21   1    8.29   605.4    5.2      76.725
2014   10       20    21   7    8.27   605.9    5.2      76.680
2014   10       20    21  13    8.26   606.5    5.2      76.631
2014   10       20    21  19    8.24   607.0    5.2      76.579
2014   10       20    21  25    8.22   607.6    5.2      76.521
2014   10       20    21  30    8.20   608.2    5.1      76.458
2014   10       20    21  36    8.19   608.7    5.1      76.388
2014   10       20    21  42    8.17   609.3    5.1      76.309
2014   10       20    21  48    8.15   609.8    5.1      76.220
2014   10       20    21  54    8.13   610.3    5.0      76.123
2014   10       20    22   0    8.11   610.8    5.0      76.015
2014   10       20    22   5    8.09   611.3    5.0      75.900
2014   10       20    22  11    8.07   611.7    5.0      75.778
2014   10       20    22  17    8.05   612.2    5.0      75.657
2014   10       20    22  23    8.04   612.7    4.9      75.532
2014   10       20    22  29    8.02   613.2    4.9      75.406
2014   10       20    22  34    8.00   613.6    4.9      75.278
2014   10       20    22  40    7.98   614.1    4.9      75.149
2014   10       20    22  46    7.96   614.5    4.8      75.019
2014   10       20    22  52    7.94   614.8    4.8      74.890
2014   10       20    22  58    7.92   615.2    4.8      74.765
2014   10       20    23   4    7.90   615.6    4.8      74.646
2014   10       20    23   9    7.88   615.9    4.8      74.530
2014   10       20    23  15    7.86   616.2    4.8      74.420
2014   10       20    23  21    7.84   616.5    4.7      74.317
2014   10       20    23  27    7.83   616.8    4.7      74.219
2014   10       20    23  33    7.81   617.2    4.7      74.128
2014   10       20    23  39    7.79   617.5    4.7      74.040
2014   10       20    23  44    7.78   617.8    4.7      73.959
2014   10       20    23  50    7.76   618.1    4.7      73.882
2014   10       20    23  56    7.74   618.5    4.7      73.811
2014   10       21     0   2    7.73   618.8    4.6      73.743
2014   10       21     0   8    7.71   619.2    4.6      73.679
2014   10       21     0  14    7.69   619.6    4.6      73.617
2014   10       21     0  19    7.68   620.0    4.6      73.556
2014   10       21     0  25    7.66   620.4    4.6      73.495
2014   10       21     0  31    7.65   620.7    4.6      73.431
2014   10       21     0  37    7.63   621.1    4.6      73.366
2014   10       21     0  43    7.61   621.5    4.5      73.300
2014   10       21     0  49    7.60   621.9    4.5      73.232
2014   10       21     0  54    7.58   622.3    4.5      73.162
2014   10       21     1   0    7.57   622.7    4.5      73.089
2014   10       21     1   6    7.55   623.1    4.5      73.014
2014   10       21     1  12    7.54   623.6    4.5      72.938
2014   10       21     1  18    7.52   624.0    4.5      72.862
2014   10       21     1  24    7.51   624.3    4.4      72.787
2014   10       21     1  30    7.49   624.7    4.4      72.714
2014   10       21     1  35    7.48   625.1    4.4      72.644
2014   10       21     1  41    7.46   625.4    4.4      72.573
2014   10       21     1  47    7.45   625.8    4.4      72.505
2014   10       21     1  53    7.43   626.1    4.4      72.438
2014   10       21     1  59    7.42   626.4    4.4      72.374
2014   10       21     2   5    7.40   626.8    4.4      72.314
2014   10       21     2  10    7.39   627.1    4.3      72.258
2014   10       21     2  16    7.38   627.4    4.3      72.206
2014   10       21     2  22    7.36   627.8    4.3      72.158
2014   10       21     2  28    7.35   628.1    4.3      72.112
2014   10       21     2  34    7.34   628.4    4.3      72.067
2014   10       21     2  40    7.32   628.8    4.3      72.023
2014   10       21     2  45    7.31   629.1    4.3      71.981
2014   10       21     2  51    7.30   629.4    4.3      71.939
2014   10       21     2  57    7.29   629.7    4.3      71.898
2014   10       21     3   3    7.27   630.1    4.2      71.856
2014   10       21     3   9    7.26   630.4    4.2      71.812
2014   10       21     3  14    7.25   630.7    4.2      71.766
2014   10       21     3  20    7.24   631.1    4.2      71.719
2014   10       21     3  26    7.22   631.4    4.2      71.670
2014   10       21     3  32    7.21   631.7    4.2      71.620
2014   10       21     3  38    7.20   632.0    4.2      71.569
2014   10       21     3  44    7.19   632.3    4.2      71.518
2014   10       21     3  49    7.17   632.5    4.2      71.468
2014   10       21     3  55    7.16   632.8    4.1      71.418
2014   10       21     4   1    7.15   633.1    4.1      71.369
2014   10       21     4   7    7.14   633.3    4.1      71.321
2014   10       21     4  13    7.13   633.6    4.1      71.274
2014   10       21     4  19    7.11   633.8    4.1      71.230
2014   10       21     4  24    7.10   634.1    4.1      71.187
2014   10       21     4  30    7.09   634.3    4.1      71.145
2014   10       21     4  36    7.08   634.6    4.1      71.103
2014   10       21     4  42    7.07   634.8    4.1      71.062
2014   10       21     4  48    7.06   635.1    4.1      71.022
2014   10       21     4  54    7.04   635.3    4.1      70.982
2014   10       21     4  59    7.03   635.6    4.0      70.942
2014   10       21     5   5    7.02   635.9    4.0      70.903
2014   10       21     5  11    7.01   636.2    4.0      70.863
2014   10       21     5  17    7.00   636.4    4.0      70.824
2014   10       21     5  23    6.99   636.7    4.0      70.783
2014   10       21     5  28    6.97   637.0    4.0      70.741
2014   10       21     5  34    6.96   637.2    4.0      70.698
2014   10       21     5  40    6.95   637.5    4.0      70.653
2014   10       21     5  46    6.94   637.8    4.0      70.604
2014   10       21     5  52    6.93   638.1    4.0      70.552
2014   10       21     5  58    6.91   638.4    4.0      70.495
2014   10       21     6   3    6.90   638.6    3.9      70.435
2014   10       21     6   9    6.89   638.9    3.9      70.371
2014   10       21     6  15    6.88   639.0    3.9      70.308
2014   10       21     6  21    6.87   639.2    3.9      70.245
2014   10       21     6  27    6.86   639.4    3.9      70.184
2014   10       21     6  33    6.85   639.6    3.9      70.125
2014   10       21     6  38    6.84   639.8    3.9      70.071
2014   10       21     6  44    6.82   639.9    3.9      70.019
2014   10       21     6  50    6.81   640.1    3.9      69.969
2014   10       21     6  56    6.80   640.3    3.9      69.920
2014   10       21     7   2    6.79   640.4    3.9      69.874
2014   10       21     7   8    6.78   640.6    3.9      69.831
2014   10       21     7  13    6.77   640.9    3.8      69.790
2014   10       21     7  19    6.76   641.1    3.8      69.752
2014   10       21     7  25    6.75   641.3    3.8      69.715
2014   10       21     7  31    6.74   641.6    3.8      69.678
2014   10       21     7  37    6.73   641.8    3.8      69.639
2014   10       21     7  43    6.72   642.0    3.8      69.596
2014   10       21     7  48    6.71   642.2    3.8      69.551
2014   10       21     7  54    6.70   642.4    3.8      69.504
2014   10       21     8   0    6.69   642.6    3.8      69.457
2014   10       21     8   6    6.68   642.8    3.8      69.410
2014   10       21     8  12    6.67   643.0    3.8      69.363
2014   10       21     8  18    6.66   643.3    3.8      69.317
2014   10       21     8  23    6.65   643.5    3.8      69.271
2014   10       21     8  29    6.64   643.6    3.7      69.223
2014   10       21     8  35    6.63   643.8    3.7      69.177
2014   10       21     8  41    6.62   644.0    3.7      69.132
2014   10       21     8  47    6.61   644.2    3.7      69.087
2014   10       21     8  53    6.60   644.3    3.7      69.042
2014   10       21     8  58    6.59   644.5    3.7      69.000
2014   10       21     9   4    6.58   644.6    3.7      68.959
2014   10       21     9  10    6.58   644.8    3.7      68.920
2014   10       21     9  16    6.57   645.0    3.7      68.883
2014   10       21     9  22    6.56   645.2    3.7      68.850
2014   10       21     9  28    6.55   645.4    3.7      68.818
2014   10       21     9  33    6.54   645.6    3.7      68.789
2014   10       21     9  39    6.53   645.8    3.7      68.761
2014   10       21     9  45    6.52   646.0    3.7      68.734
2014   10       21     9  51    6.51   646.2    3.7      68.704
2014   10       21     9  57    6.50   646.4    3.7      68.673
2014   10       21    10   3    6.50   646.6    3.6      68.639
2014   10       21    10   8    6.49   646.8    3.6      68.605
2014   10       21    10  14    6.48   647.0    3.6      68.568
2014   10       21    10  20    6.47   647.2    3.6      68.531
2014   10       21    10  26    6.46   647.3    3.6      68.492
2014   10       21    10  32    6.45   647.5    3.6      68.453
2014   10       21    10  38    6.44   647.7    3.6      68.411
2014   10       21    10  43    6.44   647.8    3.6      68.369
2014   10       21    10  49    6.43   648.0    3.6      68.327
2014   10       21    10  55    6.42   648.1    3.6      68.285
2014   10       21    11   1    6.41   648.3    3.6      68.243
2014   10       21    11   7    6.40   648.4    3.6      68.201
2014   10       21    11  12    6.39   648.6    3.6      68.159
2014   10       21    11  18    6.39   648.7    3.6      68.119
2014   10       21    11  24    6.38   648.9    3.6      68.079
2014   10       21    11  30    6.37   649.0    3.6      68.039
2014   10       21    11  36    6.36   649.1    3.5      68.000
2014   10       21    11  42    6.35   649.3    3.5      67.961
2014   10       21    11  47    6.35   649.4    3.5      67.922
2014   10       21    11  53    6.34   649.5    3.5      67.884
2014   10       21    11  59    6.33   649.7    3.5      67.846
2014   10       21    12   5    6.32   649.8    3.5      67.808
2014   10       21    12  11    6.31   649.9    3.5      67.769
2014   10       21    12  17    6.31   650.0    3.5      67.731
2014   10       21    12  22    6.30   650.2    3.5      67.693
2014   10       21    12  28    6.29   650.3    3.5      67.654
2014   10       21    12  34    6.28   650.4    3.5      67.615
2014   10       21    12  40    6.28   650.5    3.5      67.577
2014   10       21    12  46    6.27   650.6    3.5      67.538
2014   10       21    12  52    6.26   650.7    3.5      67.499
2014   10       21    12  57    6.25   650.9    3.5      67.459
2014   10       21    13   3    6.25   651.0    3.5      67.420
2014   10       21    13   9    6.24   651.1    3.5      67.381
2014   10       21    13  15    6.23   651.2    3.5      67.341
2014   10       21    13  21    6.22   651.3    3.5      67.302
2014   10       21    13  26    6.22   651.4    3.5      67.262
2014   10       21    13  32    6.21   651.5    3.4      67.223
2014   10       21    13  38    6.20   651.6    3.4      67.184
2014   10       21    13  44    6.20   651.7    3.4      67.145
2014   10       21    13  50    6.19   651.8    3.4      67.106
2014   10       21    13  56    6.18   651.9    3.4      67.067
2014   10       21    14   1    6.18   652.0    3.4      67.029
2014   10       21    14   7    6.17   652.0    3.4      66.991
2014   10       21    14  13    6.16   652.1    3.4      66.954
2014   10       21    14  19    6.15   652.2    3.4      66.917
2014   10       21    14  25    6.15   652.3    3.4      66.881
2014   10       21    14  31    6.14   652.4    3.4      66.845
2014   10       21    14  36    6.13   652.5    3.4      66.811
2014   10       21    14  42    6.13   652.6    3.4      66.777
2014   10       21    14  48    6.12   652.7    3.4      66.744
2014   10       21    14  54    6.11   652.8    3.4      66.712
2014   10       21    15   0    6.11   652.9    3.4      66.681
2014   10       21    15   6    6.10   652.9    3.4      66.651
2014   10       21    15  11    6.10   653.0    3.4      66.622
2014   10       21    15  17    6.09   653.1    3.4      66.595
2014   10       21    15  23    6.08   653.2    3.4      66.568
2014   10       21    15  29    6.08   653.3    3.4      66.542
2014   10       21    15  35    6.07   653.3    3.4      66.518
2014   10       21    15  41    6.06   653.4    3.4      66.495
2014   10       21    15  47    6.06   653.5    3.4      66.473
2014   10       21    15  52    6.05   653.6    3.4      66.452
2014   10       21    15  58    6.05   653.6    3.3      66.432
2014   10       21    16   4    6.04   653.7    3.3      66.414
2014   10       21    16  10    6.03   653.8    3.3      66.396
2014   10       21    16  16    6.03   653.9    3.3      66.379
2014   10       21    16  22    6.02   654.0    3.3      66.363
2014   10       21    16  27    6.02   654.0    3.3      66.347
2014   10       21    16  33    6.01   654.1    3.3      66.332
2014   10       21    16  39    6.00   654.2    3.3      66.316
2014   10       21    16  45    6.00   654.3    3.3      66.301
2014   10       21    16  51    5.99   654.3    3.3      66.286
2014   10       21    16  57    5.99   654.4    3.3      66.271
2014   10       21    17   2    5.98   654.5    3.3      66.256
2014   10       21    17   8    5.98   654.5    3.3      66.240
2014   10       21    17  14    5.97   654.6    3.3      66.224
2014   10       21    17  20    5.96   654.7    3.3      66.206
2014   10       21    17  26    5.96   654.7    3.3      66.189
2014   10       21    17  31    5.95   654.8    3.3      66.170
2014   10       21    17  37    5.95   654.9    3.3      66.151
2014   10       21    17  43    5.94   654.9    3.3      66.131
2014   10       21    17  49    5.94   655.0    3.3      66.111
2014   10       21    17  55    5.93   655.1    3.3      66.090
2014   10       21    18   1    5.93   655.1    3.3      66.068
2014   10       21    18   6    5.92   655.2    3.3      66.045
2014   10       21    18  12    5.91   655.3    3.3      66.022
2014   10       21    18  18    5.91   655.3    3.3      65.997
2014   10       21    18  24    5.90   655.4    3.3      65.972
2014   10       21    18  30    5.90   655.4    3.3      65.945
2014   10       21    18  36    5.89   655.5    3.3      65.918
2014   10       21    18  41    5.89   655.5    3.3      65.891
2014   10       21    18  47    5.88   655.6    3.3      65.862
2014   10       21    18  53    5.88   655.6    3.3      65.832
2014   10       21    18  59    5.87   655.7    3.3      65.802
2014   10       21    19   5    5.87   655.7    3.3      65.771
2014   10       21    19  11    5.86   655.8    3.3      65.740
2014   10       21    19  16    5.86   655.8    3.2      65.708
2014   10       21    19  22    5.85   655.9    3.2      65.675
2014   10       21    19  28    5.85   655.9    3.2      65.642
2014   10       21    19  34    5.84   656.0    3.2      65.608
2014   10       21    19  40    5.84   656.0    3.2      65.573
2014   10       21    19  45    5.83   656.0    3.2      65.539
2014   10       21    19  51    5.83   656.1    3.2      65.504
2014   10       21    19  57    5.82   656.1    3.2      65.469
2014   10       21    20   3    5.82   656.2    3.2      65.433
2014   10       21    20   9    5.81   656.2    3.2      65.397
2014   10       21    20  15    5.81   656.2    3.2      65.362
2014   10       21    20  20    5.80   656.3    3.2      65.326
2014   10       21    20  26    5.80   656.3    3.2      65.290
2014   10       21    20  32    5.79   656.3    3.2      65.254
2014   10       21    20  38    5.79   656.3    3.2      65.219
2014   10       21    20  44    5.78   656.4    3.2      65.184
2014   10       21    20  50    5.78   656.4    3.2      65.149
2014   10       21    20  55    5.77   656.4    3.2      65.114
2014   10       21    21   1    5.77   656.5    3.2      65.080
2014   10       21    21   7    5.76   656.5    3.2      65.047
2014   10       21    21  13    5.76   656.5    3.2      65.014
2014   10       21    21  19    5.75   656.5    3.2      64.982
2014   10       21    21  24    5.75   656.5    3.2      64.950
2014   10       21    21  30    5.74   656.6    3.2      64.920
2014   10       21    21  36    5.74   656.6    3.2      64.890
2014   10       21    21  42    5.74   656.6    3.2      64.861
2014   10       21    21  48    5.73   656.6    3.2      64.834
2014   10       21    21  54    5.73   656.6    3.2      64.807
2014   10       21    21  59    5.72   656.7    3.2      64.781
2014   10       21    22   5    5.72   656.7    3.2      64.757
2014   10       21    22  11    5.71   656.7    3.2      64.734
2014   10       21    22  17    5.71   656.7    3.2      64.711
2014   10       21    22  23    5.71   656.7    3.2      64.690
2014   10       21    22  29    5.70   656.8    3.2      64.669
2014   10       21    22  35    5.70   656.8    3.2      64.650
2014   10       21    22  40    5.69   656.8    3.2      64.632
2014   10       21    22  46    5.69   656.8    3.1      64.614
2014   10       21    22  52    5.69   656.8    3.1      64.597
2014   10       21    22  58    5.68   656.9    3.1      64.581
2014   10       21    23   4    5.68   656.9    3.1      64.566
2014   10       21    23  10    5.67   656.9    3.1      64.552
2014   10       21    23  15    5.67   656.9    3.1      64.538
2014   10       21    23  21    5.66   656.9    3.1      64.525
2014   10       21    23  27    5.66   656.9    3.1      64.513
2014   10       21    23  33    5.66   657.0    3.1      64.501
2014   10       21    23  39    5.65   657.0    3.1      64.489
2014   10       21    23  45    5.65   657.0    3.1      64.478
2014   10       21    23  50    5.65   657.0    3.1      64.467
2014   10       21    23  56    5.64   657.0    3.1      64.456
2014   10       22     0   2    5.64   657.0    3.1      64.446
2014   10       22     0   8    5.63   657.1    3.1      64.435
2014   10       22     0  14    5.63   657.1    3.1      64.425
2014   10       22     0  20    5.63   657.1    3.1      64.414
2014   10       22     0  25    5.62   657.1    3.1      64.404
2014   10       22     0  31    5.62   657.1    3.1      64.393
2014   10       22     0  37    5.61   657.1    3.1      64.381
2014   10       22     0  43    5.61   657.1    3.1      64.370
2014   10       22     0  49    5.61   657.2    3.1      64.358
2014   10       22     0  55    5.60   657.2    3.1      64.345
2014   10       22     1   0    5.60   657.2    3.1      64.332
2014   10       22     1   6    5.59   657.2    3.1      64.319
2014   10       22     1  12    5.59   657.2    3.1      64.304
2014   10       22     1  18    5.59   657.2    3.1      64.289
2014   10       22     1  24    5.58   657.2    3.1      64.273
2014   10       22     1  29    5.58   657.2    3.1      64.256
2014   10       22     1  35    5.58   657.2    3.1      64.239
2014   10       22     1  41    5.57   657.3    3.1      64.220
2014   10       22     1  47    5.57   657.3    3.1      64.200
2014   10       22     1  53    5.56   657.3    3.1      64.180
2014   10       22     1  59    5.56   657.3    3.1      64.158
2014   10       22     2   4    5.56   657.3    3.1      64.135
2014   10       22     2  10    5.55   657.3    3.1      64.112
2014   10       22     2  16    5.55   657.3    3.1      64.087
2014   10       22     2  22    5.55   657.3    3.1      64.062
2014   10       22     2  28    5.54   657.3    3.1      64.036
2014   10       22     2  34    5.54   657.3    3.1      64.009
2014   10       22     2  39    5.54   657.3    3.1      63.982
2014   10       22     2  45    5.53   657.3    3.1      63.953
2014   10       22     2  51    5.53   657.3    3.1      63.925
2014   10       22     2  57    5.53   657.2    3.1      63.895
2014   10       22     3   3    5.52   657.2    3.1      63.865
2014   10       22     3   9    5.52   657.2    3.1      63.834
2014   10       22     3  14    5.51   657.2    3.1      63.803
2014   10       22     3  20    5.51   657.2    3.1      63.771
2014   10       22     3  26    5.51   657.2    3.1      63.739
2014   10       22     3  32    5.50   657.2    3.1      63.706
2014   10       22     3  38    5.50   657.2    3.1      63.674
2014   10       22     3  43    5.50   657.1    3.1      63.641
2014   10       22     3  49    5.49   657.1    3.1      63.608
2014   10       22     3  55    5.49   657.1    3.1      63.575
2014   10       22     4   1    5.49   657.1    3.1      63.543
2014   10       22     4   7    5.48   657.1    3.1      63.510
2014   10       22     4  13    5.48   657.1    3.0      63.477
2014   10       22     4  18    5.48   657.0    3.0      63.445
2014   10       22     4  24    5.47   657.0    3.0      63.413
2014   10       22     4  30    5.47   657.0    3.0      63.382
2014   10       22     4  36    5.47   657.0    3.0      63.351
2014   10       22     4  42    5.46   657.0    3.0      63.320
2014   10       22     4  48    5.46   656.9    3.0      63.291
2014   10       22     4  53    5.46   656.9    3.0      63.261
2014   10       22     4  59    5.46   656.9    3.0      63.233
2014   10       22     5   5    5.45   656.9    3.0      63.205
2014   10       22     5  11    5.45   656.8    3.0      63.178
2014   10       22     5  17    5.45   656.8    3.0      63.152
2014   10       22     5  23    5.44   656.8    3.0      63.127
2014   10       22     5  28    5.44   656.8    3.0      63.103
2014   10       22     5  34    5.44   656.8    3.0      63.080
2014   10       22     5  40    5.43   656.7    3.0      63.058
2014   10       22     5  46    5.43   656.7    3.0      63.036
2014   10       22     5  52    5.43   656.7    3.0      63.016
2014   10       22     5  58    5.42   656.7    3.0      62.996
2014   10       22     6   3    5.42   656.6    3.0      62.977
2014   10       22     6   9    5.42   656.6    3.0      62.960
2014   10       22     6  15    5.42   656.6    3.0      62.942
2014   10       22     6  21    5.41   656.6    3.0      62.926
2014   10       22     6  27    5.41   656.5    3.0      62.910
2014   10       22     6  33    5.41   656.5    3.0      62.895
2014   10       22     6  39    5.40   656.5    3.0      62.881
2014   10       22     6  44    5.40   656.5    3.0      62.867
2014   10       22     6  50    5.40   656.5    3.0      62.854
2014   10       22     6  56    5.40   656.4    3.0      62.841
2014   10       22     7   2    5.39   656.4    3.0      62.829
2014   10       22     7   8    5.39   656.4    3.0      62.817
2014   10       22     7  14    5.39   656.4    3.0      62.806
2014   10       22     7  19    5.38   656.3    3.0      62.795
2014   10       22     7  25    5.38   656.3    3.0      62.784
2014   10       22     7  31    5.38   656.3    3.0      62.774
2014   10       22     7  37    5.38   656.3    3.0      62.764
2014   10       22     7  43    5.37   656.2    3.0      62.754
2014   10       22     7  48    5.37   656.2    3.0      62.744
2014   10       22     7  54    5.37   656.2    3.0      62.735
2014   10       22     8   0    5.36   656.2    3.0      62.725
2014   10       22     8   6    5.36   656.1    3.0      62.715
2014   10       22     8  12    5.36   656.1    3.0      62.705
2014   10       22     8  18    5.36   656.1    3.0      62.695
2014   10       22     8  23    5.35   656.1    3.0      62.684
2014   10       22     8  29    5.35   656.0    3.0      62.673
2014   10       22     8  35    5.35   656.0    3.0      62.662
2014   10       22     8  41    5.34   656.0    3.0      62.650
2014   10       22     8  47    5.34   656.0    3.0      62.637
2014   10       22     8  53    5.34   655.9    3.0      62.623
2014   10       22     8  58    5.34   655.9    3.0      62.609
2014   10       22     9   4    5.33   655.9    3.0      62.594
2014   10       22     9  10    5.33   655.8    3.0      62.578
2014   10       22     9  16    5.33   655.8    3.0      62.562
2014   10       22     9  22    5.32   655.8    3.0      62.544
2014   10       22     9  27    5.32   655.7    3.0      62.526
2014   10       22     9  33    5.32   655.7    3.0      62.506
2014   10       22     9  39    5.32   655.7    3.0      62.486
2014   10       22     9  45    5.31   655.6    3.0      62.465
2014   10       22     9  51    5.31   655.6    3.0      62.444
2014   10       22     9  57    5.31   655.6    3.0      62.421
2014   10       22    10   2    5.31   655.5    3.0      62.397
2014   10       22    10   8    5.30   655.5    3.0      62.373
2014   10       22    10  14    5.30   655.5    3.0      62.348
2014   10       22    10  20    5.30   655.4    3.0      62.322
2014   10       22    10  26    5.30   655.4    3.0      62.296
2014   10       22    10  32    5.29   655.3    3.0      62.269
2014   10       22    10  37    5.29   655.3    3.0      62.241
2014   10       22    10  43    5.29   655.3    3.0      62.212
2014   10       22    10  49    5.28   655.2    3.0      62.184
2014   10       22    10  55    5.28   655.2    3.0      62.154
2014   10       22    11   1    5.28   655.1    3.0      62.125
2014   10       22    11   6    5.28   655.1    3.0      62.095
2014   10       22    11  12    5.27   655.0    3.0      62.064
2014   10       22    11  18    5.27   655.0    3.0      62.034
2014   10       22    11  24    5.27   654.9    3.0      62.003
2014   10       22    11  30    5.27   654.9    3.0      61.972
2014   10       22    11  36    5.26   654.8    3.0      61.941
2014   10       22    11  41    5.26   654.8    3.0      61.911
2014   10       22    11  47    5.26   654.7    3.0      61.880
2014   10       22    11  53    5.26   654.7    3.0      61.849
2014   10       22    11  59    5.25   654.6    3.0      61.819
2014   10       22    12   5    5.25   654.6    3.0      61.789
2014   10       22    12  11    5.25   654.5    3.0      61.760
2014   10       22    12  16    5.25   654.5    3.0      61.730
2014   10       22    12  22    5.24   654.4    3.0      61.702
2014   10       22    12  28    5.24   654.3    3.0      61.674
2014   10       22    12  34    5.24   654.3    3.0      61.647
2014   10       22    12  40    5.24   654.2    3.0      61.620
2014   10       22    12  46    5.23   654.2    3.0      61.595
2014   10       22    12  51    5.23   654.1    2.9      61.570
2014   10       22    12  57    5.23   654.1    2.9      61.546
2014   10       22    13   3    5.23   654.0    2.9      61.522
2014   10       22    13   9    5.23   654.0    2.9      61.500
2014   10       22    13  15    5.22   653.9    2.9      61.478
2014   10       22    13  21    5.22   653.8    2.9      61.457
2014   10       22    13  27    5.22   653.8    2.9      61.437
2014   10       22    13  32    5.22   653.7    2.9      61.417
2014   10       22    13  38    5.21   653.7    2.9      61.398
2014   10       22    13  44    5.21   653.6    2.9      61.380
2014   10       22    13  50    5.21   653.6    2.9      61.362
2014   10       22    13  56    5.21   653.5    2.9      61.344
2014   10       22    14   2    5.20   653.5    2.9      61.327
2014   10       22    14   7    5.20   653.4    2.9      61.310
2014   10       22    14  13    5.20   653.4    2.9      61.293
2014   10       22    14  19    5.20   653.3    2.9      61.277
2014   10       22    14  25    5.20   653.2    2.9      61.260
2014   10       22    14  31    5.19   653.2    2.9      61.244
2014   10       22    14  37    5.19   653.1    2.9      61.227
2014   10       22    14  42    5.19   653.1    2.9      61.211
2014   10       22    14  48    5.19   653.0    2.9      61.195
2014   10       22    14  54    5.18   653.0    2.9      61.178
2014   10       22    15   0    5.18   652.9    2.9      61.161
2014   10       22    15   6    5.18   652.8    2.9      61.145
2014   10       22    15  12    5.18   652.8    2.9      61.127
2014   10       22    15  17    5.17   652.7    2.9      61.110
2014   10       22    15  23    5.17   652.7    2.9      61.093
2014   10       22    15  29    5.17   652.6    2.9      61.075
2014   10       22    15  35    5.17   652.5    2.9      61.057
2014   10       22    15  41    5.17   652.5    2.9      61.039
2014   10       22    15  46    5.16   652.4    2.9      61.020
2014   10       22    15  52    5.16   652.4    2.9      61.002
2014   10       22    15  58    5.16   652.3    2.9      60.983
2014   10       22    16   4    5.16   652.2    2.9      60.964
2014   10       22    16  10    5.15   652.2    2.9      60.944
2014   10       22    16  16    5.15   652.1    2.9      60.925
2014   10       22    16  21    5.15   652.1    2.9      60.905
2014   10       22    16  27    5.15   652.0    2.9      60.885
2014   10       22    16  33    5.14   651.9    2.9      60.865
2014   10       22    16  39    5.14   651.9    2.9      60.845
2014   10       22    16  45    5.14   651.8    2.9      60.824
2014   10       22    16  51    5.14   651.8    2.9      60.804
2014   10       22    16  56    5.14   651.7    2.9      60.783
2014   10       22    17   2    5.13   651.6    2.9      60.762
2014   10       22    17   8    5.13   651.6    2.9      60.742
2014   10       22    17  14    5.13   651.5    2.9      60.721
2014   10       22    17  20    5.13   651.4    2.9      60.700
2014   10       22    17  25    5.13   651.4    2.9      60.679
2014   10       22    17  31    5.12   651.3    2.9      60.658
2014   10       22    17  37    5.12   651.2    2.9      60.637
2014   10       22    17  43    5.12   651.2    2.9      60.616
2014   10       22    17  49    5.12   651.1    2.9      60.595
2014   10       22    17  55    5.11   651.0    2.9      60.573
2014   10       22    18   0    5.11   651.0    2.9      60.552
2014   10       22    18   6    5.11   650.9    2.9      60.531
2014   10       22    18  12    5.11   650.8    2.9      60.509
2014   10       22    18  18    5.11   650.8    2.9      60.487
2014   10       22    18  24    5.10   650.7    2.9      60.465
2014   10       22    18  30    5.10   650.6    2.9      60.443
2014   10       22    18  35    5.10   650.6    2.9      60.421
2014   10       22    18  41    5.10   650.5    2.9      60.398
2014   10       22    18  47    5.10   650.4    2.9      60.375
2014   10       22    18  53    5.09   650.4    2.9      60.352
2014   10       22    18  59    5.09   650.3    2.9      60.329
2014   10       22    19   4    5.09   650.2    2.9      60.305
2014   10       22    19  10    5.09   650.1    2.9      60.281
2014   10       22    19  16    5.08   650.1    2.9      60.257
2014   10       22    19  22    5.08   650.0    2.9      60.233
2014   10       22    19  28    5.08   649.9    2.9      60.209
2014   10       22    19  34    5.08   649.8    2.9      60.184
2014   10       22    19  39    5.08   649.7    2.9      60.160
2014   10       22    19  45    5.07   649.7    2.9      60.135
2014   10       22    19  51    5.07   649.6    2.9      60.111
2014   10       22    19  57    5.07   649.5    2.9      60.086
2014   10       22    20   3    5.07   649.4    2.9      60.062
2014   10       22    20   9    5.07   649.4    2.9      60.038
2014   10       22    20  15    5.06   649.3    2.9      60.013
2014   10       22    20  20    5.06   649.2    2.9      59.989
2014   10       22    20  26    5.06   649.1    2.9      59.965
2014   10       22    20  32    5.06   649.0    2.9      59.941
2014   10       22    20  38    5.06   648.9    2.9      59.916
2014   10       22    20  44    5.05   648.9    2.9      59.892
2014   10       22    20  50    5.05   648.8    2.9      59.868
2014   10       22    20  55    5.05   648.7    2.9      59.844
2014   10       22    21   1    5.05   648.6    2.9      59.820
2014   10       22    21   7    5.05   648.5    2.9      59.796
2014   10       22    21  13    5.04   648.5    2.9      59.772
2014   10       22    21  19    5.04   648.4    2.9      59.748
2014   10       22    21  25    5.04   648.3    2.9      59.723
2014   10       22    21  30    5.04   648.2    2.9      59.699
2014   10       22    21  36    5.04   648.1    2.9      59.674
2014   10       22    21  42    5.03   648.0    2.9      59.649
2014   10       22    21  48    5.03   648.0    2.9      59.624
2014   10       22    21  54    5.03   647.9    2.9      59.599
2014   10       22    22   0    5.03   647.8    2.9      59.573
2014   10       22    22   5    5.03   647.7    2.9      59.548
2014   10       22    22  11    5.02   647.6    2.9      59.522
2014   10       22    22  17    5.02   647.5    2.9      59.496
2014   10       22    22  23    5.02   647.4    2.9      59.469
2014   10       22    22  29    5.02   647.3    2.9      59.443
2014   10       22    22  35    5.02   647.2    2.9      59.416
2014   10       22    22  40    5.01   647.2    2.9      59.390
2014   10       22    22  46    5.01   647.1    2.9      59.363
2014   10       22    22  52    5.01   647.0    2.9      59.337
2014   10       22    22  58    5.01   646.9    2.9      59.310
2014   10       22    23   4    5.01   646.8    2.9      59.283
2014   10       22    23   9    5.00   646.7    2.9      59.257
2014   10       22    23  15    5.00   646.6    2.9      59.231
2014   10       22    23  21    5.00   646.5    2.9      59.205
2014   10       22    23  27    5.00   646.4    2.9      59.179
2014   10       22    23  33    5.00   646.3    2.9      59.153
2014   10       22    23  39    5.00   646.2    2.9      59.128
2014   10       22    23  44    4.99   646.1    2.9      59.103
2014   10       22    23  50    4.99   646.1    2.9      59.078
2014   10       22    23  56    4.99   646.0    2.9      59.054
2014   10       23     0   2    4.99   645.9    2.9      59.031
2014   10       23     0   8    4.99   645.8    2.9      59.010
2014   10       23     0  14    4.98   645.7    2.9      58.989
2014   10       23     0  19    4.98   645.6    2.9      58.968
2014   10       23     0  25    4.98   645.5    2.9      58.948
2014   10       23     0  31    4.98   645.4    2.9      58.928
2014   10       23     0  37    4.98   645.3    2.9      58.909
2014   10       23     0  43    4.98   645.2    2.9      58.890
2014   10       23     0  48    4.98   645.1    2.9      58.872
2014   10       23     0  54    4.97   645.0    2.9      58.853
2014   10       23     1   0    4.97   644.9    2.9      58.835
2014   10       23     1   6    4.97   644.8    2.9      58.817
2014   10       23     1  12    4.97   644.7    2.9      58.799
2014   10       23     1  18    4.97   644.6    2.9      58.781
2014   10       23     1  23    4.97   644.5    2.9      58.763
2014   10       23     1  29    4.96   644.4    2.9      58.745
2014   10       23     1  35    4.96   644.3    2.9      58.727
2014   10       23     1  41    4.96   644.2    2.9      58.709
2014   10       23     1  47    4.96   644.1    2.9      58.690
2014   10       23     1  53    4.96   644.0    2.9      58.671
2014   10       23     1  58    4.96   643.9    2.9      58.652
2014   10       23     2   4    4.96   643.8    2.9      58.633
2014   10       23     2  10    4.95   643.7    2.9      58.612
2014   10       23     2  16    4.95   643.6    2.9      58.592
2014   10       23     2  22    4.95   643.5    2.9      58.571
2014   10       23     2  28    4.95   643.4    2.9      58.549
2014   10       23     2  33    4.95   643.3    2.9      58.527
2014   10       23     2  39    4.95   643.2    2.9      58.505
2014   10       23     2  45    4.94   643.1    2.9      58.482
2014   10       23     2  51    4.94   643.0    2.9      58.458
2014   10       23     2  57    4.94   642.9    2.9      58.434
2014   10       23     3   3    4.94   642.8    2.9      58.409
2014   10       23     3   8    4.94   642.7    2.9      58.384
2014   10       23     3  14    4.94   642.6    2.9      58.358
2014   10       23     3  20    4.94   642.5    2.9      58.331
2014   10       23     3  26    4.93   642.4    2.9      58.304
2014   10       23     3  32    4.93   642.3    2.9      58.276
2014   10       23     3  38    4.93   642.2    2.9      58.248
2014   10       23     3  43    4.93   642.1    2.9      58.220
2014   10       23     3  49    4.93   642.0    2.9      58.191
2014   10       23     3  55    4.93   641.9    2.9      58.161
2014   10       23     4   1    4.92   641.7    2.9      58.132
2014   10       23     4   7    4.92   641.6    2.9      58.102
2014   10       23     4  13    4.92   641.5    2.9      58.072
2014   10       23     4  18    4.92   641.4    2.9      58.042
2014   10       23     4  24    4.92   641.3    2.9      58.013
2014   10       23     4  30    4.92   641.2    2.9      57.983
2014   10       23     4  36    4.91   641.0    2.9      57.954
2014   10       23     4  42    4.91   640.9    2.9      57.925
2014   10       23     4  48    4.91   640.8    2.9      57.897
2014   10       23     4  53    4.91   640.7    2.9      57.870
2014   10       23     4  59    4.91   640.6    2.9      57.842
2014   10       23     5   5    4.91   640.5    2.9      57.816
2014   10       23     5  11    4.91   640.3    2.9      57.790
2014   10       23     5  17    4.90   640.2    2.9      57.765
2014   10       23     5  23    4.90   640.1    2.9      57.740
2014   10       23     5  28    4.90   640.0    2.9      57.717
2014   10       23     5  34    4.90   639.9    2.9      57.694
2014   10       23     5  40    4.90   639.7    2.9      57.671
2014   10       23     5  46    4.90   639.6    2.9      57.649
2014   10       23     5  52    4.90   639.5    2.9      57.627
2014   10       23     5  58    4.89   639.4    2.9      57.605
2014   10       23     6   3    4.89   639.3    2.9      57.584
2014   10       23     6   9    4.89   639.2    2.9      57.562
2014   10       23     6  15    4.89   639.0    2.9      57.540
2014   10       23     6  21    4.89   638.9    2.9      57.518
2014   10       23     6  27    4.89   638.8    2.9      57.496
2014   10       23     6  32    4.89   638.7    2.9      57.474
2014   10       23     6  38    4.89   638.6    2.9      57.451
2014   10       23     6  44    4.88   638.5    2.9      57.429
2014   10       23     6  50    4.88   638.3    2.9      57.406
2014   10       23     6  56    4.88   638.2    2.9      57.382
2014   10       23     7   2    4.88   638.1    2.9      57.359
2014   10       23     7   7    4.88   638.0    2.9      57.335
2014   10       23     7  13    4.88   637.9    2.9      57.311
2014   10       23     7  19    4.88   637.7    2.9      57.287
2014   10       23     7  25    4.87   637.6    2.9      57.263
2014   10       23     7  31    4.87   637.5    2.9      57.239
2014   10       23     7  37    4.87   637.4    2.9      57.214
2014   10       23     7  42    4.87   637.3    2.9      57.190
2014   10       23     7  48    4.87   637.1    2.9      57.166
2014   10       23     7  54    4.87   637.0    2.9      57.141
2014   10       23     8   0    4.87   636.9    2.9      57.117
2014   10       23     8   6    4.86   636.8    2.9      57.093
2014   10       23     8  12    4.86   636.6    2.9      57.069
2014   10       23     8  17    4.86   636.5    2.9      57.045
2014   10       23     8  23    4.86   636.4    2.9      57.021
2014   10       23     8  29    4.86   636.3    2.9      56.997
2014   10       23     8  35    4.86   636.1    2.9      56.974
2014   10       23     8  41    4.86   636.0    2.9      56.950
2014   10       23     8  46    4.85   635.9    2.9      56.927
2014   10       23     8  52    4.85   635.8    2.9      56.904
2014   10       23     8  58    4.85   635.6    2.9      56.881
2014   10       23     9   4    4.85   635.5    2.9      56.857
2014   10       23     9  10    4.85   635.4    2.9      56.834
2014   10       23     9  16    4.85   635.2    2.9      56.809
2014   10       23     9  21    4.84   635.1    2.9      56.784
2014   10       23     9  27    4.84   635.0    2.9      56.758
2014   10       23     9  33    4.84   634.9    2.9      56.731
2014   10       23     9  39    4.84   634.7    2.9      56.704
2014   10       23     9  45    4.84   634.6    2.9      56.676
2014   10       23     9  51    4.84   634.5    2.9      56.647
2014   10       23     9  56    4.84   634.4    2.9      56.618
2014   10       23    10   2    4.83   634.2    2.9      56.588
2014   10       23    10   8    4.83   634.1    2.9      56.557
2014   10       23    10  14    4.83   634.0    2.9      56.525
2014   10       23    10  20    4.83   633.8    2.9      56.493
2014   10       23    10  26    4.83   633.7    2.9      56.461
2014   10       23    10  31    4.83   633.6    2.9      56.427
2014   10       23    10  37    4.83   633.4    2.9      56.394
2014   10       23    10  43    4.82   633.3    2.9      56.359
2014   10       23    10  49    4.82   633.2    2.9      56.324
2014   10       23    10  55    4.82   633.0    2.9      56.289
2014   10       23    11   1    4.82   632.9    2.9      56.253
2014   10       23    11   6    4.82   632.8    2.9      56.218
2014   10       23    11  12    4.82   632.6    2.9      56.182
2014   10       23    11  18    4.81   632.5    2.9      56.146
2014   10       23    11  24    4.81   632.3    2.9      56.110
2014   10       23    11  30    4.81   632.2    2.9      56.074
2014   10       23    11  36    4.81   632.0    2.9      56.039
2014   10       23    11  41    4.81   631.9    2.9      56.004
2014   10       23    11  47    4.81   631.8    2.9      55.969
2014   10       23    11  53    4.81   631.6    2.9      55.936
2014   10       23    11  59    4.80   631.5    2.9      55.904
2014   10       23    12   5    4.80   631.3    2.9      55.872
2014   10       23    12  11    4.80   631.2    2.9      55.841
2014   10       23    12  16    4.80   631.0    2.9      55.812
2014   10       23    12  22    4.80   630.9    2.9      55.783
2014   10       23    12  28    4.80   630.7    2.9      55.756
2014   10       23    12  34    4.80   630.6    2.9      55.729
2014   10       23    12  40    4.79   630.4    2.9      55.704
2014   10       23    12  46    4.79   630.3    2.9      55.680
2014   10       23    12  51    4.79   630.2    2.9      55.657
2014   10       23    12  57    4.79   630.0    2.9      55.635
2014   10       23    13   3    4.79   629.9    2.9      55.613
2014   10       23    13   9    4.79   629.7    2.9      55.591
2014   10       23    13  15    4.79   629.6    2.9      55.570
2014   10       23    13  21    4.79   629.4    2.9      55.549
2014   10       23    13  26    4.78   629.3    2.9      55.527
2014   10       23    13  32    4.78   629.2    2.9      55.505
2014   10       23    13  38    4.78   629.0    2.9      55.483
2014   10       23    13  44    4.78   628.9    2.9      55.461
2014   10       23    13  50    4.78   628.7    2.9      55.439
2014   10       23    13  56    4.78   628.6    2.9      55.416
2014   10       23    14   1    4.78   628.4    2.9      55.394
2014   10       23    14   7    4.78   628.3    2.9      55.371
2014   10       23    14  13    4.77   628.1    2.9      55.348
2014   10       23    14  19    4.77   628.0    2.9      55.325
2014   10       23    14  25    4.77   627.8    2.9      55.301
2014   10       23    14  30    4.77   627.7    2.9      55.277
2014   10       23    14  36    4.77   627.5    2.9      55.253
2014   10       23    14  42    4.77   627.4    2.9      55.228
2014   10       23    14  48    4.76   627.2    2.9      55.203
2014   10       23    14  54    4.76   627.1    2.9      55.178
2014   10       23    15   0    4.76   626.9    2.9      55.153
2014   10       23    15   5    4.76   626.8    2.9      55.127
2014   10       23    15  11    4.76   626.7    2.9      55.102
2014   10       23    15  17    4.76   626.5    2.9      55.077
2014   10       23    15  23    4.76   626.4    2.9      55.051
2014   10       23    15  29    4.75   626.2    2.9      55.026
2014   10       23    15  35    4.75   626.1    2.9      55.001
2014   10       23    15  40    4.75   625.9    2.9      54.975
2014   10       23    15  46    4.75   625.8    2.9      54.950
2014   10       23    15  52    4.75   625.6    2.9      54.925
2014   10       23    15  58    4.75   625.5    2.9      54.900
2014   10       23    16   4    4.75   625.4    2.9      54.874
2014   10       23    16   9    4.74   625.2    2.9      54.849
2014   10       23    16  15    4.74   625.1    2.9      54.823
2014   10       23    16  21    4.74   624.9    2.9      54.796
2014   10       23    16  27    4.74   624.8    2.9      54.769
2014   10       23    16  33    4.74   624.6    2.9      54.741
2014   10       23    16  39    4.74   624.5    2.9      54.712
2014   10       23    16  44    4.73   624.3    2.9      54.684
2014   10       23    16  50    4.73   624.2    2.9      54.654
2014   10       23    16  56    4.73   624.0    2.9      54.625
2014   10       23    17   2    4.73   623.9    2.9      54.596
2014   10       23    17   8    4.73   623.7    2.9      54.566
2014   10       23    17  14    4.73   623.6    2.9      54.536
2014   10       23    17  19    4.73   623.4    2.9      54.507
2014   10       23    17  25    4.72   623.3    2.9      54.477
2014   10       23    17  31    4.72   623.1    2.9      54.448
2014   10       23    17  37    4.72   623.0    2.9      54.419
2014   10       23    17  43    4.72   622.8    2.9      54.390
2014   10       23    17  49    4.72   622.7    2.9      54.362
2014   10       23    17  54    4.72   622.5    2.9      54.334
2014   10       23    18   0    4.72   622.4    2.9      54.306
2014   10       23    18   6    4.71   622.2    2.9      54.279
2014   10       23    18  12    4.71   622.1    2.9      54.252
2014   10       23    18  18    4.71   621.9    2.9      54.225
2014   10       23    18  24    4.71   621.8    2.9      54.197
2014   10       23    18  29    4.71   621.6    2.9      54.170
2014   10       23    18  35    4.71   621.5    2.9      54.142
2014   10       23    18  41    4.71   621.3    2.9      54.113
2014   10       23    18  47    4.70   621.2    2.9      54.084
2014   10       23    18  53    4.70   621.0    2.9      54.054
2014   10       23    18  59    4.70   620.9    2.9      54.023
2014   10       23    19   4    4.70   620.7    2.9      53.992
2014   10       23    19  10    4.70   620.6    2.9      53.960
2014   10       23    19  16    4.70   620.4    2.9      53.929
2014   10       23    19  22    4.70   620.2    2.9      53.897
2014   10       23    19  28    4.69   620.1    2.9      53.865
2014   10       23    19  34    4.69   619.9    2.9      53.833
2014   10       23    19  39    4.69   619.8    2.9      53.801
2014   10       23    19  45    4.69   619.6    2.9      53.769
2014   10       23    19  51    4.69   619.4    2.9      53.737
2014   10       23    19  57    4.69   619.3    2.9      53.706
2014   10       23    20   3    4.69   619.1    2.9      53.674
2014   10       23    20   9    4.68   619.0    2.9      53.643
2014   10       23    20  14    4.68   618.8    2.9      53.612
2014   10       23    20  20    4.68   618.6    2.9      53.581
2014   10       23    20  26    4.68   618.5    2.9      53.550
2014   10       23    20  32    4.68   618.3    2.9      53.519
2014   10       23    20  38    4.68   618.2    2.9      53.489
2014   10       23    20  44    4.68   618.0    2.9      53.458
2014   10       23    20  49    4.67   617.8    2.9      53.427
2014   10       23    20  55    4.67   617.7    2.9      53.396
2014   10       23    21   1    4.67   617.5    2.9      53.366
2014   10       23    21   7    4.67   617.3    2.9      53.335
2014   10       23    21  13    4.67   617.2    2.9      53.305
2014   10       23    21  19    4.67   617.0    2.9      53.274
2014   10       23    21  24    4.67   616.8    2.9      53.244
2014   10       23    21  30    4.67   616.6    2.9      53.214
2014   10       23    21  36    4.66   616.5    2.9      53.183
2014   10       23    21  42    4.66   616.3    2.9      53.152
2014   10       23    21  48    4.66   616.1    2.9      53.122
2014   10       23    21  53    4.66   615.9    2.9      53.091
2014   10       23    21  59    4.66   615.8    2.9      53.060
2014   10       23    22   5    4.66   615.6    2.9      53.029
2014   10       23    22  11    4.66   615.4    2.9      52.997
2014   10       23    22  17    4.65   615.2    2.9      52.965
2014   10       23    22  23    4.65   615.1    2.9      52.934
2014   10       23    22  28    4.65   614.9    2.9      52.902
2014   10       23    22  34    4.65   614.7    2.9      52.870
2014   10       23    22  40    4.65   614.5    2.9      52.838
2014   10       23    22  46    4.65   614.3    2.9      52.805
2014   10       23    22  52    4.65   614.2    2.9      52.773
2014   10       23    22  58    4.64   614.0    2.9      52.741
2014   10       23    23   3    4.64   613.8    2.9      52.708
2014   10       23    23   9    4.64   613.6    2.9      52.676
2014   10       23    23  15    4.64   613.4    2.9      52.643
2014   10       23    23  21    4.64   613.3    2.9      52.611
2014   10       23    23  27    4.64   613.1    2.9      52.579
2014   10       23    23  32    4.64   612.9    2.9      52.547
2014   10       23    23  38    4.64   612.7    2.9      52.516
2014   10       23    23  44    4.63   612.5    2.9      52.485
2014   10       23    23  50    4.63   612.4    2.9      52.454
2014   10       23    23  56    4.63   612.2    2.9      52.424
2014   10       24     0   2    4.63   612.0    2.9      52.394
