year    month   day   hour  minute  B_enl V_enl   n_enl       T_enl
[year] [month] [day] [hour][minute] [nT]  [km/s]  [cm-3]      [kK]
2014   10        6     0   1    5.51   422.1    7.1      41.356
2014   10        6     0   7    5.51   422.1    7.1      41.335
2014   10        6     0  13    5.50   422.1    7.1      41.314
2014   10        6     0  19    5.50   422.1    7.1      41.293
2014   10        6     0  24    5.49   422.1    7.1      41.273
2014   10        6     0  30    5.49   422.1    7.1      41.253
2014   10        6     0  36    5.49   422.1    7.1      41.233
2014   10        6     0  42    5.48   422.1    7.1      41.212
2014   10        6     0  48    5.48   422.1    7.1      41.193
2014   10        6     0  53    5.48   422.1    7.1      41.173
2014   10        6     0  59    5.47   422.1    7.1      41.153
2014   10        6     1   5    5.47   422.1    7.1      41.133
2014   10        6     1  11    5.47   422.1    7.0      41.114
2014   10        6     1  17    5.46   422.1    7.0      41.094
2014   10        6     1  22    5.46   422.1    7.0      41.075
2014   10        6     1  28    5.46   422.1    7.0      41.055
2014   10        6     1  34    5.45   422.1    7.0      41.036
2014   10        6     1  40    5.45   422.1    7.0      41.017
2014   10        6     1  46    5.45   422.1    7.0      40.997
2014   10        6     1  51    5.44   422.1    7.0      40.978
2014   10        6     1  57    5.44   422.1    7.0      40.959
2014   10        6     2   3    5.44   422.1    7.0      40.939
2014   10        6     2   9    5.43   422.1    7.0      40.920
2014   10        6     2  15    5.43   422.1    7.0      40.900
2014   10        6     2  20    5.43   422.1    7.0      40.881
2014   10        6     2  26    5.42   422.0    7.0      40.861
2014   10        6     2  32    5.42   422.0    7.0      40.842
2014   10        6     2  38    5.42   422.0    7.0      40.822
2014   10        6     2  43    5.41   422.0    7.0      40.802
2014   10        6     2  49    5.41   422.0    7.0      40.783
2014   10        6     2  55    5.41   422.0    7.0      40.763
2014   10        6     3   1    5.40   422.0    7.0      40.743
2014   10        6     3   7    5.40   422.0    7.0      40.723
2014   10        6     3  12    5.40   422.0    7.0      40.703
2014   10        6     3  18    5.39   422.0    7.0      40.683
2014   10        6     3  24    5.39   422.0    7.0      40.663
2014   10        6     3  30    5.39   422.0    7.0      40.643
2014   10        6     3  36    5.39   422.0    7.0      40.623
2014   10        6     3  41    5.38   421.9    7.0      40.603
2014   10        6     3  47    5.38   421.9    7.0      40.583
2014   10        6     3  53    5.38   421.9    7.0      40.563
2014   10        6     3  59    5.37   421.9    7.0      40.543
2014   10        6     4   5    5.37   421.9    7.0      40.523
2014   10        6     4  10    5.37   421.9    7.0      40.502
2014   10        6     4  16    5.36   421.9    7.0      40.482
2014   10        6     4  22    5.36   421.9    7.0      40.462
2014   10        6     4  28    5.36   421.9    7.0      40.442
2014   10        6     4  34    5.35   421.8    6.9      40.422
2014   10        6     4  39    5.35   421.8    6.9      40.402
2014   10        6     4  45    5.35   421.8    6.9      40.383
2014   10        6     4  51    5.34   421.8    6.9      40.363
2014   10        6     4  57    5.34   421.8    6.9      40.343
2014   10        6     5   2    5.34   421.8    6.9      40.323
2014   10        6     5   8    5.34   421.8    6.9      40.303
2014   10        6     5  14    5.33   421.7    6.9      40.284
2014   10        6     5  20    5.33   421.7    6.9      40.264
2014   10        6     5  26    5.33   421.7    6.9      40.245
2014   10        6     5  31    5.32   421.7    6.9      40.225
2014   10        6     5  37    5.32   421.7    6.9      40.206
2014   10        6     5  43    5.32   421.7    6.9      40.186
2014   10        6     5  49    5.31   421.6    6.9      40.167
2014   10        6     5  55    5.31   421.6    6.9      40.148
2014   10        6     6   0    5.31   421.6    6.9      40.129
2014   10        6     6   6    5.30   421.6    6.9      40.109
2014   10        6     6  12    5.30   421.6    6.9      40.090
2014   10        6     6  18    5.30   421.6    6.9      40.072
2014   10        6     6  24    5.30   421.5    6.9      40.053
2014   10        6     6  29    5.29   421.5    6.9      40.034
2014   10        6     6  35    5.29   421.5    6.9      40.015
2014   10        6     6  41    5.29   421.5    6.9      39.996
2014   10        6     6  47    5.28   421.5    6.9      39.977
2014   10        6     6  53    5.28   421.4    6.9      39.959
2014   10        6     6  58    5.28   421.4    6.9      39.940
2014   10        6     7   4    5.28   421.4    6.9      39.921
2014   10        6     7  10    5.27   421.4    6.9      39.903
2014   10        6     7  16    5.27   421.4    6.9      39.884
2014   10        6     7  21    5.27   421.3    6.9      39.865
2014   10        6     7  27    5.26   421.3    6.9      39.847
2014   10        6     7  33    5.26   421.3    6.9      39.828
2014   10        6     7  39    5.26   421.3    6.9      39.809
2014   10        6     7  45    5.26   421.3    6.9      39.790
2014   10        6     7  50    5.25   421.2    6.9      39.772
2014   10        6     7  56    5.25   421.2    6.9      39.753
2014   10        6     8   2    5.25   421.2    6.9      39.734
2014   10        6     8   8    5.24   421.2    6.9      39.715
2014   10        6     8  14    5.24   421.1    6.9      39.696
2014   10        6     8  19    5.24   421.1    6.9      39.677
2014   10        6     8  25    5.24   421.1    6.9      39.658
2014   10        6     8  31    5.23   421.1    6.9      39.639
2014   10        6     8  37    5.23   421.1    6.9      39.620
2014   10        6     8  43    5.23   421.0    6.9      39.601
2014   10        6     8  48    5.23   421.0    6.9      39.581
2014   10        6     8  54    5.22   421.0    6.8      39.562
2014   10        6     9   0    5.22   420.9    6.8      39.543
2014   10        6     9   6    5.22   420.9    6.8      39.524
2014   10        6     9  12    5.21   420.9    6.8      39.504
2014   10        6     9  17    5.21   420.9    6.8      39.485
2014   10        6     9  23    5.21   420.8    6.8      39.465
2014   10        6     9  29    5.21   420.8    6.8      39.446
2014   10        6     9  35    5.20   420.8    6.8      39.426
2014   10        6     9  41    5.20   420.8    6.8      39.407
2014   10        6     9  46    5.20   420.7    6.8      39.388
2014   10        6     9  52    5.20   420.7    6.8      39.368
2014   10        6     9  58    5.19   420.7    6.8      39.349
2014   10        6    10   4    5.19   420.6    6.8      39.330
2014   10        6    10  10    5.19   420.6    6.8      39.310
2014   10        6    10  15    5.19   420.6    6.8      39.291
2014   10        6    10  21    5.18   420.6    6.8      39.272
2014   10        6    10  27    5.18   420.5    6.8      39.253
2014   10        6    10  33    5.18   420.5    6.8      39.234
2014   10        6    10  39    5.18   420.5    6.8      39.215
2014   10        6    10  44    5.17   420.4    6.8      39.197
2014   10        6    10  50    5.17   420.4    6.8      39.178
2014   10        6    10  56    5.17   420.4    6.8      39.160
2014   10        6    11   2    5.17   420.4    6.8      39.141
2014   10        6    11   8    5.16   420.3    6.8      39.123
2014   10        6    11  13    5.16   420.3    6.8      39.105
2014   10        6    11  19    5.16   420.3    6.8      39.087
2014   10        6    11  25    5.16   420.2    6.8      39.069
2014   10        6    11  31    5.15   420.2    6.8      39.051
2014   10        6    11  36    5.15   420.2    6.8      39.033
2014   10        6    11  42    5.15   420.1    6.8      39.015
2014   10        6    11  48    5.15   420.1    6.8      38.998
2014   10        6    11  54    5.14   420.1    6.8      38.980
2014   10        6    12   0    5.14   420.1    6.8      38.962
2014   10        6    12   5    5.14   420.0    6.8      38.945
2014   10        6    12  11    5.14   420.0    6.8      38.927
2014   10        6    12  17    5.13   420.0    6.8      38.910
2014   10        6    12  23    5.13   419.9    6.8      38.892
2014   10        6    12  29    5.13   419.9    6.8      38.874
2014   10        6    12  34    5.13   419.9    6.8      38.857
2014   10        6    12  40    5.13   419.8    6.8      38.839
2014   10        6    12  46    5.12   419.8    6.8      38.821
2014   10        6    12  52    5.12   419.8    6.8      38.803
2014   10        6    12  57    5.12   419.7    6.8      38.785
2014   10        6    13   3    5.12   419.7    6.8      38.767
2014   10        6    13   9    5.11   419.7    6.8      38.749
2014   10        6    13  15    5.11   419.6    6.8      38.731
2014   10        6    13  21    5.11   419.6    6.8      38.713
2014   10        6    13  26    5.11   419.6    6.8      38.695
2014   10        6    13  32    5.10   419.5    6.8      38.677
2014   10        6    13  38    5.10   419.5    6.8      38.658
2014   10        6    13  44    5.10   419.4    6.8      38.640
2014   10        6    13  50    5.10   419.4    6.8      38.621
2014   10        6    13  55    5.10   419.4    6.8      38.603
2014   10        6    14   1    5.09   419.3    6.8      38.584
2014   10        6    14   7    5.09   419.3    6.8      38.566
2014   10        6    14  13    5.09   419.3    6.8      38.547
2014   10        6    14  19    5.09   419.2    6.8      38.528
2014   10        6    14  24    5.08   419.2    6.8      38.510
2014   10        6    14  30    5.08   419.1    6.8      38.491
2014   10        6    14  36    5.08   419.1    6.8      38.472
2014   10        6    14  42    5.08   419.1    6.8      38.453
2014   10        6    14  48    5.07   419.0    6.8      38.433
2014   10        6    14  53    5.07   419.0    6.8      38.414
2014   10        6    14  59    5.07   418.9    6.8      38.395
2014   10        6    15   5    5.07   418.9    6.8      38.375
2014   10        6    15  11    5.07   418.9    6.8      38.355
2014   10        6    15  17    5.06   418.8    6.8      38.336
2014   10        6    15  22    5.06   418.8    6.8      38.316
2014   10        6    15  28    5.06   418.7    6.8      38.296
2014   10        6    15  34    5.06   418.7    6.8      38.276
2014   10        6    15  40    5.05   418.7    6.8      38.256
2014   10        6    15  46    5.05   418.6    6.8      38.235
2014   10        6    15  51    5.05   418.6    6.8      38.215
2014   10        6    15  57    5.05   418.5    6.8      38.195
2014   10        6    16   3    5.05   418.5    6.8      38.174
2014   10        6    16   9    5.04   418.4    6.8      38.153
2014   10        6    16  15    5.04   418.4    6.8      38.133
2014   10        6    16  20    5.04   418.4    6.8      38.112
2014   10        6    16  26    5.04   418.3    6.8      38.091
2014   10        6    16  32    5.04   418.3    6.8      38.070
2014   10        6    16  38    5.03   418.2    6.8      38.049
2014   10        6    16  44    5.03   418.2    6.8      38.028
2014   10        6    16  49    5.03   418.1    6.8      38.007
2014   10        6    16  55    5.03   418.1    6.8      37.986
2014   10        6    17   1    5.02   418.0    6.8      37.965
2014   10        6    17   7    5.02   418.0    6.8      37.943
2014   10        6    17  13    5.02   417.9    6.8      37.922
2014   10        6    17  18    5.02   417.9    6.8      37.901
2014   10        6    17  24    5.02   417.9    6.7      37.880
2014   10        6    17  30    5.01   417.8    6.7      37.858
2014   10        6    17  36    5.01   417.8    6.7      37.837
2014   10        6    17  41    5.01   417.7    6.7      37.816
2014   10        6    17  47    5.01   417.7    6.7      37.795
2014   10        6    17  53    5.01   417.6    6.7      37.774
2014   10        6    17  59    5.00   417.6    6.7      37.754
2014   10        6    18   5    5.00   417.5    6.7      37.733
2014   10        6    18  10    5.00   417.5    6.7      37.712
2014   10        6    18  16    5.00   417.4    6.7      37.692
2014   10        6    18  22    5.00   417.4    6.7      37.671
2014   10        6    18  28    4.99   417.3    6.7      37.651
2014   10        6    18  34    4.99   417.3    6.7      37.631
2014   10        6    18  39    4.99   417.2    6.7      37.611
2014   10        6    18  45    4.99   417.2    6.7      37.591
2014   10        6    18  51    4.99   417.1    6.7      37.571
2014   10        6    18  57    4.99   417.1    6.7      37.552
2014   10        6    19   3    4.98   417.0    6.7      37.532
2014   10        6    19   8    4.98   417.0    6.7      37.513
2014   10        6    19  14    4.98   416.9    6.7      37.493
2014   10        6    19  20    4.98   416.9    6.7      37.474
2014   10        6    19  26    4.98   416.8    6.7      37.455
2014   10        6    19  31    4.97   416.8    6.7      37.435
2014   10        6    19  37    4.97   416.7    6.7      37.416
2014   10        6    19  43    4.97   416.7    6.7      37.397
2014   10        6    19  49    4.97   416.6    6.7      37.378
2014   10        6    19  55    4.97   416.6    6.7      37.359
2014   10        6    20   0    4.97   416.5    6.7      37.340
2014   10        6    20   6    4.96   416.5    6.7      37.321
2014   10        6    20  12    4.96   416.4    6.7      37.302
2014   10        6    20  18    4.96   416.4    6.7      37.283
2014   10        6    20  24    4.96   416.3    6.7      37.264
2014   10        6    20  29    4.96   416.3    6.7      37.245
2014   10        6    20  35    4.95   416.2    6.7      37.226
2014   10        6    20  41    4.95   416.2    6.7      37.206
2014   10        6    20  47    4.95   416.1    6.7      37.187
2014   10        6    20  53    4.95   416.0    6.7      37.168
2014   10        6    20  58    4.95   416.0    6.7      37.149
2014   10        6    21   4    4.95   415.9    6.7      37.130
2014   10        6    21  10    4.94   415.9    6.7      37.111
2014   10        6    21  16    4.94   415.8    6.7      37.092
2014   10        6    21  22    4.94   415.8    6.7      37.072
2014   10        6    21  27    4.94   415.7    6.7      37.053
2014   10        6    21  33    4.94   415.7    6.7      37.034
2014   10        6    21  39    4.94   415.6    6.7      37.015
2014   10        6    21  45    4.93   415.6    6.7      36.996
2014   10        6    21  50    4.93   415.5    6.7      36.977
2014   10        6    21  56    4.93   415.4    6.8      36.958
2014   10        6    22   2    4.93   415.4    6.8      36.939
2014   10        6    22   8    4.93   415.3    6.8      36.920
2014   10        6    22  14    4.93   415.3    6.8      36.901
2014   10        6    22  19    4.92   415.2    6.8      36.882
2014   10        6    22  25    4.92   415.2    6.8      36.863
2014   10        6    22  31    4.92   415.1    6.8      36.845
2014   10        6    22  37    4.92   415.0    6.8      36.826
2014   10        6    22  43    4.92   415.0    6.8      36.808
2014   10        6    22  48    4.92   414.9    6.8      36.789
2014   10        6    22  54    4.92   414.9    6.8      36.771
2014   10        6    23   0    4.91   414.8    6.8      36.753
2014   10        6    23   6    4.91   414.8    6.8      36.734
2014   10        6    23  12    4.91   414.7    6.8      36.716
2014   10        6    23  17    4.91   414.6    6.8      36.697
2014   10        6    23  23    4.91   414.6    6.8      36.678
2014   10        6    23  29    4.91   414.5    6.8      36.660
2014   10        6    23  35    4.90   414.5    6.8      36.641
2014   10        6    23  41    4.90   414.4    6.8      36.621
2014   10        6    23  46    4.90   414.3    6.8      36.602
2014   10        6    23  52    4.90   414.3    6.7      36.583
2014   10        6    23  58    4.90   414.2    6.7      36.563
2014   10        7     0   4    4.90   414.2    6.7      36.544
2014   10        7     0  10    4.90   414.1    6.7      36.524
2014   10        7     0  15    4.89   414.1    6.7      36.504
2014   10        7     0  21    4.89   414.0    6.7      36.484
2014   10        7     0  27    4.89   413.9    6.7      36.464
2014   10        7     0  33    4.89   413.9    6.7      36.443
2014   10        7     0  39    4.89   413.8    6.7      36.423
2014   10        7     0  44    4.89   413.7    6.7      36.402
2014   10        7     0  50    4.89   413.7    6.7      36.381
2014   10        7     0  56    4.88   413.6    6.7      36.361
2014   10        7     1   2    4.88   413.6    6.7      36.340
2014   10        7     1   8    4.88   413.5    6.7      36.319
2014   10        7     1  13    4.88   413.4    6.7      36.298
2014   10        7     1  19    4.88   413.4    6.7      36.277
2014   10        7     1  25    4.88   413.3    6.7      36.255
2014   10        7     1  31    4.88   413.2    6.7      36.234
2014   10        7     1  37    4.87   413.2    6.7      36.213
2014   10        7     1  42    4.87   413.1    6.7      36.192
2014   10        7     1  48    4.87   413.1    6.7      36.171
2014   10        7     1  54    4.87   413.0    6.7      36.150
2014   10        7     2   0    4.87   412.9    6.7      36.128
2014   10        7     2   5    4.87   412.9    6.7      36.107
2014   10        7     2  11    4.87   412.8    6.7      36.086
2014   10        7     2  17    4.86   412.7    6.7      36.065
2014   10        7     2  23    4.86   412.7    6.7      36.043
2014   10        7     2  29    4.86   412.6    6.7      36.022
2014   10        7     2  34    4.86   412.5    6.7      36.001
2014   10        7     2  40    4.86   412.5    6.7      35.980
2014   10        7     2  46    4.86   412.4    6.7      35.959
2014   10        7     2  52    4.86   412.3    6.7      35.938
2014   10        7     2  58    4.86   412.2    6.7      35.917
2014   10        7     3   3    4.85   412.2    6.7      35.896
2014   10        7     3   9    4.85   412.1    6.7      35.876
2014   10        7     3  15    4.85   412.0    6.7      35.855
2014   10        7     3  21    4.85   412.0    6.7      35.834
2014   10        7     3  27    4.85   411.9    6.7      35.814
2014   10        7     3  32    4.85   411.8    6.7      35.793
2014   10        7     3  38    4.85   411.8    6.7      35.773
2014   10        7     3  44    4.85   411.7    6.7      35.752
2014   10        7     3  50    4.84   411.6    6.7      35.732
2014   10        7     3  55    4.84   411.5    6.7      35.711
2014   10        7     4   1    4.84   411.5    6.7      35.691
2014   10        7     4   7    4.84   411.4    6.7      35.671
2014   10        7     4  13    4.84   411.3    6.7      35.650
2014   10        7     4  19    4.84   411.3    6.7      35.630
2014   10        7     4  24    4.84   411.2    6.7      35.610
2014   10        7     4  30    4.84   411.1    6.7      35.590
2014   10        7     4  36    4.84   411.0    6.7      35.570
2014   10        7     4  42    4.83   411.0    6.7      35.550
2014   10        7     4  48    4.83   410.9    6.7      35.531
2014   10        7     4  53    4.83   410.8    6.7      35.511
2014   10        7     4  59    4.83   410.7    6.7      35.492
2014   10        7     5   5    4.83   410.6    6.7      35.472
2014   10        7     5  11    4.83   410.6    6.7      35.453
2014   10        7     5  17    4.83   410.5    6.7      35.434
2014   10        7     5  22    4.83   410.4    6.7      35.415
2014   10        7     5  28    4.83   410.3    6.7      35.397
2014   10        7     5  34    4.83   410.3    6.7      35.378
2014   10        7     5  40    4.82   410.2    6.7      35.360
2014   10        7     5  46    4.82   410.1    6.7      35.342
2014   10        7     5  51    4.82   410.0    6.7      35.325
2014   10        7     5  57    4.82   410.0    6.7      35.307
2014   10        7     6   3    4.82   409.9    6.7      35.291
2014   10        7     6   9    4.82   409.8    6.7      35.274
2014   10        7     6  14    4.82   409.7    6.8      35.257
2014   10        7     6  20    4.82   409.6    6.8      35.241
2014   10        7     6  26    4.82   409.6    6.8      35.225
2014   10        7     6  32    4.82   409.5    6.8      35.210
2014   10        7     6  38    4.82   409.4    6.8      35.194
2014   10        7     6  43    4.82   409.3    6.8      35.179
2014   10        7     6  49    4.82   409.3    6.8      35.164
2014   10        7     6  55    4.82   409.2    6.8      35.149
2014   10        7     7   1    4.81   409.1    6.8      35.134
2014   10        7     7   7    4.81   409.0    6.8      35.119
2014   10        7     7  12    4.81   409.0    6.8      35.104
2014   10        7     7  18    4.81   408.9    6.8      35.089
2014   10        7     7  24    4.81   408.8    6.8      35.074
2014   10        7     7  30    4.81   408.7    6.8      35.059
2014   10        7     7  36    4.81   408.6    6.8      35.045
2014   10        7     7  41    4.81   408.6    6.8      35.030
2014   10        7     7  47    4.81   408.5    6.8      35.015
2014   10        7     7  53    4.81   408.4    6.8      35.000
2014   10        7     7  59    4.81   408.3    6.8      34.986
2014   10        7     8   4    4.81   408.3    6.8      34.971
2014   10        7     8  10    4.81   408.2    6.8      34.956
2014   10        7     8  16    4.81   408.1    6.8      34.941
2014   10        7     8  22    4.81   408.0    6.8      34.926
2014   10        7     8  28    4.80   407.9    6.8      34.911
2014   10        7     8  33    4.80   407.9    6.8      34.897
2014   10        7     8  39    4.80   407.8    6.8      34.882
2014   10        7     8  45    4.80   407.7    6.8      34.867
2014   10        7     8  51    4.80   407.6    6.8      34.852
2014   10        7     8  56    4.80   407.5    6.8      34.837
2014   10        7     9   2    4.80   407.5    6.8      34.822
2014   10        7     9   8    4.80   407.4    6.8      34.807
2014   10        7     9  14    4.80   407.3    6.8      34.793
2014   10        7     9  20    4.80   407.2    6.8      34.778
2014   10        7     9  25    4.80   407.1    6.8      34.763
2014   10        7     9  31    4.80   407.0    6.8      34.748
2014   10        7     9  37    4.80   407.0    6.8      34.734
2014   10        7     9  43    4.80   406.9    6.8      34.719
2014   10        7     9  49    4.80   406.8    6.8      34.704
2014   10        7     9  54    4.80   406.7    6.8      34.690
2014   10        7    10   0    4.80   406.6    6.8      34.675
2014   10        7    10   6    4.80   406.6    6.8      34.660
2014   10        7    10  12    4.80   406.5    6.8      34.646
2014   10        7    10  18    4.80   406.4    6.8      34.631
2014   10        7    10  23    4.80   406.3    6.8      34.617
2014   10        7    10  29    4.80   406.2    6.8      34.602
2014   10        7    10  35    4.80   406.1    6.8      34.587
2014   10        7    10  41    4.79   406.1    6.8      34.573
2014   10        7    10  46    4.79   406.0    6.8      34.559
2014   10        7    10  52    4.79   405.9    6.8      34.544
2014   10        7    10  58    4.79   405.8    6.8      34.530
2014   10        7    11   4    4.79   405.7    6.8      34.515
2014   10        7    11  10    4.79   405.6    6.8      34.501
2014   10        7    11  15    4.79   405.6    6.8      34.486
2014   10        7    11  21    4.79   405.5    6.8      34.472
2014   10        7    11  27    4.79   405.4    6.8      34.458
2014   10        7    11  33    4.79   405.3    6.8      34.443
2014   10        7    11  39    4.79   405.2    6.8      34.429
2014   10        7    11  44    4.79   405.1    6.8      34.415
2014   10        7    11  50    4.79   405.0    6.8      34.401
2014   10        7    11  56    4.79   405.0    6.8      34.387
2014   10        7    12   2    4.79   404.9    6.8      34.373
2014   10        7    12   8    4.79   404.8    6.8      34.359
2014   10        7    12  13    4.79   404.7    6.8      34.345
2014   10        7    12  19    4.79   404.6    6.8      34.331
2014   10        7    12  25    4.79   404.5    6.8      34.317
2014   10        7    12  31    4.79   404.4    6.9      34.304
2014   10        7    12  37    4.79   404.3    6.9      34.290
2014   10        7    12  42    4.79   404.3    6.9      34.277
2014   10        7    12  48    4.79   404.2    6.9      34.263
2014   10        7    12  54    4.79   404.1    6.9      34.250
2014   10        7    13   0    4.79   404.0    6.9      34.237
2014   10        7    13   5    4.79   403.9    6.9      34.224
2014   10        7    13  11    4.79   403.8    6.9      34.211
2014   10        7    13  17    4.79   403.7    6.9      34.198
2014   10        7    13  23    4.79   403.6    6.9      34.185
2014   10        7    13  29    4.79   403.5    6.9      34.172
2014   10        7    13  34    4.79   403.4    6.9      34.160
2014   10        7    13  40    4.79   403.3    6.9      34.147
2014   10        7    13  46    4.79   403.3    6.9      34.135
2014   10        7    13  52    4.79   403.2    6.9      34.122
2014   10        7    13  58    4.79   403.1    6.9      34.110
2014   10        7    14   3    4.79   403.0    6.9      34.098
2014   10        7    14   9    4.79   402.9    6.9      34.085
2014   10        7    14  15    4.79   402.8    6.9      34.073
2014   10        7    14  21    4.79   402.7    6.9      34.061
2014   10        7    14  27    4.79   402.6    6.9      34.049
2014   10        7    14  32    4.79   402.5    6.9      34.037
2014   10        7    14  38    4.79   402.4    6.9      34.025
2014   10        7    14  44    4.80   402.3    6.9      34.013
2014   10        7    14  50    4.80   402.2    6.9      34.002
2014   10        7    14  55    4.80   402.1    6.9      33.990
2014   10        7    15   1    4.80   402.0    6.9      33.978
2014   10        7    15   7    4.80   401.9    6.9      33.966
2014   10        7    15  13    4.80   401.8    6.9      33.955
2014   10        7    15  19    4.80   401.7    6.9      33.943
2014   10        7    15  24    4.80   401.6    6.9      33.931
2014   10        7    15  30    4.80   401.5    7.0      33.920
2014   10        7    15  36    4.80   401.4    7.0      33.909
2014   10        7    15  42    4.80   401.3    7.0      33.897
2014   10        7    15  48    4.80   401.2    7.0      33.886
2014   10        7    15  53    4.80   401.1    7.0      33.875
2014   10        7    15  59    4.80   401.0    7.0      33.864
2014   10        7    16   5    4.80   400.9    7.0      33.853
2014   10        7    16  11    4.80   400.8    7.0      33.842
2014   10        7    16  16    4.80   400.7    7.0      33.831
2014   10        7    16  22    4.80   400.6    7.0      33.820
2014   10        7    16  28    4.80   400.5    7.0      33.810
2014   10        7    16  34    4.81   400.4    7.0      33.800
2014   10        7    16  40    4.81   400.3    7.0      33.789
2014   10        7    16  45    4.81   400.2    7.0      33.779
2014   10        7    16  51    4.81   400.1    7.0      33.769
2014   10        7    16  57    4.81   400.0    7.0      33.760
2014   10        7    17   3    4.81   399.9    7.0      33.750
2014   10        7    17   9    4.81   399.8    7.0      33.741
2014   10        7    17  14    4.81   399.7    7.0      33.732
2014   10        7    17  20    4.81   399.6    7.0      33.723
2014   10        7    17  26    4.81   399.5    7.1      33.715
2014   10        7    17  32    4.81   399.4    7.1      33.707
2014   10        7    17  37    4.82   399.3    7.1      33.699
2014   10        7    17  43    4.82   399.2    7.1      33.691
2014   10        7    17  49    4.82   399.1    7.1      33.684
2014   10        7    17  55    4.82   399.0    7.1      33.677
2014   10        7    18   1    4.82   398.9    7.1      33.670
2014   10        7    18   6    4.82   398.8    7.1      33.663
2014   10        7    18  12    4.82   398.7    7.1      33.657
2014   10        7    18  18    4.83   398.6    7.1      33.651
2014   10        7    18  24    4.83   398.5    7.1      33.645
2014   10        7    18  30    4.83   398.4    7.1      33.640
2014   10        7    18  35    4.83   398.3    7.1      33.634
2014   10        7    18  41    4.83   398.2    7.1      33.629
2014   10        7    18  47    4.83   398.1    7.1      33.625
2014   10        7    18  53    4.83   398.0    7.1      33.620
2014   10        7    18  59    4.84   397.9    7.1      33.616
2014   10        7    19   4    4.84   397.8    7.2      33.612
2014   10        7    19  10    4.84   397.7    7.2      33.608
2014   10        7    19  16    4.84   397.6    7.2      33.604
2014   10        7    19  22    4.84   397.5    7.2      33.601
2014   10        7    19  28    4.84   397.4    7.2      33.598
2014   10        7    19  33    4.85   397.3    7.2      33.595
2014   10        7    19  39    4.85   397.2    7.2      33.592
2014   10        7    19  45    4.85   397.1    7.2      33.589
2014   10        7    19  51    4.85   397.0    7.2      33.587
2014   10        7    19  57    4.85   396.9    7.2      33.584
2014   10        7    20   2    4.86   396.8    7.2      33.583
2014   10        7    20   8    4.86   396.7    7.2      33.581
2014   10        7    20  14    4.86   396.7    7.2      33.579
2014   10        7    20  20    4.86   396.6    7.2      33.578
2014   10        7    20  26    4.86   396.5    7.3      33.577
2014   10        7    20  31    4.86   396.4    7.3      33.575
2014   10        7    20  37    4.87   396.3    7.3      33.575
2014   10        7    20  43    4.87   396.2    7.3      33.574
2014   10        7    20  49    4.87   396.1    7.3      33.574
2014   10        7    20  55    4.87   396.0    7.3      33.573
2014   10        7    21   0    4.87   395.9    7.3      33.573
2014   10        7    21   6    4.88   395.8    7.3      33.573
2014   10        7    21  12    4.88   395.7    7.3      33.574
2014   10        7    21  18    4.88   395.6    7.3      33.574
2014   10        7    21  24    4.88   395.6    7.3      33.575
2014   10        7    21  29    4.88   395.5    7.3      33.575
2014   10        7    21  35    4.89   395.4    7.3      33.575
2014   10        7    21  41    4.89   395.3    7.3      33.576
2014   10        7    21  47    4.89   395.2    7.4      33.576
2014   10        7    21  53    4.89   395.1    7.4      33.576
2014   10        7    21  58    4.90   395.0    7.4      33.576
2014   10        7    22   4    4.90   394.9    7.4      33.576
2014   10        7    22  10    4.90   394.8    7.4      33.576
2014   10        7    22  16    4.90   394.8    7.4      33.575
2014   10        7    22  22    4.90   394.7    7.4      33.574
2014   10        7    22  27    4.91   394.6    7.4      33.574
2014   10        7    22  33    4.91   394.5    7.4      33.573
2014   10        7    22  39    4.91   394.4    7.4      33.572
2014   10        7    22  45    4.91   394.3    7.4      33.571
2014   10        7    22  50    4.92   394.2    7.4      33.570
2014   10        7    22  56    4.92   394.1    7.4      33.569
2014   10        7    23   2    4.92   394.0    7.4      33.568
2014   10        7    23   8    4.92   394.0    7.5      33.567
2014   10        7    23  14    4.93   393.9    7.5      33.566
2014   10        7    23  19    4.93   393.8    7.5      33.565
2014   10        7    23  25    4.93   393.7    7.5      33.564
2014   10        7    23  31    4.93   393.6    7.5      33.563
2014   10        7    23  37    4.94   393.5    7.5      33.562
2014   10        7    23  43    4.94   393.4    7.5      33.562
2014   10        7    23  48    4.94   393.3    7.5      33.561
2014   10        7    23  54    4.94   393.3    7.5      33.561
2014   10        8     0   0    4.95   393.2    7.5      33.561
2014   10        8     0   6    4.95   393.1    7.5      33.561
2014   10        8     0  12    4.95   393.0    7.5      33.562
2014   10        8     0  17    4.96   392.9    7.6      33.562
2014   10        8     0  23    4.96   392.8    7.6      33.563
2014   10        8     0  29    4.96   392.7    7.6      33.565
2014   10        8     0  35    4.96   392.7    7.6      33.566
2014   10        8     0  41    4.97   392.6    7.6      33.568
2014   10        8     0  46    4.97   392.5    7.6      33.571
2014   10        8     0  52    4.97   392.4    7.6      33.574
2014   10        8     0  58    4.98   392.3    7.6      33.578
2014   10        8     1   4    4.98   392.3    7.6      33.581
2014   10        8     1  10    4.98   392.2    7.6      33.586
2014   10        8     1  15    4.99   392.1    7.6      33.591
2014   10        8     1  21    4.99   392.0    7.7      33.597
2014   10        8     1  27    5.00   391.9    7.7      33.603
2014   10        8     1  33    5.00   391.9    7.7      33.611
2014   10        8     1  38    5.00   391.8    7.7      33.619
2014   10        8     1  44    5.01   391.7    7.7      33.628
2014   10        8     1  50    5.01   391.7    7.7      33.638
2014   10        8     1  56    5.01   391.6    7.7      33.649
2014   10        8     2   2    5.02   391.5    7.7      33.661
2014   10        8     2   7    5.02   391.5    7.8      33.673
2014   10        8     2  13    5.03   391.4    7.8      33.688
2014   10        8     2  19    5.03   391.4    7.8      33.703
2014   10        8     2  25    5.03   391.3    7.8      33.719
2014   10        8     2  31    5.04   391.2    7.8      33.737
2014   10        8     2  36    5.04   391.2    7.8      33.756
2014   10        8     2  42    5.05   391.1    7.8      33.776
2014   10        8     2  48    5.05   391.1    7.8      33.797
2014   10        8     2  54    5.05   391.1    7.9      33.818
2014   10        8     3   0    5.06   391.0    7.9      33.839
2014   10        8     3   5    5.06   391.0    7.9      33.860
2014   10        8     3  11    5.07   390.9    7.9      33.881
2014   10        8     3  17    5.07   390.9    7.9      33.901
2014   10        8     3  23    5.07   390.8    7.9      33.922
2014   10        8     3  29    5.08   390.8    7.9      33.943
2014   10        8     3  34    5.08   390.7    7.9      33.963
2014   10        8     3  40    5.09   390.7    7.9      33.983
2014   10        8     3  46    5.09   390.7    8.0      34.004
2014   10        8     3  52    5.09   390.6    8.0      34.024
2014   10        8     3  58    5.10   390.6    8.0      34.044
2014   10        8     4   3    5.10   390.5    8.0      34.064
2014   10        8     4   9    5.11   390.5    8.0      34.084
2014   10        8     4  15    5.11   390.5    8.0      34.105
2014   10        8     4  21    5.11   390.4    8.0      34.125
2014   10        8     4  27    5.12   390.4    8.0      34.145
2014   10        8     4  32    5.12   390.4    8.0      34.165
2014   10        8     4  38    5.12   390.3    8.0      34.185
2014   10        8     4  44    5.13   390.3    8.1      34.206
2014   10        8     4  50    5.13   390.3    8.1      34.226
2014   10        8     4  56    5.14   390.2    8.1      34.245
2014   10        8     5   1    5.14   390.2    8.1      34.265
2014   10        8     5   7    5.14   390.2    8.1      34.284
2014   10        8     5  13    5.15   390.2    8.1      34.303
2014   10        8     5  19    5.15   390.1    8.1      34.321
2014   10        8     5  25    5.15   390.1    8.1      34.340
2014   10        8     5  30    5.16   390.1    8.1      34.358
2014   10        8     5  36    5.16   390.0    8.1      34.375
2014   10        8     5  42    5.17   390.0    8.1      34.393
2014   10        8     5  48    5.17   390.0    8.2      34.410
2014   10        8     5  54    5.17   390.0    8.2      34.427
2014   10        8     5  59    5.18   389.9    8.2      34.444
2014   10        8     6   5    5.18   389.9    8.2      34.461
2014   10        8     6  11    5.18   389.9    8.2      34.478
2014   10        8     6  17    5.19   389.9    8.2      34.494
2014   10        8     6  23    5.19   389.8    8.2      34.510
2014   10        8     6  28    5.20   389.8    8.2      34.527
2014   10        8     6  34    5.20   389.8    8.2      34.543
2014   10        8     6  40    5.20   389.8    8.2      34.559
2014   10        8     6  46    5.21   389.7    8.2      34.575
2014   10        8     6  51    5.21   389.7    8.2      34.592
2014   10        8     6  57    5.22   389.7    8.3      34.608
2014   10        8     7   3    5.22   389.7    8.3      34.625
2014   10        8     7   9    5.22   389.7    8.3      34.642
2014   10        8     7  15    5.23   389.6    8.3      34.659
2014   10        8     7  20    5.23   389.6    8.3      34.676
2014   10        8     7  26    5.24   389.6    8.3      34.694
2014   10        8     7  32    5.24   389.6    8.3      34.712
2014   10        8     7  38    5.24   389.6    8.3      34.730
2014   10        8     7  44    5.25   389.6    8.3      34.749
2014   10        8     7  49    5.25   389.6    8.3      34.768
2014   10        8     7  55    5.26   389.6    8.4      34.787
2014   10        8     8   1    5.26   389.5    8.4      34.807
2014   10        8     8   7    5.27   389.5    8.4      34.828
2014   10        8     8  13    5.27   389.5    8.4      34.851
2014   10        8     8  18    5.28   389.5    8.4      34.874
2014   10        8     8  24    5.28   389.5    8.4      34.899
2014   10        8     8  30    5.28   389.5    8.4      34.924
2014   10        8     8  36    5.29   389.5    8.4      34.950
2014   10        8     8  42    5.29   389.5    8.5      34.977
2014   10        8     8  47    5.30   389.5    8.5      35.006
2014   10        8     8  53    5.30   389.6    8.5      35.038
2014   10        8     8  59    5.31   389.6    8.5      35.071
2014   10        8     9   5    5.32   389.6    8.5      35.106
2014   10        8     9  10    5.32   389.6    8.5      35.142
2014   10        8     9  16    5.33   389.6    8.5      35.181
2014   10        8     9  22    5.33   389.7    8.6      35.221
2014   10        8     9  28    5.34   389.7    8.6      35.263
2014   10        8     9  34    5.34   389.8    8.6      35.307
2014   10        8     9  39    5.35   389.8    8.6      35.350
2014   10        8     9  45    5.35   389.9    8.6      35.393
2014   10        8     9  51    5.36   389.9    8.6      35.437
2014   10        8     9  57    5.36   390.0    8.6      35.480
2014   10        8    10   3    5.37   390.0    8.6      35.524
2014   10        8    10   8    5.37   390.1    8.7      35.566
2014   10        8    10  14    5.37   390.1    8.7      35.608
2014   10        8    10  20    5.38   390.2    8.7      35.649
2014   10        8    10  26    5.38   390.2    8.7      35.688
2014   10        8    10  32    5.39   390.3    8.7      35.727
2014   10        8    10  37    5.39   390.3    8.7      35.764
2014   10        8    10  43    5.39   390.4    8.7      35.800
2014   10        8    10  49    5.40   390.4    8.7      35.835
2014   10        8    10  55    5.40   390.5    8.7      35.870
2014   10        8    11   1    5.41   390.5    8.7      35.903
2014   10        8    11   6    5.41   390.6    8.7      35.935
2014   10        8    11  12    5.41   390.6    8.7      35.967
2014   10        8    11  18    5.42   390.7    8.8      35.998
2014   10        8    11  24    5.42   390.7    8.8      36.028
2014   10        8    11  30    5.42   390.8    8.8      36.057
2014   10        8    11  35    5.43   390.8    8.8      36.086
2014   10        8    11  41    5.43   390.8    8.8      36.114
2014   10        8    11  47    5.43   390.9    8.8      36.141
2014   10        8    11  53    5.44   390.9    8.8      36.167
2014   10        8    11  59    5.44   391.0    8.8      36.194
2014   10        8    12   4    5.44   391.0    8.8      36.219
2014   10        8    12  10    5.45   391.0    8.8      36.245
2014   10        8    12  16    5.45   391.1    8.8      36.269
2014   10        8    12  22    5.45   391.1    8.8      36.294
2014   10        8    12  28    5.46   391.1    8.8      36.318
2014   10        8    12  33    5.46   391.2    8.8      36.341
2014   10        8    12  39    5.46   391.2    8.8      36.364
2014   10        8    12  45    5.47   391.2    8.8      36.387
2014   10        8    12  51    5.47   391.3    8.8      36.409
2014   10        8    12  57    5.47   391.3    8.8      36.431
2014   10        8    13   2    5.47   391.3    8.8      36.453
2014   10        8    13   8    5.48   391.4    8.8      36.475
2014   10        8    13  14    5.48   391.4    8.8      36.496
2014   10        8    13  20    5.48   391.4    8.8      36.517
2014   10        8    13  26    5.49   391.5    8.8      36.538
2014   10        8    13  31    5.49   391.5    8.8      36.558
2014   10        8    13  37    5.49   391.5    8.9      36.578
2014   10        8    13  43    5.50   391.6    8.9      36.599
2014   10        8    13  49    5.50   391.6    8.9      36.619
2014   10        8    13  54    5.50   391.6    8.9      36.639
2014   10        8    14   0    5.50   391.7    8.9      36.658
2014   10        8    14   6    5.51   391.7    8.9      36.678
2014   10        8    14  12    5.51   391.7    8.9      36.698
2014   10        8    14  18    5.51   391.8    8.9      36.718
2014   10        8    14  23    5.52   391.8    8.9      36.737
2014   10        8    14  29    5.52   391.8    8.9      36.757
2014   10        8    14  35    5.52   391.9    8.9      36.777
2014   10        8    14  41    5.53   391.9    8.9      36.797
2014   10        8    14  47    5.53   391.9    8.9      36.818
2014   10        8    14  52    5.53   392.0    8.9      36.839
2014   10        8    14  58    5.54   392.0    8.9      36.860
2014   10        8    15   4    5.54   392.0    8.9      36.881
2014   10        8    15  10    5.54   392.1    8.9      36.903
2014   10        8    15  16    5.55   392.1    8.9      36.925
2014   10        8    15  21    5.55   392.2    8.9      36.948
2014   10        8    15  27    5.55   392.2    8.9      36.971
2014   10        8    15  33    5.56   392.3    8.9      36.997
2014   10        8    15  39    5.56   392.3    8.9      37.023
2014   10        8    15  45    5.57   392.3    9.0      37.050
2014   10        8    15  50    5.57   392.4    9.0      37.077
2014   10        8    15  56    5.57   392.4    9.0      37.105
2014   10        8    16   2    5.58   392.5    9.0      37.135
2014   10        8    16   8    5.58   392.6    9.0      37.167
2014   10        8    16  13    5.59   392.6    9.0      37.200
2014   10        8    16  19    5.59   392.7    9.0      37.235
2014   10        8    16  25    5.59   392.8    9.0      37.271
2014   10        8    16  31    5.60   392.8    9.0      37.309
2014   10        8    16  37    5.60   392.9    9.0      37.349
2014   10        8    16  42    5.61   393.0    9.0      37.390
2014   10        8    16  48    5.61   393.1    9.1      37.432
2014   10        8    16  54    5.62   393.2    9.1      37.473
2014   10        8    17   0    5.62   393.3    9.1      37.514
2014   10        8    17   6    5.62   393.4    9.1      37.554
2014   10        8    17  11    5.63   393.5    9.1      37.595
2014   10        8    17  17    5.63   393.6    9.1      37.635
2014   10        8    17  23    5.63   393.6    9.1      37.676
2014   10        8    17  29    5.64   393.7    9.1      37.717
2014   10        8    17  35    5.64   393.8    9.1      37.757
2014   10        8    17  40    5.65   393.9    9.1      37.797
2014   10        8    17  46    5.65   394.0    9.1      37.837
2014   10        8    17  52    5.65   394.1    9.1      37.877
2014   10        8    17  58    5.65   394.2    9.1      37.917
2014   10        8    18   4    5.66   394.3    9.2      37.959
2014   10        8    18   9    5.66   394.4    9.2      38.000
2014   10        8    18  15    5.66   394.5    9.2      38.042
2014   10        8    18  21    5.67   394.6    9.2      38.084
2014   10        8    18  27    5.67   394.7    9.2      38.127
2014   10        8    18  33    5.67   394.8    9.2      38.169
2014   10        8    18  38    5.67   394.9    9.2      38.211
2014   10        8    18  44    5.68   395.0    9.2      38.252
2014   10        8    18  50    5.68   395.1    9.2      38.292
2014   10        8    18  56    5.68   395.2    9.2      38.330
2014   10        8    19   2    5.68   395.3    9.2      38.367
2014   10        8    19   7    5.68   395.4    9.2      38.404
2014   10        8    19  13    5.69   395.5    9.2      38.438
2014   10        8    19  19    5.69   395.5    9.2      38.473
2014   10        8    19  25    5.69   395.6    9.2      38.505
2014   10        8    19  31    5.69   395.7    9.2      38.537
2014   10        8    19  36    5.69   395.8    9.2      38.568
2014   10        8    19  42    5.69   395.9    9.2      38.598
2014   10        8    19  48    5.70   396.0    9.2      38.627
2014   10        8    19  54    5.70   396.0    9.2      38.654
2014   10        8    20   0    5.70   396.1    9.2      38.681
2014   10        8    20   5    5.70   396.2    9.2      38.708
2014   10        8    20  11    5.70   396.3    9.2      38.733
2014   10        8    20  17    5.70   396.4    9.2      38.758
2014   10        8    20  23    5.71   396.4    9.2      38.781
2014   10        8    20  28    5.71   396.5    9.2      38.804
2014   10        8    20  34    5.71   396.6    9.2      38.827
2014   10        8    20  40    5.71   396.7    9.2      38.849
2014   10        8    20  46    5.71   396.7    9.2      38.870
2014   10        8    20  52    5.71   396.8    9.2      38.890
2014   10        8    20  57    5.71   396.9    9.2      38.910
2014   10        8    21   3    5.72   397.0    9.2      38.929
2014   10        8    21   9    5.72   397.0    9.2      38.948
2014   10        8    21  15    5.72   397.1    9.2      38.967
2014   10        8    21  21    5.72   397.2    9.2      38.985
2014   10        8    21  26    5.72   397.3    9.2      39.002
2014   10        8    21  32    5.72   397.3    9.2      39.019
2014   10        8    21  38    5.73   397.4    9.2      39.036
2014   10        8    21  44    5.73   397.5    9.2      39.053
2014   10        8    21  50    5.73   397.6    9.2      39.069
2014   10        8    21  55    5.73   397.6    9.2      39.085
2014   10        8    22   1    5.73   397.7    9.2      39.101
2014   10        8    22   7    5.73   397.8    9.2      39.117
2014   10        8    22  13    5.73   397.9    9.2      39.133
2014   10        8    22  19    5.74   397.9    9.2      39.148
2014   10        8    22  24    5.74   398.0    9.2      39.164
2014   10        8    22  30    5.74   398.1    9.2      39.179
2014   10        8    22  36    5.74   398.1    9.2      39.195
2014   10        8    22  42    5.74   398.2    9.1      39.211
2014   10        8    22  47    5.74   398.3    9.1      39.226
2014   10        8    22  53    5.75   398.4    9.1      39.242
2014   10        8    22  59    5.75   398.4    9.1      39.258
2014   10        8    23   5    5.75   398.5    9.1      39.274
2014   10        8    23  11    5.75   398.6    9.1      39.291
2014   10        8    23  16    5.75   398.7    9.1      39.307
2014   10        8    23  22    5.75   398.8    9.1      39.324
2014   10        8    23  28    5.76   398.8    9.1      39.341
2014   10        8    23  34    5.76   398.9    9.1      39.359
2014   10        8    23  40    5.76   399.0    9.1      39.377
2014   10        8    23  45    5.76   399.1    9.1      39.395
2014   10        8    23  51    5.76   399.1    9.1      39.413
2014   10        8    23  57    5.77   399.2    9.1      39.432
2014   10        9     0   3    5.77   399.3    9.1      39.452
2014   10        9     0   9    5.77   399.4    9.1      39.472
2014   10        9     0  14    5.77   399.5    9.1      39.492
2014   10        9     0  20    5.77   399.6    9.1      39.513
2014   10        9     0  26    5.78   399.6    9.1      39.534
2014   10        9     0  32    5.78   399.7    9.1      39.557
2014   10        9     0  38    5.78   399.8    9.1      39.580
2014   10        9     0  43    5.78   399.9    9.1      39.605
2014   10        9     0  49    5.78   400.0    9.1      39.630
2014   10        9     0  55    5.79   400.1    9.2      39.656
2014   10        9     1   1    5.79   400.2    9.2      39.682
2014   10        9     1   7    5.79   400.2    9.2      39.710
2014   10        9     1  12    5.79   400.3    9.2      39.739
2014   10        9     1  18    5.80   400.4    9.2      39.769
2014   10        9     1  24    5.80   400.5    9.2      39.801
2014   10        9     1  30    5.80   400.6    9.2      39.835
2014   10        9     1  35    5.80   400.7    9.2      39.869
2014   10        9     1  41    5.80   400.8    9.2      39.906
2014   10        9     1  47    5.80   400.9    9.2      39.943
2014   10        9     1  53    5.81   401.0    9.2      39.982
2014   10        9     1  59    5.81   401.1    9.2      40.021
2014   10        9     2   4    5.81   401.2    9.2      40.060
2014   10        9     2  10    5.81   401.3    9.2      40.099
2014   10        9     2  16    5.81   401.4    9.2      40.139
2014   10        9     2  22    5.81   401.5    9.2      40.178
2014   10        9     2  28    5.82   401.6    9.2      40.217
2014   10        9     2  33    5.82   401.7    9.2      40.256
2014   10        9     2  39    5.82   401.8    9.2      40.295
2014   10        9     2  45    5.82   401.9    9.2      40.335
2014   10        9     2  51    5.82   402.0    9.2      40.374
2014   10        9     2  57    5.82   402.1    9.2      40.412
2014   10        9     3   2    5.82   402.3    9.3      40.451
2014   10        9     3   8    5.82   402.4    9.3      40.489
2014   10        9     3  14    5.82   402.5    9.3      40.526
2014   10        9     3  20    5.82   402.6    9.3      40.562
2014   10        9     3  26    5.83   402.7    9.3      40.596
2014   10        9     3  31    5.83   402.8    9.3      40.629
2014   10        9     3  37    5.83   403.0    9.3      40.660
2014   10        9     3  43    5.83   403.1    9.3      40.691
2014   10        9     3  49    5.83   403.2    9.3      40.719
2014   10        9     3  55    5.83   403.3    9.3      40.746
2014   10        9     4   0    5.83   403.4    9.3      40.772
2014   10        9     4   6    5.83   403.6    9.3      40.797
2014   10        9     4  12    5.83   403.7    9.3      40.820
2014   10        9     4  18    5.83   403.8    9.2      40.842
2014   10        9     4  24    5.83   403.9    9.2      40.863
2014   10        9     4  29    5.83   404.0    9.2      40.883
2014   10        9     4  35    5.83   404.2    9.2      40.902
2014   10        9     4  41    5.83   404.3    9.2      40.920
2014   10        9     4  47    5.83   404.4    9.2      40.938
2014   10        9     4  52    5.83   404.5    9.2      40.954
2014   10        9     4  58    5.83   404.7    9.2      40.969
2014   10        9     5   4    5.83   404.8    9.2      40.984
2014   10        9     5  10    5.83   404.9    9.2      40.998
2014   10        9     5  16    5.83   405.0    9.2      41.011
2014   10        9     5  21    5.83   405.1    9.2      41.024
2014   10        9     5  27    5.83   405.3    9.2      41.036
2014   10        9     5  33    5.83   405.4    9.2      41.047
2014   10        9     5  39    5.83   405.5    9.2      41.058
2014   10        9     5  45    5.83   405.6    9.2      41.069
2014   10        9     5  50    5.83   405.8    9.2      41.079
2014   10        9     5  56    5.83   405.9    9.2      41.089
2014   10        9     6   2    5.83   406.0    9.2      41.098
2014   10        9     6   8    5.83   406.1    9.2      41.107
2014   10        9     6  14    5.83   406.2    9.1      41.115
2014   10        9     6  19    5.83   406.4    9.1      41.124
2014   10        9     6  25    5.83   406.5    9.1      41.132
2014   10        9     6  31    5.83   406.6    9.1      41.140
2014   10        9     6  37    5.83   406.7    9.1      41.148
2014   10        9     6  42    5.83   406.9    9.1      41.155
2014   10        9     6  48    5.83   407.0    9.1      41.163
2014   10        9     6  54    5.83   407.1    9.1      41.170
2014   10        9     7   0    5.83   407.2    9.1      41.177
2014   10        9     7   6    5.83   407.3    9.1      41.185
2014   10        9     7  11    5.83   407.5    9.1      41.192
2014   10        9     7  17    5.83   407.6    9.1      41.200
2014   10        9     7  23    5.83   407.7    9.1      41.208
2014   10        9     7  29    5.83   407.8    9.1      41.216
2014   10        9     7  35    5.83   408.0    9.1      41.225
2014   10        9     7  40    5.83   408.1    9.1      41.234
2014   10        9     7  46    5.83   408.2    9.1      41.243
2014   10        9     7  52    5.83   408.4    9.0      41.254
2014   10        9     7  58    5.83   408.5    9.0      41.264
2014   10        9     8   4    5.83   408.6    9.0      41.276
2014   10        9     8   9    5.83   408.8    9.0      41.287
2014   10        9     8  15    5.83   408.9    9.0      41.300
2014   10        9     8  21    5.83   409.0    9.0      41.312
2014   10        9     8  27    5.83   409.2    9.0      41.324
2014   10        9     8  33    5.83   409.3    9.0      41.336
2014   10        9     8  38    5.83   409.4    9.0      41.349
2014   10        9     8  44    5.83   409.5    9.0      41.361
2014   10        9     8  50    5.83   409.7    9.0      41.374
2014   10        9     8  56    5.83   409.8    9.0      41.388
2014   10        9     9   2    5.83   409.9    9.0      41.401
2014   10        9     9   7    5.83   410.1    9.0      41.414
2014   10        9     9  13    5.83   410.2    9.0      41.429
2014   10        9     9  19    5.83   410.3    9.0      41.443
2014   10        9     9  25    5.83   410.4    9.0      41.459
2014   10        9     9  31    5.83   410.5    9.0      41.475
2014   10        9     9  36    5.83   410.7    9.0      41.492
2014   10        9     9  42    5.83   410.8    9.0      41.510
2014   10        9     9  48    5.83   410.9    9.0      41.528
2014   10        9     9  54    5.82   411.0    9.0      41.546
2014   10        9    10   0    5.82   411.1    9.0      41.566
2014   10        9    10   5    5.82   411.3    9.0      41.586
2014   10        9    10  11    5.82   411.4    9.0      41.607
2014   10        9    10  17    5.82   411.5    9.0      41.629
2014   10        9    10  23    5.82   411.6    8.9      41.651
2014   10        9    10  28    5.82   411.8    8.9      41.672
2014   10        9    10  34    5.82   411.9    8.9      41.695
2014   10        9    10  40    5.82   412.0    8.9      41.717
2014   10        9    10  46    5.82   412.2    8.9      41.738
2014   10        9    10  52    5.82   412.3    8.9      41.757
2014   10        9    10  57    5.82   412.4    8.9      41.776
2014   10        9    11   3    5.82   412.6    8.9      41.794
2014   10        9    11   9    5.81   412.7    8.9      41.810
2014   10        9    11  15    5.81   412.9    8.9      41.825
2014   10        9    11  21    5.81   413.0    8.9      41.839
2014   10        9    11  26    5.81   413.1    8.9      41.852
2014   10        9    11  32    5.81   413.3    8.9      41.864
2014   10        9    11  38    5.81   413.4    8.9      41.874
2014   10        9    11  44    5.81   413.6    8.9      41.883
2014   10        9    11  50    5.81   413.7    8.9      41.891
2014   10        9    11  55    5.81   413.9    8.9      41.898
2014   10        9    12   1    5.80   414.0    8.9      41.904
2014   10        9    12   7    5.80   414.1    8.8      41.908
2014   10        9    12  13    5.80   414.3    8.8      41.911
2014   10        9    12  19    5.80   414.4    8.8      41.914
2014   10        9    12  24    5.80   414.6    8.8      41.915
2014   10        9    12  30    5.80   414.7    8.8      41.915
2014   10        9    12  36    5.79   414.9    8.8      41.915
2014   10        9    12  42    5.79   415.0    8.8      41.913
2014   10        9    12  47    5.79   415.2    8.8      41.910
2014   10        9    12  53    5.79   415.3    8.8      41.907
2014   10        9    12  59    5.79   415.5    8.8      41.902
2014   10        9    13   5    5.79   415.6    8.7      41.897
2014   10        9    13  11    5.78   415.7    8.7      41.891
2014   10        9    13  16    5.78   415.9    8.7      41.884
2014   10        9    13  22    5.78   416.0    8.7      41.876
2014   10        9    13  28    5.78   416.2    8.7      41.868
2014   10        9    13  34    5.78   416.3    8.7      41.859
2014   10        9    13  40    5.77   416.4    8.7      41.850
2014   10        9    13  45    5.77   416.6    8.7      41.840
2014   10        9    13  51    5.77   416.7    8.7      41.830
2014   10        9    13  57    5.77   416.8    8.7      41.819
2014   10        9    14   3    5.77   417.0    8.6      41.808
2014   10        9    14   9    5.76   417.1    8.6      41.797
2014   10        9    14  14    5.76   417.2    8.6      41.786
2014   10        9    14  20    5.76   417.4    8.6      41.775
2014   10        9    14  26    5.76   417.5    8.6      41.764
2014   10        9    14  32    5.76   417.6    8.6      41.753
2014   10        9    14  37    5.75   417.8    8.6      41.742
2014   10        9    14  43    5.75   417.9    8.6      41.732
2014   10        9    14  49    5.75   418.1    8.5      41.723
2014   10        9    14  55    5.75   418.2    8.5      41.714
2014   10        9    15   1    5.74   418.4    8.5      41.705
2014   10        9    15   6    5.74   418.5    8.5      41.697
2014   10        9    15  12    5.74   418.6    8.5      41.689
2014   10        9    15  18    5.74   418.8    8.5      41.681
2014   10        9    15  24    5.73   418.9    8.5      41.672
2014   10        9    15  30    5.73   419.1    8.5      41.663
2014   10        9    15  35    5.73   419.2    8.5      41.654
2014   10        9    15  41    5.73   419.4    8.4      41.645
2014   10        9    15  47    5.72   419.5    8.4      41.635
2014   10        9    15  53    5.72   419.7    8.4      41.625
2014   10        9    15  59    5.72   419.8    8.4      41.613
2014   10        9    16   4    5.71   420.0    8.4      41.602
2014   10        9    16  10    5.71   420.1    8.4      41.589
2014   10        9    16  16    5.71   420.3    8.4      41.576
2014   10        9    16  22    5.70   420.4    8.4      41.563
2014   10        9    16  28    5.70   420.5    8.3      41.549
2014   10        9    16  33    5.70   420.7    8.3      41.534
2014   10        9    16  39    5.69   420.8    8.3      41.519
2014   10        9    16  45    5.69   420.9    8.3      41.504
2014   10        9    16  51    5.69   421.0    8.3      41.489
2014   10        9    16  57    5.68   421.2    8.3      41.475
2014   10        9    17   2    5.68   421.3    8.3      41.461
2014   10        9    17   8    5.68   421.4    8.2      41.447
2014   10        9    17  14    5.67   421.5    8.2      41.433
2014   10        9    17  20    5.67   421.6    8.2      41.419
2014   10        9    17  26    5.67   421.7    8.2      41.406
2014   10        9    17  31    5.66   421.9    8.2      41.393
2014   10        9    17  37    5.66   422.0    8.2      41.380
2014   10        9    17  43    5.66   422.1    8.2      41.367
2014   10        9    17  49    5.65   422.2    8.2      41.355
2014   10        9    17  54    5.65   422.3    8.2      41.342
2014   10        9    18   0    5.64   422.4    8.1      41.329
2014   10        9    18   6    5.64   422.5    8.1      41.316
2014   10        9    18  12    5.64   422.6    8.1      41.302
2014   10        9    18  18    5.63   422.8    8.1      41.288
2014   10        9    18  23    5.63   422.9    8.1      41.274
2014   10        9    18  29    5.63   423.0    8.1      41.260
2014   10        9    18  35    5.62   423.1    8.1      41.245
2014   10        9    18  41    5.62   423.2    8.1      41.229
2014   10        9    18  47    5.62   423.3    8.0      41.213
2014   10        9    18  52    5.61   423.5    8.0      41.196
2014   10        9    18  58    5.61   423.6    8.0      41.178
2014   10        9    19   4    5.61   423.7    8.0      41.160
2014   10        9    19  10    5.60   423.8    8.0      41.141
2014   10        9    19  16    5.60   423.9    8.0      41.121
2014   10        9    19  21    5.60   424.0    8.0      41.100
2014   10        9    19  27    5.59   424.1    7.9      41.078
2014   10        9    19  33    5.59   424.2    7.9      41.056
2014   10        9    19  39    5.58   424.3    7.9      41.034
2014   10        9    19  44    5.58   424.4    7.9      41.011
2014   10        9    19  50    5.58   424.5    7.9      40.988
2014   10        9    19  56    5.57   424.6    7.9      40.965
2014   10        9    20   2    5.57   424.7    7.9      40.941
2014   10        9    20   8    5.56   424.8    7.9      40.916
2014   10        9    20  13    5.56   424.9    7.8      40.891
2014   10        9    20  19    5.56   425.0    7.8      40.866
2014   10        9    20  25    5.55   425.1    7.8      40.840
2014   10        9    20  31    5.55   425.2    7.8      40.813
2014   10        9    20  37    5.54   425.3    7.8      40.786
2014   10        9    20  42    5.54   425.3    7.8      40.758
2014   10        9    20  48    5.54   425.4    7.8      40.730
2014   10        9    20  54    5.53   425.5    7.7      40.701
2014   10        9    21   0    5.53   425.6    7.7      40.672
2014   10        9    21   6    5.52   425.7    7.7      40.642
2014   10        9    21  11    5.52   425.8    7.7      40.612
2014   10        9    21  17    5.52   425.9    7.7      40.581
2014   10        9    21  23    5.51   426.0    7.7      40.550
2014   10        9    21  29    5.51   426.1    7.7      40.518
2014   10        9    21  34    5.50   426.1    7.6      40.486
2014   10        9    21  40    5.50   426.2    7.6      40.454
2014   10        9    21  46    5.49   426.3    7.6      40.421
2014   10        9    21  52    5.49   426.4    7.6      40.388
2014   10        9    21  58    5.48   426.5    7.6      40.355
2014   10        9    22   3    5.48   426.5    7.6      40.322
2014   10        9    22   9    5.48   426.6    7.6      40.288
2014   10        9    22  15    5.47   426.7    7.5      40.256
2014   10        9    22  21    5.47   426.8    7.5      40.223
2014   10        9    22  27    5.46   426.8    7.5      40.190
2014   10        9    22  32    5.46   426.9    7.5      40.157
2014   10        9    22  38    5.45   427.0    7.5      40.124
2014   10        9    22  44    5.45   427.0    7.5      40.091
2014   10        9    22  50    5.44   427.1    7.5      40.058
2014   10        9    22  56    5.44   427.2    7.4      40.024
2014   10        9    23   1    5.44   427.2    7.4      39.990
2014   10        9    23   7    5.43   427.3    7.4      39.956
2014   10        9    23  13    5.43   427.4    7.4      39.920
2014   10        9    23  19    5.42   427.4    7.4      39.884
2014   10        9    23  25    5.42   427.5    7.4      39.847
2014   10        9    23  30    5.41   427.5    7.4      39.810
2014   10        9    23  36    5.41   427.6    7.3      39.772
2014   10        9    23  42    5.40   427.6    7.3      39.733
2014   10        9    23  48    5.40   427.6    7.3      39.695
2014   10        9    23  54    5.39   427.7    7.3      39.657
2014   10        9    23  59    5.39   427.7    7.3      39.620
2014   10       10     0   5    5.39   427.7    7.3      39.583
2014   10       10     0  11    5.38   427.7    7.3      39.547
2014   10       10     0  17    5.38   427.7    7.3      39.512
2014   10       10     0  23    5.37   427.7    7.3      39.478
2014   10       10     0  28    5.37   427.7    7.2      39.444
2014   10       10     0  34    5.37   427.8    7.2      39.411
2014   10       10     0  40    5.36   427.8    7.2      39.379
2014   10       10     0  46    5.36   427.8    7.2      39.348
2014   10       10     0  51    5.35   427.8    7.2      39.318
2014   10       10     0  57    5.35   427.8    7.2      39.289
2014   10       10     1   3    5.35   427.9    7.2      39.261
2014   10       10     1   9    5.34   427.9    7.2      39.234
2014   10       10     1  15    5.34   427.9    7.2      39.208
2014   10       10     1  20    5.34   428.0    7.2      39.183
2014   10       10     1  26    5.33   428.0    7.2      39.158
2014   10       10     1  32    5.33   428.0    7.1      39.134
2014   10       10     1  38    5.33   428.1    7.1      39.110
2014   10       10     1  44    5.32   428.1    7.1      39.087
2014   10       10     1  49    5.32   428.1    7.1      39.063
2014   10       10     1  55    5.32   428.2    7.1      39.040
2014   10       10     2   1    5.31   428.2    7.1      39.017
2014   10       10     2   7    5.31   428.2    7.1      38.995
2014   10       10     2  13    5.31   428.2    7.1      38.971
2014   10       10     2  18    5.30   428.3    7.1      38.949
2014   10       10     2  24    5.30   428.3    7.1      38.925
2014   10       10     2  30    5.30   428.3    7.1      38.901
2014   10       10     2  36    5.29   428.4    7.1      38.877
2014   10       10     2  41    5.29   428.4    7.1      38.852
2014   10       10     2  47    5.29   428.4    7.0      38.826
2014   10       10     2  53    5.28   428.4    7.0      38.801
2014   10       10     2  59    5.28   428.5    7.0      38.774
2014   10       10     3   5    5.28   428.5    7.0      38.748
2014   10       10     3  10    5.27   428.5    7.0      38.721
2014   10       10     3  16    5.27   428.5    7.0      38.695
2014   10       10     3  22    5.27   428.5    7.0      38.668
2014   10       10     3  28    5.26   428.5    7.0      38.641
2014   10       10     3  34    5.26   428.5    7.0      38.614
2014   10       10     3  39    5.26   428.5    7.0      38.586
2014   10       10     3  45    5.25   428.5    7.0      38.559
2014   10       10     3  51    5.25   428.5    7.0      38.531
2014   10       10     3  57    5.25   428.5    7.0      38.503
2014   10       10     4   3    5.24   428.6    6.9      38.475
2014   10       10     4   8    5.24   428.6    6.9      38.447
2014   10       10     4  14    5.24   428.6    6.9      38.419
2014   10       10     4  20    5.23   428.6    6.9      38.390
2014   10       10     4  26    5.23   428.6    6.9      38.361
2014   10       10     4  31    5.23   428.6    6.9      38.333
2014   10       10     4  37    5.22   428.6    6.9      38.304
2014   10       10     4  43    5.22   428.6    6.9      38.275
2014   10       10     4  49    5.22   428.6    6.9      38.246
2014   10       10     4  55    5.21   428.6    6.9      38.217
2014   10       10     5   0    5.21   428.5    6.9      38.187
2014   10       10     5   6    5.21   428.5    6.9      38.158
2014   10       10     5  12    5.20   428.5    6.9      38.129
2014   10       10     5  18    5.20   428.5    6.8      38.099
2014   10       10     5  24    5.20   428.5    6.8      38.070
2014   10       10     5  29    5.19   428.5    6.8      38.041
2014   10       10     5  35    5.19   428.5    6.8      38.011
2014   10       10     5  41    5.19   428.5    6.8      37.982
2014   10       10     5  47    5.18   428.4    6.8      37.953
2014   10       10     5  53    5.18   428.4    6.8      37.923
2014   10       10     5  58    5.18   428.4    6.8      37.894
2014   10       10     6   4    5.18   428.4    6.8      37.865
2014   10       10     6  10    5.17   428.3    6.8      37.837
2014   10       10     6  16    5.17   428.3    6.8      37.809
2014   10       10     6  22    5.17   428.3    6.8      37.781
2014   10       10     6  27    5.17   428.2    6.8      37.753
2014   10       10     6  33    5.16   428.2    6.8      37.727
2014   10       10     6  39    5.16   428.2    6.8      37.701
2014   10       10     6  45    5.16   428.1    6.8      37.676
2014   10       10     6  51    5.16   428.1    6.7      37.651
2014   10       10     6  56    5.16   428.1    6.7      37.629
2014   10       10     7   2    5.15   428.0    6.7      37.606
2014   10       10     7   8    5.15   428.0    6.7      37.586
2014   10       10     7  14    5.15   428.0    6.7      37.566
2014   10       10     7  19    5.15   427.9    6.7      37.548
2014   10       10     7  25    5.15   427.9    6.7      37.531
2014   10       10     7  31    5.15   427.9    6.7      37.516
2014   10       10     7  37    5.15   427.8    6.7      37.502
2014   10       10     7  43    5.14   427.8    6.7      37.490
2014   10       10     7  48    5.14   427.8    6.7      37.480
2014   10       10     7  54    5.14   427.7    6.7      37.471
2014   10       10     8   0    5.14   427.7    6.7      37.463
2014   10       10     8   6    5.14   427.7    6.7      37.456
2014   10       10     8  12    5.14   427.7    6.7      37.451
2014   10       10     8  17    5.14   427.6    6.7      37.447
2014   10       10     8  23    5.14   427.6    6.7      37.445
2014   10       10     8  29    5.14   427.6    6.7      37.443
2014   10       10     8  35    5.14   427.6    6.7      37.441
2014   10       10     8  41    5.14   427.6    6.7      37.440
2014   10       10     8  46    5.14   427.6    6.7      37.438
2014   10       10     8  52    5.14   427.6    6.7      37.436
2014   10       10     8  58    5.14   427.6    6.7      37.433
2014   10       10     9   4    5.14   427.5    6.7      37.429
2014   10       10     9   9    5.14   427.5    6.7      37.423
2014   10       10     9  15    5.15   427.5    6.7      37.416
2014   10       10     9  21    5.15   427.5    6.7      37.408
2014   10       10     9  27    5.15   427.5    6.7      37.399
2014   10       10     9  33    5.15   427.4    6.7      37.389
2014   10       10     9  38    5.15   427.4    6.7      37.378
2014   10       10     9  44    5.15   427.4    6.7      37.366
2014   10       10     9  50    5.15   427.4    6.7      37.353
2014   10       10     9  56    5.15   427.3    6.7      37.340
2014   10       10    10   2    5.15   427.3    6.7      37.326
2014   10       10    10   7    5.15   427.3    6.7      37.311
2014   10       10    10  13    5.15   427.3    6.7      37.296
2014   10       10    10  19    5.15   427.2    6.7      37.280
2014   10       10    10  25    5.15   427.2    6.7      37.264
2014   10       10    10  31    5.15   427.1    6.7      37.247
2014   10       10    10  36    5.15   427.1    6.7      37.231
2014   10       10    10  42    5.15   427.1    6.7      37.214
2014   10       10    10  48    5.15   427.0    6.7      37.196
2014   10       10    10  54    5.15   427.0    6.7      37.179
2014   10       10    10  59    5.15   427.0    6.7      37.161
2014   10       10    11   5    5.15   426.9    6.7      37.143
2014   10       10    11  11    5.15   426.9    6.7      37.125
2014   10       10    11  17    5.15   426.8    6.7      37.106
2014   10       10    11  23    5.15   426.8    6.7      37.088
2014   10       10    11  28    5.15   426.8    6.7      37.069
2014   10       10    11  34    5.15   426.7    6.7      37.050
2014   10       10    11  40    5.15   426.7    6.7      37.031
2014   10       10    11  46    5.15   426.6    6.7      37.011
2014   10       10    11  52    5.15   426.6    6.7      36.991
2014   10       10    11  57    5.15   426.5    6.7      36.972
2014   10       10    12   3    5.15   426.5    6.7      36.952
2014   10       10    12   9    5.15   426.4    6.7      36.931
2014   10       10    12  15    5.15   426.4    6.7      36.911
2014   10       10    12  20    5.15   426.3    6.7      36.891
2014   10       10    12  26    5.15   426.3    6.7      36.870
2014   10       10    12  32    5.15   426.2    6.7      36.850
2014   10       10    12  38    5.15   426.2    6.7      36.829
2014   10       10    12  44    5.15   426.1    6.7      36.808
2014   10       10    12  49    5.15   426.0    6.7      36.787
2014   10       10    12  55    5.15   426.0    6.7      36.766
2014   10       10    13   1    5.15   425.9    6.7      36.745
2014   10       10    13   7    5.14   425.9    6.7      36.724
2014   10       10    13  13    5.14   425.8    6.7      36.703
2014   10       10    13  18    5.14   425.7    6.7      36.681
2014   10       10    13  24    5.14   425.6    6.7      36.660
2014   10       10    13  30    5.14   425.6    6.7      36.639
2014   10       10    13  36    5.14   425.5    6.7      36.618
2014   10       10    13  42    5.14   425.4    6.7      36.597
2014   10       10    13  47    5.14   425.4    6.7      36.577
2014   10       10    13  53    5.14   425.3    6.7      36.556
2014   10       10    13  59    5.14   425.2    6.7      36.535
2014   10       10    14   5    5.14   425.1    6.6      36.515
2014   10       10    14  11    5.14   425.1    6.6      36.495
2014   10       10    14  16    5.14   425.0    6.6      36.474
2014   10       10    14  22    5.14   424.9    6.6      36.453
2014   10       10    14  28    5.13   424.8    6.6      36.432
2014   10       10    14  34    5.13   424.7    6.6      36.411
2014   10       10    14  40    5.13   424.7    6.6      36.389
2014   10       10    14  45    5.13   424.6    6.6      36.367
2014   10       10    14  51    5.13   424.5    6.6      36.345
2014   10       10    14  57    5.13   424.4    6.6      36.323
2014   10       10    15   3    5.13   424.3    6.6      36.300
2014   10       10    15   8    5.13   424.2    6.6      36.277
2014   10       10    15  14    5.12   424.1    6.6      36.254
2014   10       10    15  20    5.12   424.1    6.6      36.230
2014   10       10    15  26    5.12   424.0    6.6      36.206
2014   10       10    15  32    5.12   423.9    6.6      36.182
2014   10       10    15  37    5.12   423.8    6.6      36.158
2014   10       10    15  43    5.12   423.7    6.6      36.133
2014   10       10    15  49    5.12   423.6    6.6      36.108
2014   10       10    15  55    5.11   423.5    6.6      36.083
2014   10       10    16   1    5.11   423.4    6.6      36.058
2014   10       10    16   6    5.11   423.3    6.6      36.033
2014   10       10    16  12    5.11   423.2    6.6      36.007
2014   10       10    16  18    5.11   423.1    6.6      35.981
2014   10       10    16  24    5.11   423.0    6.6      35.956
2014   10       10    16  30    5.10   422.9    6.6      35.929
2014   10       10    16  35    5.10   422.8    6.6      35.903
2014   10       10    16  41    5.10   422.7    6.5      35.877
2014   10       10    16  47    5.10   422.6    6.5      35.850
2014   10       10    16  53    5.10   422.5    6.5      35.824
2014   10       10    16  58    5.09   422.4    6.5      35.797
2014   10       10    17   4    5.09   422.3    6.5      35.770
2014   10       10    17  10    5.09   422.2    6.5      35.743
2014   10       10    17  16    5.09   422.1    6.5      35.716
2014   10       10    17  22    5.09   422.0    6.5      35.689
2014   10       10    17  27    5.09   421.9    6.5      35.661
2014   10       10    17  33    5.08   421.8    6.5      35.634
2014   10       10    17  39    5.08   421.7    6.5      35.607
2014   10       10    17  45    5.08   421.6    6.5      35.579
2014   10       10    17  51    5.08   421.5    6.5      35.551
2014   10       10    17  56    5.08   421.4    6.5      35.524
2014   10       10    18   2    5.07   421.3    6.5      35.496
2014   10       10    18   8    5.07   421.2    6.5      35.469
2014   10       10    18  14    5.07   421.1    6.5      35.441
2014   10       10    18  19    5.07   421.0    6.5      35.413
2014   10       10    18  25    5.07   420.9    6.5      35.386
2014   10       10    18  31    5.06   420.8    6.5      35.358
2014   10       10    18  37    5.06   420.7    6.5      35.330
2014   10       10    18  43    5.06   420.6    6.5      35.303
2014   10       10    18  48    5.06   420.5    6.5      35.275
2014   10       10    18  54    5.06   420.4    6.5      35.248
2014   10       10    19   0    5.05   420.2    6.5      35.220
2014   10       10    19   6    5.05   420.1    6.5      35.193
2014   10       10    19  12    5.05   420.0    6.5      35.165
2014   10       10    19  17    5.05   419.9    6.5      35.138
2014   10       10    19  23    5.05   419.8    6.4      35.111
2014   10       10    19  29    5.05   419.7    6.4      35.084
2014   10       10    19  35    5.04   419.6    6.4      35.057
2014   10       10    19  41    5.04   419.5    6.4      35.030
2014   10       10    19  46    5.04   419.4    6.4      35.004
2014   10       10    19  52    5.04   419.3    6.4      34.977
2014   10       10    19  58    5.04   419.1    6.4      34.951
2014   10       10    20   4    5.03   419.0    6.4      34.925
2014   10       10    20  10    5.03   418.9    6.4      34.899
2014   10       10    20  15    5.03   418.8    6.4      34.874
2014   10       10    20  21    5.03   418.7    6.4      34.848
2014   10       10    20  27    5.03   418.6    6.4      34.823
2014   10       10    20  33    5.02   418.5    6.4      34.798
2014   10       10    20  38    5.02   418.4    6.4      34.774
2014   10       10    20  44    5.02   418.3    6.4      34.749
2014   10       10    20  50    5.02   418.2    6.4      34.725
2014   10       10    20  56    5.02   418.0    6.4      34.702
2014   10       10    21   2    5.02   417.9    6.4      34.678
2014   10       10    21   7    5.01   417.8    6.4      34.656
2014   10       10    21  13    5.01   417.7    6.4      34.633
2014   10       10    21  19    5.01   417.6    6.4      34.611
2014   10       10    21  25    5.01   417.5    6.4      34.589
2014   10       10    21  31    5.01   417.4    6.4      34.567
2014   10       10    21  36    5.01   417.3    6.4      34.546
2014   10       10    21  42    5.00   417.2    6.4      34.526
2014   10       10    21  48    5.00   417.1    6.4      34.505
2014   10       10    21  54    5.00   417.0    6.4      34.486
2014   10       10    22   0    5.00   416.9    6.4      34.467
2014   10       10    22   5    5.00   416.8    6.4      34.448
2014   10       10    22  11    5.00   416.6    6.4      34.430
2014   10       10    22  17    4.99   416.5    6.4      34.412
2014   10       10    22  23    4.99   416.4    6.4      34.395
2014   10       10    22  29    4.99   416.3    6.4      34.378
2014   10       10    22  34    4.99   416.2    6.4      34.362
2014   10       10    22  40    4.99   416.1    6.4      34.347
2014   10       10    22  46    4.99   416.0    6.4      34.332
2014   10       10    22  52    4.99   415.9    6.4      34.318
2014   10       10    22  57    4.98   415.8    6.4      34.304
2014   10       10    23   3    4.98   415.7    6.4      34.291
2014   10       10    23   9    4.98   415.6    6.4      34.278
2014   10       10    23  15    4.98   415.5    6.4      34.266
2014   10       10    23  21    4.98   415.4    6.4      34.255
2014   10       10    23  26    4.98   415.3    6.4      34.245
2014   10       10    23  32    4.98   415.2    6.4      34.235
2014   10       10    23  38    4.97   415.1    6.4      34.226
2014   10       10    23  44    4.97   415.0    6.4      34.217
2014   10       10    23  50    4.97   414.9    6.4      34.209
2014   10       10    23  55    4.97   414.8    6.4      34.202
2014   10       11     0   1    4.97   414.8    6.4      34.195
2014   10       11     0   7    4.97   414.7    6.4      34.189
2014   10       11     0  13    4.97   414.6    6.4      34.184
2014   10       11     0  18    4.97   414.5    6.4      34.180
2014   10       11     0  24    4.97   414.4    6.4      34.176
2014   10       11     0  30    4.96   414.3    6.4      34.173
2014   10       11     0  36    4.96   414.2    6.4      34.170
2014   10       11     0  42    4.96   414.1    6.4      34.169
2014   10       11     0  47    4.96   414.0    6.5      34.168
2014   10       11     0  53    4.96   413.9    6.5      34.168
2014   10       11     0  59    4.96   413.8    6.5      34.168
2014   10       11     1   5    4.96   413.7    6.5      34.170
2014   10       11     1  11    4.96   413.7    6.5      34.172
2014   10       11     1  16    4.95   413.6    6.5      34.175
2014   10       11     1  22    4.95   413.5    6.5      34.178
2014   10       11     1  28    4.95   413.4    6.5      34.183
2014   10       11     1  34    4.95   413.3    6.5      34.188
2014   10       11     1  39    4.95   413.2    6.5      34.194
2014   10       11     1  45    4.95   413.1    6.5      34.201
2014   10       11     1  51    4.95   413.1    6.5      34.209
2014   10       11     1  57    4.94   413.0    6.5      34.218
2014   10       11     2   3    4.94   412.9    6.5      34.227
2014   10       11     2   8    4.94   412.8    6.5      34.238
2014   10       11     2  14    4.94   412.7    6.5      34.249
2014   10       11     2  20    4.94   412.6    6.6      34.262
2014   10       11     2  26    4.94   412.6    6.6      34.275
2014   10       11     2  32    4.94   412.5    6.6      34.289
2014   10       11     2  37    4.94   412.4    6.6      34.304
2014   10       11     2  43    4.93   412.3    6.6      34.320
2014   10       11     2  49    4.93   412.3    6.6      34.337
2014   10       11     2  55    4.93   412.2    6.6      34.356
2014   10       11     3   1    4.93   412.1    6.6      34.375
2014   10       11     3   6    4.93   412.0    6.6      34.396
2014   10       11     3  12    4.93   412.0    6.6      34.418
2014   10       11     3  18    4.93   411.9    6.6      34.441
2014   10       11     3  24    4.92   411.8    6.6      34.465
2014   10       11     3  29    4.92   411.8    6.7      34.491
2014   10       11     3  35    4.92   411.7    6.7      34.519
2014   10       11     3  41    4.92   411.6    6.7      34.547
2014   10       11     3  47    4.92   411.5    6.7      34.578
2014   10       11     3  53    4.92   411.5    6.7      34.610
2014   10       11     3  58    4.92   411.4    6.7      34.643
2014   10       11     4   4    4.91   411.3    6.7      34.678
2014   10       11     4  10    4.91   411.3    6.7      34.715
2014   10       11     4  16    4.91   411.2    6.7      34.753
2014   10       11     4  22    4.91   411.1    6.7      34.793
2014   10       11     4  27    4.91   411.1    6.7      34.833
2014   10       11     4  33    4.91   411.0    6.7      34.874
2014   10       11     4  39    4.91   410.9    6.8      34.916
2014   10       11     4  45    4.91   410.9    6.8      34.958
2014   10       11     4  51    4.90   410.8    6.8      35.001
2014   10       11     4  56    4.90   410.7    6.8      35.044
2014   10       11     5   2    4.90   410.7    6.8      35.086
2014   10       11     5   8    4.90   410.6    6.8      35.127
2014   10       11     5  14    4.90   410.5    6.8      35.167
2014   10       11     5  20    4.90   410.5    6.8      35.206
2014   10       11     5  25    4.90   410.4    6.8      35.246
2014   10       11     5  31    4.90   410.4    6.8      35.284
2014   10       11     5  37    4.90   410.3    6.8      35.323
2014   10       11     5  43    4.89   410.2    6.8      35.360
2014   10       11     5  48    4.89   410.2    6.8      35.396
2014   10       11     5  54    4.89   410.1    6.8      35.432
2014   10       11     6   0    4.89   410.0    6.8      35.466
2014   10       11     6   6    4.89   410.0    6.9      35.500
2014   10       11     6  12    4.89   409.9    6.9      35.531
2014   10       11     6  17    4.89   409.9    6.9      35.561
2014   10       11     6  23    4.89   409.8    6.9      35.589
2014   10       11     6  29    4.89   409.8    6.9      35.615
2014   10       11     6  35    4.89   409.7    6.9      35.640
2014   10       11     6  41    4.89   409.7    6.9      35.663
2014   10       11     6  46    4.89   409.6    6.9      35.684
2014   10       11     6  52    4.89   409.6    6.9      35.704
2014   10       11     6  58    4.89   409.5    6.9      35.722
2014   10       11     7   4    4.89   409.5    6.9      35.738
2014   10       11     7   9    4.89   409.4    6.9      35.752
2014   10       11     7  15    4.89   409.4    6.9      35.766
2014   10       11     7  21    4.89   409.3    6.9      35.777
2014   10       11     7  27    4.89   409.3    6.9      35.787
2014   10       11     7  33    4.89   409.2    6.9      35.795
2014   10       11     7  38    4.89   409.2    6.9      35.803
2014   10       11     7  44    4.88   409.1    6.9      35.808
2014   10       11     7  50    4.88   409.1    6.9      35.812
2014   10       11     7  56    4.88   409.0    6.9      35.815
2014   10       11     8   2    4.88   409.0    6.9      35.816
2014   10       11     8   7    4.88   409.0    6.9      35.816
2014   10       11     8  13    4.88   408.9    6.9      35.815
2014   10       11     8  19    4.88   408.9    6.9      35.813
2014   10       11     8  25    4.88   408.8    6.9      35.809
2014   10       11     8  30    4.88   408.8    6.9      35.804
2014   10       11     8  36    4.88   408.8    6.9      35.799
2014   10       11     8  42    4.88   408.7    6.9      35.792
2014   10       11     8  48    4.88   408.7    6.9      35.784
2014   10       11     8  54    4.88   408.6    6.9      35.775
2014   10       11     8  59    4.88   408.6    6.9      35.765
2014   10       11     9   5    4.88   408.6    6.9      35.755
2014   10       11     9  11    4.88   408.5    6.9      35.743
2014   10       11     9  17    4.88   408.5    6.9      35.731
2014   10       11     9  23    4.88   408.4    6.9      35.718
2014   10       11     9  28    4.88   408.4    6.9      35.704
2014   10       11     9  34    4.88   408.4    6.9      35.690
2014   10       11     9  40    4.88   408.3    6.9      35.675
2014   10       11     9  46    4.88   408.3    6.9      35.659
2014   10       11     9  52    4.88   408.2    6.9      35.643
2014   10       11     9  57    4.88   408.2    6.9      35.626
2014   10       11    10   3    4.88   408.2    6.9      35.609
2014   10       11    10   9    4.88   408.1    6.9      35.591
2014   10       11    10  15    4.88   408.1    6.9      35.573
2014   10       11    10  20    4.88   408.1    6.9      35.555
2014   10       11    10  26    4.88   408.0    6.9      35.536
2014   10       11    10  32    4.88   408.0    6.9      35.517
2014   10       11    10  38    4.88   407.9    6.9      35.497
2014   10       11    10  44    4.88   407.9    6.9      35.478
2014   10       11    10  49    4.88   407.9    6.9      35.458
2014   10       11    10  55    4.88   407.8    6.9      35.438
2014   10       11    11   1    4.88   407.8    6.9      35.418
2014   10       11    11   7    4.88   407.8    6.9      35.397
2014   10       11    11  13    4.88   407.7    6.9      35.377
2014   10       11    11  18    4.88   407.7    6.9      35.356
2014   10       11    11  24    4.88   407.6    6.9      35.335
2014   10       11    11  30    4.88   407.6    6.9      35.314
2014   10       11    11  36    4.88   407.6    6.9      35.293
2014   10       11    11  42    4.88   407.5    6.9      35.272
2014   10       11    11  47    4.88   407.5    6.9      35.251
2014   10       11    11  53    4.88   407.5    6.9      35.229
2014   10       11    11  59    4.88   407.4    6.9      35.207
2014   10       11    12   5    4.88   407.4    6.9      35.185
2014   10       11    12  11    4.88   407.3    6.9      35.163
2014   10       11    12  16    4.88   407.3    6.9      35.142
2014   10       11    12  22    4.88   407.3    6.9      35.119
2014   10       11    12  28    4.88   407.2    6.9      35.097
2014   10       11    12  34    4.88   407.2    6.9      35.075
2014   10       11    12  39    4.88   407.1    6.9      35.053
2014   10       11    12  45    4.88   407.1    6.9      35.030
2014   10       11    12  51    4.88   407.1    6.9      35.008
2014   10       11    12  57    4.88   407.0    6.9      34.986
2014   10       11    13   3    4.88   407.0    6.9      34.964
2014   10       11    13   8    4.88   406.9    6.9      34.942
2014   10       11    13  14    4.88   406.9    6.9      34.920
2014   10       11    13  20    4.88   406.9    6.9      34.899
2014   10       11    13  26    4.88   406.8    6.9      34.877
2014   10       11    13  32    4.88   406.8    6.9      34.857
2014   10       11    13  37    4.88   406.7    6.9      34.836
2014   10       11    13  43    4.88   406.7    6.9      34.816
2014   10       11    13  49    4.88   406.6    6.9      34.797
2014   10       11    13  55    4.88   406.6    6.9      34.778
2014   10       11    14   0    4.88   406.6    6.9      34.759
2014   10       11    14   6    4.88   406.5    6.9      34.742
2014   10       11    14  12    4.88   406.5    6.9      34.725
2014   10       11    14  18    4.88   406.4    7.0      34.708
2014   10       11    14  24    4.88   406.4    7.0      34.693
2014   10       11    14  29    4.88   406.4    7.0      34.678
2014   10       11    14  35    4.88   406.3    7.0      34.665
2014   10       11    14  41    4.88   406.3    7.0      34.652
2014   10       11    14  47    4.88   406.2    7.0      34.640
2014   10       11    14  53    4.88   406.2    7.0      34.630
2014   10       11    14  58    4.88   406.2    7.0      34.620
2014   10       11    15   4    4.88   406.1    7.0      34.612
2014   10       11    15  10    4.88   406.1    7.0      34.605
2014   10       11    15  16    4.88   406.0    7.0      34.599
2014   10       11    15  21    4.88   406.0    7.0      34.595
2014   10       11    15  27    4.88   406.0    7.0      34.592
2014   10       11    15  33    4.88   405.9    7.1      34.590
2014   10       11    15  39    4.88   405.9    7.1      34.590
2014   10       11    15  45    4.88   405.9    7.1      34.592
2014   10       11    15  50    4.88   405.8    7.1      34.595
2014   10       11    15  56    4.88   405.8    7.1      34.600
2014   10       11    16   2    4.88   405.7    7.1      34.608
2014   10       11    16   8    4.88   405.7    7.1      34.618
2014   10       11    16  14    4.88   405.7    7.1      34.630
2014   10       11    16  19    4.88   405.6    7.1      34.644
2014   10       11    16  25    4.88   405.6    7.2      34.660
2014   10       11    16  31    4.88   405.5    7.2      34.680
2014   10       11    16  37    4.88   405.5    7.2      34.701
2014   10       11    16  42    4.88   405.5    7.2      34.725
2014   10       11    16  48    4.88   405.4    7.2      34.752
2014   10       11    16  54    4.88   405.4    7.2      34.782
2014   10       11    17   0    4.88   405.4    7.2      34.815
2014   10       11    17   6    4.88   405.3    7.3      34.850
2014   10       11    17  11    4.88   405.3    7.3      34.889
2014   10       11    17  17    4.88   405.3    7.3      34.929
2014   10       11    17  23    4.88   405.2    7.3      34.972
2014   10       11    17  29    4.88   405.2    7.3      35.015
2014   10       11    17  35    4.89   405.2    7.3      35.059
2014   10       11    17  40    4.89   405.2    7.3      35.103
2014   10       11    17  46    4.89   405.2    7.3      35.145
2014   10       11    17  52    4.89   405.1    7.4      35.187
2014   10       11    17  58    4.89   405.1    7.4      35.227
2014   10       11    18   4    4.89   405.1    7.4      35.266
2014   10       11    18   9    4.89   405.1    7.4      35.303
2014   10       11    18  15    4.90   405.1    7.4      35.338
2014   10       11    18  21    4.90   405.1    7.4      35.372
2014   10       11    18  27    4.90   405.1    7.4      35.404
2014   10       11    18  33    4.90   405.1    7.4      35.435
2014   10       11    18  38    4.90   405.0    7.4      35.465
2014   10       11    18  44    4.91   405.0    7.4      35.493
2014   10       11    18  50    4.91   405.0    7.4      35.520
2014   10       11    18  56    4.91   405.0    7.5      35.546
2014   10       11    19   1    4.91   405.0    7.5      35.570
2014   10       11    19   7    4.91   405.0    7.5      35.593
2014   10       11    19  13    4.92   405.0    7.5      35.615
2014   10       11    19  19    4.92   405.0    7.5      35.636
2014   10       11    19  25    4.92   405.0    7.5      35.656
2014   10       11    19  30    4.92   405.0    7.5      35.675
2014   10       11    19  36    4.93   405.0    7.5      35.693
2014   10       11    19  42    4.93   405.0    7.5      35.709
2014   10       11    19  48    4.93   405.0    7.5      35.725
2014   10       11    19  54    4.93   405.0    7.5      35.739
2014   10       11    19  59    4.94   405.0    7.5      35.753
2014   10       11    20   5    4.94   405.0    7.5      35.766
2014   10       11    20  11    4.94   405.1    7.5      35.778
2014   10       11    20  17    4.94   405.1    7.5      35.788
2014   10       11    20  22    4.95   405.1    7.5      35.799
2014   10       11    20  28    4.95   405.1    7.5      35.808
2014   10       11    20  34    4.95   405.1    7.5      35.816
2014   10       11    20  40    4.95   405.1    7.5      35.824
2014   10       11    20  46    4.96   405.1    7.5      35.831
2014   10       11    20  51    4.96   405.1    7.5      35.837
2014   10       11    20  57    4.96   405.1    7.5      35.842
2014   10       11    21   3    4.96   405.2    7.5      35.847
2014   10       11    21   9    4.96   405.2    7.5      35.851
2014   10       11    21  15    4.97   405.2    7.5      35.855
2014   10       11    21  20    4.97   405.2    7.5      35.857
2014   10       11    21  26    4.97   405.2    7.5      35.859
2014   10       11    21  32    4.97   405.2    7.5      35.861
2014   10       11    21  38    4.97   405.2    7.5      35.862
2014   10       11    21  43    4.98   405.3    7.5      35.862
2014   10       11    21  49    4.98   405.3    7.5      35.862
2014   10       11    21  55    4.98   405.3    7.5      35.861
2014   10       11    22   1    4.98   405.3    7.5      35.860
2014   10       11    22   7    4.99   405.3    7.5      35.859
2014   10       11    22  12    4.99   405.4    7.5      35.857
2014   10       11    22  18    4.99   405.4    7.5      35.854
2014   10       11    22  24    4.99   405.4    7.5      35.851
2014   10       11    22  30    4.99   405.4    7.5      35.848
2014   10       11    22  36    5.00   405.5    7.5      35.844
2014   10       11    22  41    5.00   405.5    7.5      35.840
2014   10       11    22  47    5.00   405.5    7.5      35.835
2014   10       11    22  53    5.00   405.5    7.5      35.831
2014   10       11    22  59    5.00   405.6    7.5      35.825
2014   10       11    23   4    5.00   405.6    7.5      35.820
2014   10       11    23  10    5.01   405.6    7.5      35.814
2014   10       11    23  16    5.01   405.6    7.5      35.808
2014   10       11    23  22    5.01   405.7    7.5      35.801
2014   10       11    23  28    5.01   405.7    7.5      35.795
2014   10       11    23  33    5.01   405.7    7.5      35.788
2014   10       11    23  39    5.02   405.7    7.5      35.780
2014   10       11    23  45    5.02   405.8    7.5      35.773
2014   10       11    23  51    5.02   405.8    7.5      35.765
2014   10       11    23  57    5.02   405.8    7.5      35.757
2014   10       12     0   2    5.02   405.8    7.5      35.749
2014   10       12     0   8    5.02   405.9    7.5      35.740
2014   10       12     0  14    5.03   405.9    7.5      35.732
2014   10       12     0  20    5.03   405.9    7.5      35.723
2014   10       12     0  26    5.03   406.0    7.5      35.714
2014   10       12     0  31    5.03   406.0    7.5      35.705
2014   10       12     0  37    5.03   406.0    7.5      35.696
2014   10       12     0  43    5.03   406.0    7.5      35.687
2014   10       12     0  49    5.04   406.1    7.5      35.678
2014   10       12     0  54    5.04   406.1    7.5      35.669
2014   10       12     1   0    5.04   406.1    7.5      35.659
2014   10       12     1   6    5.04   406.1    7.5      35.650
2014   10       12     1  12    5.04   406.2    7.5      35.641
2014   10       12     1  18    5.04   406.2    7.5      35.632
2014   10       12     1  23    5.05   406.2    7.5      35.623
2014   10       12     1  29    5.05   406.3    7.5      35.614
2014   10       12     1  35    5.05   406.3    7.5      35.605
2014   10       12     1  41    5.05   406.3    7.5      35.597
2014   10       12     1  47    5.05   406.4    7.5      35.589
2014   10       12     1  52    5.05   406.4    7.5      35.581
2014   10       12     1  58    5.06   406.4    7.5      35.573
2014   10       12     2   4    5.06   406.5    7.5      35.566
2014   10       12     2  10    5.06   406.5    7.4      35.559
2014   10       12     2  16    5.06   406.5    7.4      35.551
2014   10       12     2  21    5.06   406.6    7.4      35.544
2014   10       12     2  27    5.06   406.6    7.4      35.537
2014   10       12     2  33    5.06   406.6    7.4      35.529
2014   10       12     2  39    5.07   406.7    7.4      35.522
2014   10       12     2  44    5.07   406.7    7.4      35.514
2014   10       12     2  50    5.07   406.8    7.4      35.506
2014   10       12     2  56    5.07   406.8    7.4      35.499
2014   10       12     3   2    5.07   406.8    7.4      35.491
2014   10       12     3   8    5.07   406.9    7.4      35.483
2014   10       12     3  13    5.07   406.9    7.4      35.476
2014   10       12     3  19    5.07   406.9    7.4      35.468
2014   10       12     3  25    5.07   407.0    7.4      35.460
2014   10       12     3  31    5.07   407.0    7.4      35.453
2014   10       12     3  37    5.08   407.0    7.4      35.445
2014   10       12     3  42    5.08   407.1    7.4      35.437
2014   10       12     3  48    5.08   407.1    7.4      35.429
2014   10       12     3  54    5.08   407.1    7.4      35.422
2014   10       12     4   0    5.08   407.2    7.4      35.414
2014   10       12     4   5    5.08   407.2    7.4      35.407
2014   10       12     4  11    5.08   407.3    7.4      35.399
2014   10       12     4  17    5.08   407.3    7.4      35.392
2014   10       12     4  23    5.08   407.3    7.4      35.384
2014   10       12     4  29    5.08   407.4    7.4      35.377
2014   10       12     4  34    5.08   407.4    7.4      35.369
2014   10       12     4  40    5.08   407.4    7.4      35.362
2014   10       12     4  46    5.08   407.5    7.4      35.355
2014   10       12     4  52    5.08   407.5    7.4      35.348
2014   10       12     4  58    5.08   407.5    7.4      35.341
2014   10       12     5   3    5.08   407.6    7.4      35.334
2014   10       12     5   9    5.09   407.6    7.4      35.328
2014   10       12     5  15    5.09   407.6    7.3      35.321
2014   10       12     5  21    5.09   407.7    7.3      35.315
2014   10       12     5  26    5.09   407.7    7.3      35.308
2014   10       12     5  32    5.09   407.7    7.3      35.302
2014   10       12     5  38    5.09   407.8    7.3      35.296
2014   10       12     5  44    5.09   407.8    7.3      35.290
2014   10       12     5  50    5.09   407.8    7.3      35.284
2014   10       12     5  55    5.09   407.9    7.3      35.279
2014   10       12     6   1    5.09   407.9    7.3      35.273
2014   10       12     6   7    5.09   407.9    7.3      35.268
2014   10       12     6  13    5.09   408.0    7.3      35.263
2014   10       12     6  19    5.09   408.0    7.3      35.258
2014   10       12     6  24    5.09   408.0    7.3      35.253
2014   10       12     6  30    5.09   408.1    7.3      35.248
2014   10       12     6  36    5.09   408.1    7.3      35.243
2014   10       12     6  42    5.09   408.1    7.3      35.239
2014   10       12     6  47    5.09   408.1    7.3      35.234
2014   10       12     6  53    5.09   408.2    7.3      35.230
2014   10       12     6  59    5.09   408.2    7.3      35.225
2014   10       12     7   5    5.09   408.2    7.3      35.221
2014   10       12     7  11    5.09   408.3    7.3      35.217
2014   10       12     7  16    5.09   408.3    7.3      35.213
2014   10       12     7  22    5.09   408.3    7.3      35.209
2014   10       12     7  28    5.09   408.4    7.3      35.206
2014   10       12     7  34    5.09   408.4    7.3      35.202
2014   10       12     7  40    5.09   408.4    7.3      35.198
2014   10       12     7  45    5.09   408.5    7.3      35.195
2014   10       12     7  51    5.09   408.5    7.3      35.191
2014   10       12     7  57    5.09   408.5    7.3      35.188
2014   10       12     8   3    5.09   408.5    7.3      35.185
2014   10       12     8   9    5.09   408.6    7.3      35.182
2014   10       12     8  14    5.09   408.6    7.3      35.179
2014   10       12     8  20    5.09   408.6    7.3      35.176
2014   10       12     8  26    5.09   408.7    7.3      35.173
2014   10       12     8  32    5.09   408.7    7.3      35.170
2014   10       12     8  37    5.09   408.7    7.3      35.168
2014   10       12     8  43    5.09   408.7    7.3      35.166
2014   10       12     8  49    5.09   408.8    7.3      35.163
2014   10       12     8  55    5.09   408.8    7.3      35.161
2014   10       12     9   1    5.09   408.8    7.3      35.159
2014   10       12     9   6    5.09   408.8    7.3      35.158
2014   10       12     9  12    5.09   408.9    7.3      35.156
2014   10       12     9  18    5.09   408.9    7.3      35.154
2014   10       12     9  24    5.09   408.9    7.3      35.153
2014   10       12     9  30    5.09   408.9    7.3      35.152
2014   10       12     9  35    5.09   409.0    7.3      35.151
2014   10       12     9  41    5.09   409.0    7.3      35.150
2014   10       12     9  47    5.09   409.0    7.3      35.150
2014   10       12     9  53    5.09   409.0    7.3      35.149
2014   10       12     9  59    5.09   409.1    7.3      35.149
2014   10       12    10   4    5.10   409.1    7.3      35.149
2014   10       12    10  10    5.10   409.1    7.3      35.149
2014   10       12    10  16    5.10   409.1    7.3      35.150
2014   10       12    10  22    5.10   409.2    7.3      35.150
2014   10       12    10  28    5.10   409.2    7.3      35.151
2014   10       12    10  33    5.10   409.2    7.3      35.152
2014   10       12    10  39    5.10   409.2    7.3      35.153
2014   10       12    10  45    5.10   409.2    7.3      35.155
2014   10       12    10  51    5.10   409.3    7.3      35.157
2014   10       12    10  56    5.10   409.3    7.3      35.158
2014   10       12    11   2    5.10   409.3    7.3      35.161
2014   10       12    11   8    5.10   409.3    7.3      35.163
2014   10       12    11  14    5.10   409.3    7.3      35.166
2014   10       12    11  20    5.10   409.3    7.3      35.169
2014   10       12    11  25    5.10   409.4    7.3      35.172
2014   10       12    11  31    5.10   409.4    7.3      35.175
2014   10       12    11  37    5.10   409.4    7.3      35.179
2014   10       12    11  43    5.10   409.4    7.3      35.183
2014   10       12    11  48    5.10   409.4    7.3      35.187
2014   10       12    11  54    5.10   409.4    7.3      35.191
2014   10       12    12   0    5.10   409.5    7.3      35.195
2014   10       12    12   6    5.10   409.5    7.3      35.200
2014   10       12    12  12    5.10   409.5    7.3      35.204
2014   10       12    12  17    5.10   409.5    7.3      35.209
2014   10       12    12  23    5.10   409.5    7.3      35.214
2014   10       12    12  29    5.10   409.5    7.3      35.219
2014   10       12    12  35    5.10   409.6    7.3      35.224
2014   10       12    12  41    5.10   409.6    7.3      35.229
2014   10       12    12  46    5.11   409.6    7.3      35.234
2014   10       12    12  52    5.11   409.6    7.3      35.240
2014   10       12    12  58    5.11   409.6    7.3      35.245
2014   10       12    13   4    5.11   409.6    7.3      35.250
2014   10       12    13   9    5.11   409.6    7.3      35.256
2014   10       12    13  15    5.11   409.7    7.3      35.261
2014   10       12    13  21    5.11   409.7    7.3      35.266
2014   10       12    13  27    5.11   409.7    7.3      35.272
2014   10       12    13  33    5.11   409.7    7.3      35.277
2014   10       12    13  38    5.11   409.7    7.3      35.282
2014   10       12    13  44    5.11   409.7    7.3      35.287
2014   10       12    13  50    5.11   409.7    7.3      35.292
2014   10       12    13  56    5.12   409.8    7.3      35.297
2014   10       12    14   2    5.12   409.8    7.3      35.302
2014   10       12    14   7    5.12   409.8    7.3      35.307
2014   10       12    14  13    5.12   409.8    7.3      35.312
2014   10       12    14  19    5.12   409.8    7.3      35.316
2014   10       12    14  25    5.12   409.8    7.3      35.321
2014   10       12    14  31    5.12   409.8    7.3      35.325
2014   10       12    14  36    5.12   409.8    7.3      35.330
2014   10       12    14  42    5.12   409.9    7.3      35.334
2014   10       12    14  48    5.12   409.9    7.3      35.338
2014   10       12    14  54    5.13   409.9    7.3      35.342
2014   10       12    14  59    5.13   409.9    7.3      35.346
2014   10       12    15   5    5.13   409.9    7.3      35.350
2014   10       12    15  11    5.13   409.9    7.3      35.353
2014   10       12    15  17    5.13   409.9    7.3      35.357
2014   10       12    15  23    5.13   410.0    7.3      35.361
2014   10       12    15  28    5.13   410.0    7.3      35.364
2014   10       12    15  34    5.13   410.0    7.3      35.367
2014   10       12    15  40    5.13   410.0    7.3      35.371
2014   10       12    15  46    5.13   410.0    7.3      35.374
2014   10       12    15  52    5.13   410.0    7.3      35.377
2014   10       12    15  57    5.13   410.0    7.3      35.381
2014   10       12    16   3    5.13   410.1    7.3      35.384
2014   10       12    16   9    5.14   410.1    7.3      35.388
2014   10       12    16  15    5.14   410.1    7.3      35.391
2014   10       12    16  21    5.14   410.1    7.3      35.395
2014   10       12    16  26    5.14   410.1    7.3      35.398
2014   10       12    16  32    5.14   410.1    7.3      35.402
2014   10       12    16  38    5.14   410.2    7.3      35.405
2014   10       12    16  44    5.14   410.2    7.3      35.408
2014   10       12    16  50    5.14   410.2    7.3      35.412
2014   10       12    16  55    5.14   410.2    7.3      35.415
2014   10       12    17   1    5.14   410.2    7.3      35.418
2014   10       12    17   7    5.14   410.2    7.3      35.421
2014   10       12    17  13    5.14   410.3    7.3      35.424
2014   10       12    17  18    5.14   410.3    7.3      35.427
2014   10       12    17  24    5.14   410.3    7.3      35.429
2014   10       12    17  30    5.14   410.3    7.3      35.432
2014   10       12    17  36    5.14   410.3    7.3      35.435
2014   10       12    17  42    5.14   410.3    7.3      35.437
2014   10       12    17  47    5.14   410.3    7.3      35.440
2014   10       12    17  53    5.14   410.4    7.3      35.442
2014   10       12    17  59    5.15   410.4    7.3      35.444
2014   10       12    18   5    5.15   410.4    7.3      35.446
2014   10       12    18  11    5.15   410.4    7.3      35.448
2014   10       12    18  16    5.15   410.4    7.3      35.450
2014   10       12    18  22    5.15   410.4    7.3      35.452
2014   10       12    18  28    5.15   410.4    7.3      35.454
2014   10       12    18  34    5.15   410.5    7.3      35.456
2014   10       12    18  39    5.15   410.5    7.3      35.458
2014   10       12    18  45    5.15   410.5    7.3      35.460
2014   10       12    18  51    5.15   410.5    7.3      35.461
2014   10       12    18  57    5.15   410.5    7.3      35.463
2014   10       12    19   3    5.15   410.5    7.3      35.465
2014   10       12    19   8    5.15   410.5    7.3      35.466
2014   10       12    19  14    5.15   410.6    7.3      35.468
2014   10       12    19  20    5.15   410.6    7.3      35.470
2014   10       12    19  26    5.15   410.6    7.3      35.471
2014   10       12    19  32    5.15   410.6    7.3      35.473
2014   10       12    19  37    5.15   410.6    7.3      35.475
2014   10       12    19  43    5.15   410.6    7.3      35.476
2014   10       12    19  49    5.15   410.6    7.3      35.478
2014   10       12    19  55    5.15   410.6    7.3      35.480
2014   10       12    20   0    5.15   410.7    7.3      35.481
2014   10       12    20   6    5.15   410.7    7.3      35.483
2014   10       12    20  12    5.15   410.7    7.3      35.485
2014   10       12    20  18    5.15   410.7    7.3      35.486
2014   10       12    20  24    5.15   410.7    7.3      35.488
2014   10       12    20  29    5.15   410.7    7.3      35.490
2014   10       12    20  35    5.15   410.7    7.3      35.492
2014   10       12    20  41    5.16   410.7    7.3      35.493
2014   10       12    20  47    5.16   410.7    7.3      35.495
2014   10       12    20  53    5.16   410.8    7.3      35.497
2014   10       12    20  58    5.16   410.8    7.3      35.499
2014   10       12    21   4    5.16   410.8    7.3      35.501
2014   10       12    21  10    5.16   410.8    7.3      35.502
2014   10       12    21  16    5.16   410.8    7.3      35.504
2014   10       12    21  21    5.16   410.8    7.3      35.506
2014   10       12    21  27    5.16   410.8    7.3      35.508
2014   10       12    21  33    5.16   410.8    7.3      35.509
2014   10       12    21  39    5.16   410.8    7.3      35.511
2014   10       12    21  45    5.16   410.8    7.3      35.513
2014   10       12    21  50    5.16   410.9    7.3      35.514
2014   10       12    21  56    5.16   410.9    7.3      35.515
2014   10       12    22   2    5.16   410.9    7.3      35.517
2014   10       12    22   8    5.16   410.9    7.3      35.518
2014   10       12    22  14    5.16   410.9    7.3      35.519
2014   10       12    22  19    5.16   410.9    7.3      35.520
2014   10       12    22  25    5.16   410.9    7.3      35.521
2014   10       12    22  31    5.16   410.9    7.3      35.522
2014   10       12    22  37    5.16   410.9    7.3      35.523
2014   10       12    22  43    5.16   410.9    7.3      35.524
2014   10       12    22  48    5.16   410.9    7.3      35.524
2014   10       12    22  54    5.16   411.0    7.3      35.525
2014   10       12    23   0    5.16   411.0    7.3      35.525
2014   10       12    23   6    5.16   411.0    7.3      35.525
2014   10       12    23  11    5.16   411.0    7.3      35.525
2014   10       12    23  17    5.16   411.0    7.3      35.525
2014   10       12    23  23    5.16   411.0    7.3      35.525
2014   10       12    23  29    5.16   411.0    7.3      35.524
2014   10       12    23  35    5.16   411.0    7.3      35.524
2014   10       12    23  40    5.16   411.0    7.3      35.523
2014   10       12    23  46    5.16   411.0    7.3      35.523
2014   10       12    23  52    5.16   411.0    7.3      35.522
2014   10       12    23  58    5.16   411.1    7.3      35.521
2014   10       13     0   4    5.16   411.1    7.3      35.520
2014   10       13     0   9    5.16   411.1    7.3      35.520
2014   10       13     0  15    5.17   411.1    7.3      35.518
2014   10       13     0  21    5.17   411.1    7.3      35.517
2014   10       13     0  27    5.17   411.1    7.3      35.516
2014   10       13     0  33    5.17   411.1    7.3      35.515
2014   10       13     0  38    5.17   411.1    7.3      35.514
2014   10       13     0  44    5.17   411.1    7.3      35.512
2014   10       13     0  50    5.17   411.1    7.3      35.511
2014   10       13     0  56    5.17   411.1    7.3      35.510
2014   10       13     1   1    5.17   411.1    7.3      35.508
2014   10       13     1   7    5.17   411.1    7.3      35.507
2014   10       13     1  13    5.17   411.2    7.3      35.506
2014   10       13     1  19    5.17   411.2    7.3      35.505
2014   10       13     1  25    5.17   411.2    7.3      35.504
2014   10       13     1  30    5.17   411.2    7.3      35.503
2014   10       13     1  36    5.17   411.2    7.3      35.502
2014   10       13     1  42    5.17   411.2    7.3      35.501
2014   10       13     1  48    5.17   411.2    7.3      35.500
2014   10       13     1  54    5.17   411.2    7.3      35.500
2014   10       13     1  59    5.17   411.2    7.3      35.500
2014   10       13     2   5    5.17   411.2    7.3      35.499
2014   10       13     2  11    5.17   411.2    7.3      35.499
2014   10       13     2  17    5.17   411.2    7.3      35.500
2014   10       13     2  22    5.17   411.2    7.3      35.500
2014   10       13     2  28    5.17   411.2    7.3      35.501
2014   10       13     2  34    5.17   411.3    7.3      35.501
2014   10       13     2  40    5.17   411.3    7.3      35.502
2014   10       13     2  46    5.17   411.3    7.3      35.504
2014   10       13     2  51    5.17   411.3    7.3      35.505
2014   10       13     2  57    5.17   411.3    7.3      35.507
2014   10       13     3   3    5.17   411.3    7.3      35.508
2014   10       13     3   9    5.18   411.3    7.3      35.511
2014   10       13     3  15    5.18   411.3    7.3      35.513
2014   10       13     3  20    5.18   411.3    7.3      35.515
2014   10       13     3  26    5.18   411.3    7.3      35.518
2014   10       13     3  32    5.18   411.3    7.3      35.521
2014   10       13     3  38    5.18   411.3    7.3      35.524
2014   10       13     3  43    5.18   411.3    7.3      35.527
2014   10       13     3  49    5.18   411.3    7.3      35.531
2014   10       13     3  55    5.18   411.4    7.3      35.534
2014   10       13     4   1    5.18   411.4    7.3      35.538
2014   10       13     4   7    5.18   411.4    7.3      35.542
2014   10       13     4  12    5.18   411.4    7.3      35.546
2014   10       13     4  18    5.18   411.4    7.3      35.550
2014   10       13     4  24    5.18   411.4    7.3      35.555
2014   10       13     4  30    5.18   411.4    7.3      35.559
2014   10       13     4  36    5.18   411.4    7.3      35.564
2014   10       13     4  41    5.18   411.4    7.3      35.568
2014   10       13     4  47    5.18   411.4    7.3      35.573
2014   10       13     4  53    5.18   411.4    7.3      35.577
2014   10       13     4  59    5.18   411.4    7.3      35.582
2014   10       13     5   4    5.18   411.4    7.3      35.587
2014   10       13     5  10    5.18   411.4    7.3      35.591
2014   10       13     5  16    5.18   411.4    7.3      35.596
2014   10       13     5  22    5.18   411.4    7.3      35.600
2014   10       13     5  28    5.18   411.4    7.3      35.605
2014   10       13     5  33    5.18   411.5    7.3      35.609
2014   10       13     5  39    5.18   411.5    7.3      35.613
2014   10       13     5  45    5.18   411.5    7.3      35.617
2014   10       13     5  51    5.18   411.5    7.3      35.621
2014   10       13     5  57    5.18   411.5    7.3      35.624
2014   10       13     6   2    5.18   411.5    7.3      35.628
2014   10       13     6   8    5.19   411.5    7.3      35.631
2014   10       13     6  14    5.19   411.5    7.3      35.634
2014   10       13     6  20    5.19   411.5    7.3      35.636
2014   10       13     6  26    5.19   411.5    7.3      35.639
2014   10       13     6  31    5.19   411.5    7.3      35.641
2014   10       13     6  37    5.19   411.5    7.3      35.643
2014   10       13     6  43    5.19   411.5    7.3      35.645
2014   10       13     6  49    5.19   411.5    7.3      35.647
2014   10       13     6  55    5.19   411.5    7.3      35.648
2014   10       13     7   0    5.19   411.5    7.3      35.649
2014   10       13     7   6    5.19   411.5    7.3      35.650
2014   10       13     7  12    5.19   411.6    7.3      35.650
2014   10       13     7  18    5.19   411.6    7.3      35.651
2014   10       13     7  23    5.19   411.6    7.3      35.651
2014   10       13     7  29    5.19   411.6    7.3      35.651
2014   10       13     7  35    5.19   411.6    7.3      35.651
2014   10       13     7  41    5.19   411.6    7.3      35.651
2014   10       13     7  47    5.19   411.6    7.3      35.650
2014   10       13     7  52    5.19   411.6    7.3      35.650
2014   10       13     7  58    5.19   411.6    7.3      35.649
2014   10       13     8   4    5.19   411.6    7.3      35.648
2014   10       13     8  10    5.19   411.6    7.3      35.647
2014   10       13     8  16    5.20   411.6    7.3      35.647
2014   10       13     8  21    5.20   411.6    7.3      35.646
2014   10       13     8  27    5.20   411.6    7.3      35.645
2014   10       13     8  33    5.20   411.6    7.3      35.644
2014   10       13     8  39    5.20   411.6    7.3      35.643
2014   10       13     8  44    5.20   411.6    7.3      35.642
2014   10       13     8  50    5.20   411.6    7.3      35.642
2014   10       13     8  56    5.20   411.6    7.3      35.641
2014   10       13     9   2    5.20   411.7    7.3      35.641
2014   10       13     9   8    5.20   411.7    7.3      35.640
2014   10       13     9  13    5.20   411.7    7.3      35.640
2014   10       13     9  19    5.20   411.7    7.3      35.640
2014   10       13     9  25    5.20   411.7    7.3      35.641
2014   10       13     9  31    5.20   411.7    7.3      35.641
2014   10       13     9  37    5.20   411.7    7.3      35.642
2014   10       13     9  42    5.21   411.7    7.3      35.643
2014   10       13     9  48    5.21   411.7    7.3      35.644
2014   10       13     9  54    5.21   411.7    7.3      35.646
2014   10       13    10   0    5.21   411.7    7.3      35.647
2014   10       13    10   5    5.21   411.7    7.3      35.650
2014   10       13    10  11    5.21   411.7    7.4      35.652
2014   10       13    10  17    5.21   411.7    7.4      35.654
2014   10       13    10  23    5.21   411.8    7.4      35.657
2014   10       13    10  29    5.21   411.8    7.4      35.661
2014   10       13    10  34    5.21   411.8    7.4      35.664
2014   10       13    10  40    5.21   411.8    7.4      35.668
2014   10       13    10  46    5.21   411.8    7.4      35.672
2014   10       13    10  52    5.21   411.8    7.4      35.676
2014   10       13    10  58    5.22   411.8    7.4      35.681
2014   10       13    11   3    5.22   411.8    7.4      35.686
2014   10       13    11   9    5.22   411.8    7.4      35.691
2014   10       13    11  15    5.22   411.8    7.4      35.697
2014   10       13    11  21    5.22   411.8    7.4      35.702
2014   10       13    11  26    5.22   411.8    7.4      35.708
2014   10       13    11  32    5.22   411.9    7.4      35.714
2014   10       13    11  38    5.22   411.9    7.4      35.721
2014   10       13    11  44    5.22   411.9    7.4      35.727
2014   10       13    11  50    5.22   411.9    7.4      35.734
2014   10       13    11  55    5.22   411.9    7.4      35.740
2014   10       13    12   1    5.22   411.9    7.4      35.748
2014   10       13    12   7    5.22   411.9    7.4      35.755
2014   10       13    12  13    5.23   411.9    7.4      35.762
2014   10       13    12  19    5.23   411.9    7.4      35.769
2014   10       13    12  24    5.23   411.9    7.4      35.776
2014   10       13    12  30    5.23   411.9    7.4      35.784
2014   10       13    12  36    5.23   411.9    7.4      35.791
2014   10       13    12  42    5.23   411.9    7.4      35.799
2014   10       13    12  48    5.23   412.0    7.4      35.807
2014   10       13    12  53    5.23   412.0    7.4      35.814
2014   10       13    12  59    5.23   412.0    7.4      35.822
2014   10       13    13   5    5.23   412.0    7.4      35.829
2014   10       13    13  11    5.23   412.0    7.4      35.837
2014   10       13    13  16    5.24   412.0    7.4      35.845
2014   10       13    13  22    5.24   412.0    7.4      35.852
2014   10       13    13  28    5.24   412.0    7.4      35.860
2014   10       13    13  34    5.24   412.0    7.4      35.867
2014   10       13    13  40    5.24   412.0    7.4      35.874
2014   10       13    13  45    5.24   412.0    7.4      35.882
2014   10       13    13  51    5.24   412.1    7.4      35.889
2014   10       13    13  57    5.24   412.1    7.4      35.896
2014   10       13    14   3    5.24   412.1    7.4      35.903
2014   10       13    14   9    5.24   412.1    7.4      35.910
2014   10       13    14  14    5.25   412.1    7.4      35.917
2014   10       13    14  20    5.25   412.1    7.4      35.923
2014   10       13    14  26    5.25   412.1    7.4      35.930
2014   10       13    14  32    5.25   412.1    7.4      35.937
2014   10       13    14  38    5.25   412.1    7.4      35.943
2014   10       13    14  43    5.25   412.2    7.4      35.949
2014   10       13    14  49    5.25   412.2    7.4      35.956
2014   10       13    14  55    5.25   412.2    7.4      35.962
2014   10       13    15   1    5.25   412.2    7.4      35.968
2014   10       13    15   6    5.26   412.2    7.4      35.974
2014   10       13    15  12    5.26   412.2    7.4      35.980
2014   10       13    15  18    5.26   412.2    7.4      35.985
2014   10       13    15  24    5.26   412.3    7.4      35.991
2014   10       13    15  30    5.26   412.3    7.4      35.997
2014   10       13    15  35    5.26   412.3    7.4      36.002
2014   10       13    15  41    5.26   412.3    7.4      36.008
2014   10       13    15  47    5.27   412.3    7.4      36.013
2014   10       13    15  53    5.27   412.3    7.4      36.019
2014   10       13    15  59    5.27   412.3    7.4      36.024
2014   10       13    16   4    5.27   412.4    7.4      36.030
2014   10       13    16  10    5.27   412.4    7.4      36.035
2014   10       13    16  16    5.27   412.4    7.4      36.040
2014   10       13    16  22    5.27   412.4    7.4      36.046
2014   10       13    16  27    5.27   412.4    7.5      36.051
2014   10       13    16  33    5.28   412.4    7.5      36.056
2014   10       13    16  39    5.28   412.5    7.5      36.062
2014   10       13    16  45    5.28   412.5    7.5      36.068
2014   10       13    16  51    5.28   412.5    7.5      36.073
2014   10       13    16  56    5.28   412.5    7.5      36.079
2014   10       13    17   2    5.28   412.5    7.5      36.084
2014   10       13    17   8    5.28   412.6    7.5      36.090
2014   10       13    17  14    5.29   412.6    7.5      36.096
2014   10       13    17  20    5.29   412.6    7.5      36.102
2014   10       13    17  25    5.29   412.6    7.5      36.108
2014   10       13    17  31    5.29   412.6    7.5      36.114
2014   10       13    17  37    5.29   412.6    7.5      36.120
2014   10       13    17  43    5.29   412.7    7.5      36.127
2014   10       13    17  48    5.29   412.7    7.5      36.134
2014   10       13    17  54    5.30   412.7    7.5      36.141
2014   10       13    18   0    5.30   412.7    7.5      36.148
2014   10       13    18   6    5.30   412.7    7.5      36.155
2014   10       13    18  12    5.30   412.8    7.5      36.162
2014   10       13    18  17    5.30   412.8    7.5      36.170
2014   10       13    18  23    5.30   412.8    7.5      36.178
2014   10       13    18  29    5.30   412.8    7.5      36.186
2014   10       13    18  35    5.31   412.8    7.5      36.194
2014   10       13    18  41    5.31   412.9    7.5      36.203
2014   10       13    18  46    5.31   412.9    7.5      36.212
2014   10       13    18  52    5.31   412.9    7.5      36.221
2014   10       13    18  58    5.31   412.9    7.5      36.230
2014   10       13    19   4    5.31   413.0    7.5      36.239
2014   10       13    19  10    5.31   413.0    7.5      36.248
2014   10       13    19  15    5.32   413.0    7.5      36.258
2014   10       13    19  21    5.32   413.0    7.5      36.267
2014   10       13    19  27    5.32   413.0    7.5      36.277
2014   10       13    19  33    5.32   413.1    7.5      36.287
2014   10       13    19  38    5.32   413.1    7.5      36.296
2014   10       13    19  44    5.32   413.1    7.5      36.306
2014   10       13    19  50    5.33   413.1    7.5      36.316
2014   10       13    19  56    5.33   413.2    7.5      36.326
2014   10       13    20   2    5.33   413.2    7.5      36.336
2014   10       13    20   7    5.33   413.2    7.5      36.346
2014   10       13    20  13    5.33   413.2    7.5      36.356
2014   10       13    20  19    5.33   413.2    7.5      36.367
2014   10       13    20  25    5.33   413.3    7.5      36.377
2014   10       13    20  31    5.34   413.3    7.5      36.387
2014   10       13    20  36    5.34   413.3    7.5      36.398
2014   10       13    20  42    5.34   413.3    7.5      36.408
2014   10       13    20  48    5.34   413.4    7.5      36.419
2014   10       13    20  54    5.34   413.4    7.5      36.429
2014   10       13    21   0    5.34   413.4    7.5      36.440
2014   10       13    21   5    5.35   413.4    7.5      36.451
2014   10       13    21  11    5.35   413.4    7.5      36.462
2014   10       13    21  17    5.35   413.5    7.6      36.473
2014   10       13    21  23    5.35   413.5    7.6      36.483
2014   10       13    21  28    5.35   413.5    7.6      36.495
2014   10       13    21  34    5.36   413.5    7.6      36.506
2014   10       13    21  40    5.36   413.6    7.6      36.517
2014   10       13    21  46    5.36   413.6    7.6      36.528
2014   10       13    21  52    5.36   413.6    7.6      36.539
2014   10       13    21  57    5.36   413.6    7.6      36.550
2014   10       13    22   3    5.36   413.7    7.6      36.562
2014   10       13    22   9    5.37   413.7    7.6      36.573
2014   10       13    22  15    5.37   413.7    7.6      36.585
2014   10       13    22  21    5.37   413.8    7.6      36.596
2014   10       13    22  26    5.37   413.8    7.6      36.608
2014   10       13    22  32    5.37   413.8    7.6      36.619
2014   10       13    22  38    5.38   413.8    7.6      36.631
2014   10       13    22  44    5.38   413.9    7.6      36.642
2014   10       13    22  50    5.38   413.9    7.6      36.654
2014   10       13    22  55    5.38   413.9    7.6      36.666
2014   10       13    23   1    5.38   413.9    7.6      36.677
2014   10       13    23   7    5.39   414.0    7.6      36.689
2014   10       13    23  13    5.39   414.0    7.6      36.701
2014   10       13    23  18    5.39   414.0    7.6      36.712
2014   10       13    23  24    5.39   414.1    7.6      36.724
2014   10       13    23  30    5.39   414.1    7.6      36.736
2014   10       13    23  36    5.40   414.1    7.6      36.748
2014   10       13    23  42    5.40   414.2    7.6      36.760
2014   10       13    23  47    5.40   414.2    7.6      36.771
2014   10       13    23  53    5.40   414.2    7.6      36.783
2014   10       13    23  59    5.41   414.3    7.6      36.795
2014   10       14     0   5    5.41   414.3    7.6      36.807
2014   10       14     0  11    5.41   414.3    7.6      36.819
2014   10       14     0  16    5.41   414.4    7.6      36.831
2014   10       14     0  22    5.41   414.4    7.6      36.843
2014   10       14     0  28    5.42   414.4    7.6      36.855
2014   10       14     0  34    5.42   414.5    7.6      36.867
2014   10       14     0  39    5.42   414.5    7.6      36.880
2014   10       14     0  45    5.42   414.5    7.6      36.892
2014   10       14     0  51    5.42   414.6    7.6      36.904
2014   10       14     0  57    5.43   414.6    7.6      36.917
2014   10       14     1   3    5.43   414.6    7.6      36.929
2014   10       14     1   8    5.43   414.7    7.6      36.942
2014   10       14     1  14    5.43   414.7    7.6      36.955
2014   10       14     1  20    5.44   414.7    7.6      36.968
2014   10       14     1  26    5.44   414.8    7.7      36.981
2014   10       14     1  32    5.44   414.8    7.7      36.995
2014   10       14     1  37    5.44   414.8    7.7      37.008
2014   10       14     1  43    5.45   414.9    7.7      37.022
2014   10       14     1  49    5.45   414.9    7.7      37.036
2014   10       14     1  55    5.45   414.9    7.7      37.050
2014   10       14     2   0    5.45   415.0    7.7      37.065
2014   10       14     2   6    5.46   415.0    7.7      37.079
2014   10       14     2  12    5.46   415.1    7.7      37.094
2014   10       14     2  18    5.46   415.1    7.7      37.109
2014   10       14     2  24    5.46   415.1    7.7      37.124
2014   10       14     2  29    5.46   415.2    7.7      37.139
2014   10       14     2  35    5.47   415.2    7.7      37.154
2014   10       14     2  41    5.47   415.2    7.7      37.169
2014   10       14     2  47    5.47   415.3    7.7      37.184
2014   10       14     2  53    5.47   415.3    7.7      37.200
2014   10       14     2  58    5.48   415.4    7.7      37.215
2014   10       14     3   4    5.48   415.4    7.7      37.231
2014   10       14     3  10    5.48   415.4    7.7      37.246
2014   10       14     3  16    5.49   415.5    7.7      37.262
2014   10       14     3  21    5.49   415.5    7.7      37.278
2014   10       14     3  27    5.49   415.6    7.7      37.294
2014   10       14     3  33    5.49   415.6    7.7      37.310
2014   10       14     3  39    5.50   415.6    7.7      37.326
2014   10       14     3  45    5.50   415.7    7.7      37.342
2014   10       14     3  50    5.50   415.7    7.7      37.358
2014   10       14     3  56    5.50   415.7    7.7      37.375
2014   10       14     4   2    5.51   415.8    7.7      37.391
2014   10       14     4   8    5.51   415.8    7.7      37.408
2014   10       14     4  14    5.51   415.9    7.7      37.425
2014   10       14     4  19    5.51   415.9    7.7      37.442
2014   10       14     4  25    5.52   415.9    7.7      37.459
2014   10       14     4  31    5.52   416.0    7.7      37.475
2014   10       14     4  37    5.52   416.0    7.7      37.493
2014   10       14     4  43    5.52   416.1    7.7      37.510
2014   10       14     4  48    5.53   416.1    7.7      37.527
2014   10       14     4  54    5.53   416.1    7.7      37.544
2014   10       14     5   0    5.53   416.2    7.7      37.562
2014   10       14     5   6    5.54   416.2    7.7      37.579
2014   10       14     5  12    5.54   416.3    7.7      37.597
2014   10       14     5  17    5.54   416.3    7.7      37.615
2014   10       14     5  23    5.54   416.3    7.7      37.633
2014   10       14     5  29    5.55   416.4    7.8      37.651
2014   10       14     5  35    5.55   416.4    7.8      37.668
2014   10       14     5  40    5.55   416.5    7.8      37.686
2014   10       14     5  46    5.56   416.5    7.8      37.705
2014   10       14     5  52    5.56   416.6    7.8      37.723
2014   10       14     5  58    5.56   416.6    7.8      37.741
2014   10       14     6   4    5.57   416.6    7.8      37.759
2014   10       14     6   9    5.57   416.7    7.8      37.777
2014   10       14     6  15    5.57   416.7    7.8      37.795
2014   10       14     6  21    5.58   416.8    7.8      37.814
2014   10       14     6  27    5.58   416.8    7.8      37.832
2014   10       14     6  33    5.58   416.8    7.8      37.851
2014   10       14     6  38    5.58   416.9    7.8      37.869
2014   10       14     6  44    5.59   416.9    7.8      37.888
2014   10       14     6  50    5.59   417.0    7.8      37.907
2014   10       14     6  56    5.59   417.0    7.8      37.926
2014   10       14     7   1    5.60   417.1    7.8      37.945
2014   10       14     7   7    5.60   417.1    7.8      37.964
2014   10       14     7  13    5.61   417.1    7.8      37.983
2014   10       14     7  19    5.61   417.2    7.8      38.003
2014   10       14     7  25    5.61   417.2    7.8      38.023
2014   10       14     7  30    5.62   417.3    7.8      38.043
2014   10       14     7  36    5.62   417.3    7.8      38.064
2014   10       14     7  42    5.62   417.4    7.8      38.085
2014   10       14     7  48    5.63   417.4    7.8      38.106
2014   10       14     7  54    5.63   417.4    7.8      38.128
2014   10       14     7  59    5.63   417.5    7.8      38.150
2014   10       14     8   5    5.64   417.5    7.8      38.173
2014   10       14     8  11    5.64   417.6    7.9      38.196
2014   10       14     8  17    5.65   417.6    7.9      38.221
2014   10       14     8  22    5.65   417.7    7.9      38.246
2014   10       14     8  28    5.65   417.7    7.9      38.272
2014   10       14     8  34    5.66   417.8    7.9      38.299
2014   10       14     8  40    5.66   417.9    7.9      38.326
2014   10       14     8  46    5.67   417.9    7.9      38.355
2014   10       14     8  51    5.67   418.0    7.9      38.384
2014   10       14     8  57    5.68   418.1    7.9      38.415
2014   10       14     9   3    5.68   418.1    7.9      38.447
2014   10       14     9   9    5.68   418.2    7.9      38.480
2014   10       14     9  15    5.69   418.3    7.9      38.515
2014   10       14     9  20    5.69   418.4    7.9      38.550
2014   10       14     9  26    5.70   418.4    7.9      38.585
2014   10       14     9  32    5.70   418.5    7.9      38.621
2014   10       14     9  38    5.71   418.6    7.9      38.656
2014   10       14     9  43    5.71   418.7    8.0      38.690
2014   10       14     9  49    5.71   418.7    8.0      38.724
2014   10       14     9  55    5.72   418.8    8.0      38.758
2014   10       14    10   1    5.72   418.9    8.0      38.792
2014   10       14    10   7    5.73   419.0    8.0      38.825
2014   10       14    10  12    5.73   419.1    8.0      38.858
2014   10       14    10  18    5.73   419.1    8.0      38.891
2014   10       14    10  24    5.74   419.2    8.0      38.924
2014   10       14    10  30    5.74   419.3    8.0      38.957
2014   10       14    10  36    5.75   419.4    8.0      38.989
2014   10       14    10  41    5.75   419.5    8.0      39.022
2014   10       14    10  47    5.76   419.5    8.0      39.054
2014   10       14    10  53    5.76   419.6    8.0      39.087
2014   10       14    10  59    5.76   419.7    8.0      39.119
2014   10       14    11   5    5.77   419.8    8.0      39.151
2014   10       14    11  10    5.77   419.9    8.0      39.184
2014   10       14    11  16    5.78   420.0    8.0      39.216
2014   10       14    11  22    5.78   420.0    8.0      39.248
2014   10       14    11  28    5.79   420.1    8.0      39.281
2014   10       14    11  33    5.79   420.2    8.0      39.313
2014   10       14    11  39    5.80   420.3    8.0      39.346
2014   10       14    11  45    5.80   420.4    8.0      39.378
2014   10       14    11  51    5.81   420.5    8.0      39.411
2014   10       14    11  57    5.81   420.6    8.0      39.444
2014   10       14    12   2    5.81   420.6    8.1      39.477
2014   10       14    12   8    5.82   420.7    8.1      39.511
2014   10       14    12  14    5.82   420.8    8.1      39.545
2014   10       14    12  20    5.83   420.9    8.1      39.579
2014   10       14    12  26    5.83   421.0    8.1      39.613
2014   10       14    12  31    5.84   421.1    8.1      39.648
2014   10       14    12  37    5.84   421.2    8.1      39.683
2014   10       14    12  43    5.85   421.3    8.1      39.718
2014   10       14    12  49    5.86   421.4    8.1      39.753
2014   10       14    12  55    5.86   421.5    8.1      39.789
2014   10       14    13   0    5.87   421.6    8.1      39.825
2014   10       14    13   6    5.87   421.7    8.1      39.861
2014   10       14    13  12    5.88   421.8    8.1      39.898
2014   10       14    13  18    5.88   421.9    8.1      39.934
2014   10       14    13  23    5.89   422.0    8.1      39.971
2014   10       14    13  29    5.89   422.1    8.1      40.008
2014   10       14    13  35    5.90   422.2    8.1      40.045
2014   10       14    13  41    5.90   422.3    8.1      40.083
2014   10       14    13  47    5.91   422.4    8.1      40.120
2014   10       14    13  52    5.91   422.5    8.1      40.158
2014   10       14    13  58    5.92   422.6    8.2      40.197
2014   10       14    14   4    5.93   422.7    8.2      40.236
2014   10       14    14  10    5.93   422.8    8.2      40.275
2014   10       14    14  16    5.94   422.9    8.2      40.315
2014   10       14    14  21    5.94   423.0    8.2      40.355
2014   10       14    14  27    5.95   423.1    8.2      40.396
2014   10       14    14  33    5.95   423.2    8.2      40.438
2014   10       14    14  39    5.96   423.3    8.2      40.481
2014   10       14    14  44    5.96   423.4    8.2      40.525
2014   10       14    14  50    5.97   423.5    8.2      40.571
2014   10       14    14  56    5.98   423.6    8.2      40.617
2014   10       14    15   2    5.98   423.8    8.2      40.665
2014   10       14    15   8    5.99   423.9    8.2      40.714
2014   10       14    15  13    5.99   424.0    8.2      40.764
2014   10       14    15  19    6.00   424.1    8.2      40.815
2014   10       14    15  25    6.00   424.2    8.2      40.867
2014   10       14    15  31    6.01   424.4    8.3      40.920
2014   10       14    15  37    6.02   424.5    8.3      40.972
2014   10       14    15  42    6.02   424.6    8.3      41.025
2014   10       14    15  48    6.03   424.7    8.3      41.078
2014   10       14    15  54    6.03   424.8    8.3      41.131
2014   10       14    16   0    6.04   425.0    8.3      41.185
2014   10       14    16   5    6.04   425.1    8.3      41.239
2014   10       14    16  11    6.05   425.2    8.3      41.295
2014   10       14    16  17    6.06   425.4    8.3      41.351
2014   10       14    16  23    6.06   425.5    8.3      41.408
2014   10       14    16  29    6.07   425.7    8.3      41.466
2014   10       14    16  34    6.07   425.8    8.3      41.524
2014   10       14    16  40    6.08   425.9    8.3      41.582
2014   10       14    16  46    6.08   426.1    8.3      41.639
2014   10       14    16  52    6.09   426.2    8.3      41.696
2014   10       14    16  58    6.09   426.4    8.3      41.752
2014   10       14    17   3    6.10   426.5    8.4      41.808
2014   10       14    17   9    6.11   426.7    8.4      41.863
2014   10       14    17  15    6.11   426.8    8.4      41.918
2014   10       14    17  21    6.12   426.9    8.4      41.972
2014   10       14    17  26    6.12   427.1    8.4      42.026
2014   10       14    17  32    6.13   427.2    8.4      42.080
2014   10       14    17  38    6.13   427.4    8.4      42.133
2014   10       14    17  44    6.14   427.5    8.4      42.186
2014   10       14    17  50    6.14   427.7    8.4      42.239
2014   10       14    17  55    6.15   427.8    8.4      42.292
2014   10       14    18   1    6.16   428.0    8.4      42.345
2014   10       14    18   7    6.16   428.1    8.4      42.398
2014   10       14    18  13    6.17   428.3    8.4      42.452
2014   10       14    18  19    6.17   428.4    8.4      42.505
2014   10       14    18  24    6.18   428.6    8.4      42.558
2014   10       14    18  30    6.19   428.7    8.4      42.612
2014   10       14    18  36    6.19   428.9    8.4      42.666
2014   10       14    18  42    6.20   429.0    8.4      42.720
2014   10       14    18  48    6.21   429.2    8.4      42.775
2014   10       14    18  53    6.21   429.3    8.4      42.831
2014   10       14    18  59    6.22   429.5    8.5      42.888
2014   10       14    19   5    6.23   429.7    8.5      42.946
2014   10       14    19  11    6.23   429.8    8.5      43.005
2014   10       14    19  17    6.24   430.0    8.5      43.065
2014   10       14    19  22    6.25   430.2    8.5      43.127
2014   10       14    19  28    6.25   430.4    8.5      43.191
2014   10       14    19  34    6.26   430.6    8.5      43.257
2014   10       14    19  40    6.27   430.8    8.5      43.325
2014   10       14    19  45    6.27   431.0    8.5      43.395
2014   10       14    19  51    6.28   431.2    8.5      43.467
2014   10       14    19  57    6.29   431.4    8.5      43.540
2014   10       14    20   3    6.30   431.6    8.5      43.613
2014   10       14    20   9    6.30   431.8    8.5      43.685
2014   10       14    20  14    6.31   432.0    8.5      43.757
2014   10       14    20  20    6.32   432.3    8.5      43.828
2014   10       14    20  26    6.32   432.5    8.5      43.899
2014   10       14    20  32    6.33   432.7    8.5      43.970
2014   10       14    20  38    6.33   432.9    8.6      44.039
2014   10       14    20  43    6.34   433.1    8.6      44.109
2014   10       14    20  49    6.35   433.3    8.6      44.178
2014   10       14    20  55    6.35   433.5    8.6      44.246
2014   10       14    21   1    6.36   433.8    8.6      44.315
2014   10       14    21   6    6.36   434.0    8.6      44.383
2014   10       14    21  12    6.37   434.2    8.6      44.451
2014   10       14    21  18    6.38   434.4    8.6      44.518
2014   10       14    21  24    6.38   434.6    8.6      44.586
2014   10       14    21  30    6.39   434.8    8.6      44.654
2014   10       14    21  35    6.39   435.0    8.6      44.721
2014   10       14    21  41    6.40   435.3    8.6      44.789
2014   10       14    21  47    6.40   435.5    8.6      44.857
2014   10       14    21  53    6.41   435.7    8.6      44.925
2014   10       14    21  59    6.41   435.9    8.6      44.993
2014   10       14    22   4    6.42   436.1    8.6      45.062
2014   10       14    22  10    6.43   436.3    8.6      45.131
2014   10       14    22  16    6.43   436.5    8.6      45.201
2014   10       14    22  22    6.44   436.7    8.6      45.272
2014   10       14    22  27    6.44   437.0    8.6      45.343
2014   10       14    22  33    6.45   437.2    8.6      45.415
2014   10       14    22  39    6.45   437.4    8.6      45.488
2014   10       14    22  45    6.46   437.6    8.6      45.562
2014   10       14    22  51    6.46   437.8    8.6      45.636
2014   10       14    22  56    6.47   438.1    8.6      45.711
2014   10       14    23   2    6.47   438.3    8.6      45.785
2014   10       14    23   8    6.48   438.5    8.6      45.861
2014   10       14    23  14    6.48   438.7    8.6      45.935
2014   10       14    23  20    6.49   438.9    8.6      46.010
2014   10       14    23  25    6.49   439.2    8.6      46.084
2014   10       14    23  31    6.50   439.4    8.6      46.158
2014   10       14    23  37    6.51   439.6    8.6      46.232
2014   10       14    23  43    6.51   439.8    8.6      46.306
2014   10       14    23  48    6.52   440.0    8.6      46.381
2014   10       14    23  54    6.52   440.3    8.6      46.455
2014   10       15     0   0    6.53   440.5    8.6      46.529
2014   10       15     0   6    6.53   440.7    8.6      46.604
2014   10       15     0  12    6.54   440.9    8.6      46.678
2014   10       15     0  17    6.55   441.2    8.6      46.753
2014   10       15     0  23    6.55   441.4    8.6      46.827
2014   10       15     0  29    6.56   441.6    8.6      46.901
2014   10       15     0  35    6.56   441.9    8.6      46.975
2014   10       15     0  41    6.57   442.1    8.6      47.050
2014   10       15     0  46    6.57   442.3    8.6      47.123
2014   10       15     0  52    6.58   442.5    8.6      47.197
2014   10       15     0  58    6.59   442.8    8.6      47.269
2014   10       15     1   4    6.59   443.0    8.6      47.342
2014   10       15     1  10    6.60   443.2    8.6      47.414
2014   10       15     1  15    6.60   443.4    8.6      47.486
2014   10       15     1  21    6.61   443.7    8.6      47.557
2014   10       15     1  27    6.61   443.9    8.6      47.628
2014   10       15     1  33    6.62   444.1    8.6      47.698
2014   10       15     1  38    6.62   444.3    8.6      47.768
2014   10       15     1  44    6.63   444.5    8.6      47.837
2014   10       15     1  50    6.64   444.7    8.6      47.905
2014   10       15     1  56    6.64   445.0    8.6      47.974
2014   10       15     2   2    6.65   445.2    8.6      48.043
2014   10       15     2   7    6.65   445.4    8.6      48.112
2014   10       15     2  13    6.66   445.6    8.7      48.181
2014   10       15     2  19    6.66   445.8    8.7      48.251
2014   10       15     2  25    6.67   446.0    8.7      48.321
2014   10       15     2  31    6.67   446.2    8.7      48.391
2014   10       15     2  36    6.68   446.4    8.7      48.464
2014   10       15     2  42    6.69   446.7    8.7      48.538
2014   10       15     2  48    6.69   446.9    8.7      48.615
2014   10       15     2  54    6.70   447.1    8.7      48.694
2014   10       15     3   0    6.70   447.4    8.7      48.776
2014   10       15     3   5    6.71   447.6    8.7      48.859
2014   10       15     3  11    6.71   447.9    8.7      48.942
2014   10       15     3  17    6.72   448.1    8.7      49.027
2014   10       15     3  23    6.73   448.3    8.7      49.112
2014   10       15     3  29    6.73   448.6    8.7      49.198
2014   10       15     3  34    6.74   448.9    8.7      49.284
2014   10       15     3  40    6.74   449.1    8.7      49.370
2014   10       15     3  46    6.75   449.4    8.7      49.457
2014   10       15     3  52    6.75   449.7    8.7      49.544
2014   10       15     3  57    6.76   450.0    8.7      49.632
2014   10       15     4   3    6.76   450.2    8.7      49.718
2014   10       15     4   9    6.76   450.5    8.7      49.803
2014   10       15     4  15    6.77   450.8    8.7      49.888
2014   10       15     4  21    6.77   451.1    8.7      49.971
2014   10       15     4  26    6.78   451.4    8.7      50.054
2014   10       15     4  32    6.78   451.7    8.7      50.136
2014   10       15     4  38    6.79   452.0    8.7      50.217
2014   10       15     4  44    6.79   452.2    8.7      50.297
2014   10       15     4  50    6.80   452.5    8.7      50.377
2014   10       15     4  55    6.80   452.8    8.7      50.456
2014   10       15     5   1    6.80   453.1    8.7      50.535
2014   10       15     5   7    6.81   453.4    8.7      50.614
2014   10       15     5  13    6.81   453.7    8.7      50.692
2014   10       15     5  18    6.82   454.0    8.7      50.771
2014   10       15     5  24    6.82   454.3    8.7      50.849
2014   10       15     5  30    6.82   454.6    8.7      50.928
2014   10       15     5  36    6.83   454.8    8.7      51.006
2014   10       15     5  42    6.83   455.1    8.7      51.085
2014   10       15     5  47    6.84   455.4    8.7      51.164
2014   10       15     5  53    6.84   455.7    8.7      51.244
2014   10       15     5  59    6.85   456.0    8.7      51.325
2014   10       15     6   5    6.85   456.3    8.7      51.407
2014   10       15     6  11    6.85   456.6    8.7      51.490
2014   10       15     6  16    6.86   456.9    8.7      51.575
2014   10       15     6  22    6.86   457.2    8.7      51.661
2014   10       15     6  28    6.87   457.5    8.7      51.752
2014   10       15     6  34    6.88   457.8    8.7      51.846
2014   10       15     6  39    6.88   458.1    8.7      51.945
2014   10       15     6  45    6.89   458.4    8.7      52.047
2014   10       15     6  51    6.89   458.7    8.7      52.151
2014   10       15     6  57    6.90   459.1    8.7      52.260
2014   10       15     7   3    6.91   459.4    8.7      52.375
2014   10       15     7   8    6.91   459.8    8.7      52.496
2014   10       15     7  14    6.92   460.2    8.7      52.622
2014   10       15     7  20    6.93   460.5    8.7      52.752
2014   10       15     7  26    6.93   461.0    8.7      52.888
2014   10       15     7  32    6.94   461.4    8.7      53.024
2014   10       15     7  37    6.94   461.8    8.7      53.157
2014   10       15     7  43    6.95   462.2    8.7      53.286
2014   10       15     7  49    6.95   462.6    8.7      53.410
2014   10       15     7  55    6.96   462.9    8.7      53.530
2014   10       15     8   0    6.96   463.3    8.7      53.645
2014   10       15     8   6    6.97   463.7    8.7      53.756
2014   10       15     8  12    6.97   464.1    8.7      53.862
2014   10       15     8  18    6.97   464.5    8.7      53.964
2014   10       15     8  24    6.98   464.8    8.7      54.061
2014   10       15     8  29    6.98   465.2    8.7      54.155
2014   10       15     8  35    6.98   465.5    8.6      54.246
2014   10       15     8  41    6.98   465.9    8.6      54.334
2014   10       15     8  47    6.99   466.2    8.6      54.419
2014   10       15     8  53    6.99   466.6    8.6      54.502
2014   10       15     8  58    6.99   466.9    8.6      54.583
2014   10       15     9   4    6.99   467.2    8.6      54.661
2014   10       15     9  10    7.00   467.5    8.6      54.738
2014   10       15     9  16    7.00   467.8    8.6      54.813
2014   10       15     9  22    7.00   468.1    8.6      54.888
2014   10       15     9  27    7.00   468.4    8.6      54.962
2014   10       15     9  33    7.01   468.7    8.6      55.035
2014   10       15     9  39    7.01   469.0    8.6      55.108
2014   10       15     9  45    7.01   469.3    8.6      55.180
2014   10       15     9  50    7.01   469.6    8.5      55.251
2014   10       15     9  56    7.02   469.9    8.5      55.321
2014   10       15    10   2    7.02   470.2    8.5      55.391
2014   10       15    10   8    7.02   470.5    8.5      55.461
2014   10       15    10  14    7.03   470.8    8.5      55.529
2014   10       15    10  19    7.03   471.1    8.5      55.597
2014   10       15    10  25    7.03   471.4    8.5      55.664
2014   10       15    10  31    7.03   471.8    8.5      55.730
2014   10       15    10  37    7.04   472.1    8.5      55.795
2014   10       15    10  43    7.04   472.4    8.5      55.859
2014   10       15    10  48    7.04   472.8    8.5      55.921
2014   10       15    10  54    7.04   473.1    8.5      55.982
2014   10       15    11   0    7.05   473.4    8.4      56.040
2014   10       15    11   6    7.05   473.8    8.4      56.097
2014   10       15    11  12    7.05   474.1    8.4      56.153
2014   10       15    11  17    7.05   474.5    8.4      56.208
2014   10       15    11  23    7.06   474.9    8.4      56.260
2014   10       15    11  29    7.06   475.2    8.4      56.310
2014   10       15    11  35    7.06   475.6    8.4      56.358
2014   10       15    11  40    7.06   476.0    8.4      56.405
2014   10       15    11  46    7.06   476.4    8.4      56.453
2014   10       15    11  52    7.06   476.8    8.3      56.502
2014   10       15    11  58    7.07   477.2    8.3      56.547
2014   10       15    12   4    7.07   477.6    8.3      56.590
2014   10       15    12   9    7.07   478.0    8.3      56.632
2014   10       15    12  15    7.07   478.3    8.3      56.672
2014   10       15    12  21    7.07   478.7    8.3      56.708
2014   10       15    12  27    7.07   479.0    8.3      56.740
2014   10       15    12  33    7.07   479.3    8.2      56.771
2014   10       15    12  38    7.07   479.6    8.2      56.805
2014   10       15    12  44    7.07   479.9    8.2      56.839
2014   10       15    12  50    7.07   480.2    8.2      56.876
2014   10       15    12  56    7.08   480.4    8.2      56.917
2014   10       15    13   1    7.08   480.7    8.2      56.964
2014   10       15    13   7    7.08   481.0    8.2      57.018
2014   10       15    13  13    7.08   481.3    8.2      57.079
2014   10       15    13  19    7.08   481.6    8.2      57.147
2014   10       15    13  25    7.09   482.0    8.2      57.222
2014   10       15    13  30    7.09   482.4    8.2      57.308
2014   10       15    13  36    7.09   482.8    8.2      57.405
2014   10       15    13  42    7.09   483.2    8.2      57.512
2014   10       15    13  48    7.10   483.6    8.2      57.628
2014   10       15    13  54    7.10   484.0    8.2      57.752
2014   10       15    13  59    7.10   484.5    8.2      57.882
2014   10       15    14   5    7.11   484.9    8.1      58.016
2014   10       15    14  11    7.11   485.3    8.1      58.148
2014   10       15    14  17    7.11   485.7    8.1      58.283
2014   10       15    14  22    7.11   486.2    8.1      58.420
2014   10       15    14  28    7.12   486.6    8.1      58.559
2014   10       15    14  34    7.12   487.0    8.1      58.702
2014   10       15    14  40    7.12   487.5    8.1      58.848
2014   10       15    14  46    7.12   488.0    8.1      58.997
2014   10       15    14  51    7.12   488.5    8.1      59.141
2014   10       15    14  57    7.12   488.9    8.1      59.280
2014   10       15    15   3    7.12   489.4    8.1      59.414
2014   10       15    15   9    7.12   489.9    8.1      59.543
2014   10       15    15  15    7.12   490.4    8.1      59.665
2014   10       15    15  20    7.12   490.9    8.1      59.782
2014   10       15    15  26    7.12   491.4    8.1      59.893
2014   10       15    15  32    7.12   491.9    8.0      59.998
2014   10       15    15  38    7.12   492.4    8.0      60.098
2014   10       15    15  43    7.11   492.8    8.0      60.192
2014   10       15    15  49    7.11   493.3    8.0      60.281
2014   10       15    15  55    7.11   493.8    8.0      60.365
2014   10       15    16   1    7.11   494.3    8.0      60.445
2014   10       15    16   7    7.10   494.7    8.0      60.522
2014   10       15    16  12    7.10   495.2    7.9      60.595
2014   10       15    16  18    7.10   495.6    7.9      60.665
2014   10       15    16  24    7.10   496.1    7.9      60.733
2014   10       15    16  30    7.10   496.6    7.9      60.798
2014   10       15    16  36    7.09   497.1    7.9      60.861
2014   10       15    16  41    7.09   497.5    7.8      60.923
2014   10       15    16  47    7.09   498.0    7.8      60.983
2014   10       15    16  53    7.09   498.5    7.8      61.041
2014   10       15    16  59    7.08   499.0    7.8      61.099
2014   10       15    17   5    7.08   499.5    7.8      61.156
2014   10       15    17  10    7.08   500.0    7.7      61.211
2014   10       15    17  16    7.07   500.5    7.7      61.263
2014   10       15    17  22    7.07   501.0    7.7      61.310
2014   10       15    17  28    7.07   501.5    7.7      61.354
2014   10       15    17  34    7.06   502.0    7.7      61.391
2014   10       15    17  39    7.06   502.5    7.6      61.425
2014   10       15    17  45    7.05   503.0    7.6      61.453
2014   10       15    17  51    7.05   503.5    7.6      61.471
2014   10       15    17  57    7.04   503.9    7.5      61.481
2014   10       15    18   2    7.04   504.4    7.5      61.485
2014   10       15    18   8    7.03   504.8    7.5      61.484
2014   10       15    18  14    7.03   505.3    7.5      61.478
2014   10       15    18  20    7.02   505.7    7.4      61.465
2014   10       15    18  26    7.02   506.1    7.4      61.452
2014   10       15    18  31    7.01   506.5    7.4      61.441
2014   10       15    18  37    7.00   506.9    7.3      61.431
2014   10       15    18  43    7.00   507.3    7.3      61.421
2014   10       15    18  49    6.99   507.8    7.3      61.410
2014   10       15    18  55    6.98   508.2    7.3      61.400
2014   10       15    19   0    6.98   508.7    7.2      61.395
2014   10       15    19   6    6.97   509.2    7.2      61.392
2014   10       15    19  12    6.97   509.6    7.2      61.388
2014   10       15    19  18    6.96   510.1    7.2      61.382
2014   10       15    19  23    6.95   510.5    7.1      61.375
2014   10       15    19  29    6.95   511.0    7.1      61.368
2014   10       15    19  35    6.94   511.4    7.1      61.357
2014   10       15    19  41    6.93   511.7    7.1      61.341
2014   10       15    19  47    6.93   512.0    7.0      61.321
2014   10       15    19  52    6.92   512.4    7.0      61.304
2014   10       15    19  58    6.91   512.7    7.0      61.292
2014   10       15    20   4    6.91   513.0    7.0      61.281
2014   10       15    20  10    6.90   513.3    7.0      61.273
2014   10       15    20  16    6.90   513.6    6.9      61.270
2014   10       15    20  21    6.89   513.8    6.9      61.275
2014   10       15    20  27    6.88   514.2    6.9      61.288
2014   10       15    20  33    6.88   514.5    6.9      61.310
2014   10       15    20  39    6.87   514.8    6.9      61.338
2014   10       15    20  44    6.87   515.2    6.9      61.374
2014   10       15    20  50    6.86   515.6    6.8      61.421
2014   10       15    20  56    6.86   516.0    6.8      61.480
2014   10       15    21   2    6.85   516.5    6.8      61.547
2014   10       15    21   8    6.85   516.9    6.8      61.620
2014   10       15    21  13    6.84   517.4    6.8      61.696
2014   10       15    21  19    6.83   517.8    6.8      61.777
2014   10       15    21  25    6.83   518.3    6.8      61.860
2014   10       15    21  31    6.82   518.7    6.7      61.935
2014   10       15    21  37    6.81   519.2    6.7      62.002
2014   10       15    21  42    6.81   519.6    6.7      62.062
2014   10       15    21  48    6.80   520.0    6.7      62.117
2014   10       15    21  54    6.79   520.4    6.7      62.166
2014   10       15    22   0    6.78   520.8    6.6      62.210
2014   10       15    22   5    6.77   521.1    6.6      62.248
2014   10       15    22  11    6.77   521.5    6.6      62.281
2014   10       15    22  17    6.76   521.9    6.6      62.309
2014   10       15    22  23    6.75   522.2    6.6      62.332
2014   10       15    22  29    6.74   522.6    6.5      62.350
2014   10       15    22  34    6.73   522.9    6.5      62.366
2014   10       15    22  40    6.72   523.3    6.5      62.380
2014   10       15    22  46    6.71   523.6    6.5      62.393
2014   10       15    22  52    6.70   524.0    6.5      62.405
2014   10       15    22  58    6.70   524.4    6.4      62.416
2014   10       15    23   3    6.69   524.7    6.4      62.424
2014   10       15    23   9    6.68   525.1    6.4      62.431
2014   10       15    23  15    6.67   525.4    6.4      62.436
2014   10       15    23  21    6.66   525.8    6.4      62.439
2014   10       15    23  27    6.65   526.2    6.4      62.442
2014   10       15    23  32    6.65   526.5    6.3      62.444
2014   10       15    23  38    6.64   526.9    6.3      62.445
2014   10       15    23  44    6.63   527.3    6.3      62.445
2014   10       15    23  50    6.62   527.7    6.3      62.444
2014   10       15    23  55    6.61   528.0    6.3      62.443
2014   10       16     0   1    6.60   528.4    6.2      62.441
