year    month   day   hour  minute  B_enl V_enl   n_enl       T_enl
[year] [month] [day] [hour][minute] [nT]  [km/s]  [cm-3]      [kK]
2014   10       28     0   4    3.70   434.9    4.4      40.177
2014   10       28     0  10    3.70   434.7    4.4      40.163
2014   10       28     0  15    3.70   434.5    4.4      40.150
2014   10       28     0  21    3.70   434.3    4.5      40.136
2014   10       28     0  26    3.70   434.1    4.5      40.122
2014   10       28     0  31    3.70   433.9    4.5      40.109
2014   10       28     0  37    3.70   433.7    4.5      40.095
2014   10       28     0  42    3.70   433.5    4.5      40.081
2014   10       28     0  48    3.70   433.3    4.5      40.068
2014   10       28     0  53    3.70   433.0    4.5      40.054
2014   10       28     0  59    3.70   432.8    4.5      40.040
2014   10       28     1   4    3.70   432.6    4.5      40.026
2014   10       28     1  10    3.70   432.4    4.5      40.013
2014   10       28     1  15    3.70   432.2    4.5      39.999
2014   10       28     1  21    3.70   432.0    4.5      39.985
2014   10       28     1  26    3.70   431.8    4.5      39.971
2014   10       28     1  32    3.70   431.6    4.5      39.957
2014   10       28     1  37    3.70   431.4    4.5      39.943
2014   10       28     1  43    3.70   431.2    4.5      39.929
2014   10       28     1  48    3.70   431.0    4.5      39.915
2014   10       28     1  53    3.70   430.8    4.5      39.901
2014   10       28     1  59    3.70   430.6    4.5      39.886
2014   10       28     2   4    3.70   430.4    4.5      39.872
2014   10       28     2  10    3.70   430.2    4.5      39.858
2014   10       28     2  15    3.70   430.0    4.6      39.844
2014   10       28     2  21    3.70   429.8    4.6      39.829
2014   10       28     2  26    3.71   429.6    4.6      39.815
2014   10       28     2  32    3.71   429.4    4.6      39.800
2014   10       28     2  37    3.71   429.2    4.6      39.786
2014   10       28     2  43    3.71   429.0    4.6      39.772
2014   10       28     2  48    3.71   428.7    4.6      39.757
2014   10       28     2  54    3.71   428.5    4.6      39.742
2014   10       28     2  59    3.71   428.3    4.6      39.728
2014   10       28     3   5    3.71   428.1    4.6      39.713
2014   10       28     3  10    3.71   427.9    4.6      39.698
2014   10       28     3  16    3.71   427.7    4.6      39.684
2014   10       28     3  21    3.71   427.5    4.6      39.669
2014   10       28     3  26    3.71   427.3    4.6      39.654
2014   10       28     3  32    3.71   427.1    4.6      39.639
2014   10       28     3  37    3.71   426.9    4.6      39.624
2014   10       28     3  43    3.71   426.7    4.6      39.609
2014   10       28     3  48    3.71   426.5    4.6      39.594
2014   10       28     3  54    3.71   426.3    4.6      39.579
2014   10       28     3  59    3.71   426.1    4.6      39.564
2014   10       28     4   5    3.71   425.9    4.6      39.549
2014   10       28     4  10    3.71   425.7    4.6      39.534
2014   10       28     4  16    3.71   425.5    4.7      39.519
2014   10       28     4  21    3.71   425.3    4.7      39.504
2014   10       28     4  27    3.71   425.1    4.7      39.488
2014   10       28     4  32    3.71   424.9    4.7      39.473
2014   10       28     4  38    3.72   424.7    4.7      39.458
2014   10       28     4  43    3.72   424.5    4.7      39.443
2014   10       28     4  49    3.72   424.3    4.7      39.428
2014   10       28     4  54    3.72   424.1    4.7      39.412
2014   10       28     5   0    3.72   423.9    4.7      39.397
2014   10       28     5   5    3.72   423.7    4.7      39.382
2014   10       28     5  11    3.72   423.5    4.7      39.367
2014   10       28     5  16    3.72   423.3    4.7      39.351
2014   10       28     5  22    3.72   423.1    4.7      39.336
2014   10       28     5  27    3.72   422.9    4.7      39.321
2014   10       28     5  32    3.72   422.7    4.7      39.305
2014   10       28     5  38    3.72   422.5    4.7      39.290
2014   10       28     5  43    3.72   422.3    4.7      39.275
2014   10       28     5  49    3.72   422.1    4.7      39.259
2014   10       28     5  54    3.72   421.9    4.7      39.244
2014   10       28     6   0    3.72   421.7    4.7      39.228
2014   10       28     6   5    3.73   421.5    4.7      39.213
2014   10       28     6  11    3.73   421.3    4.7      39.198
2014   10       28     6  16    3.73   421.1    4.7      39.182
2014   10       28     6  22    3.73   420.9    4.8      39.167
2014   10       28     6  27    3.73   420.7    4.8      39.151
2014   10       28     6  33    3.73   420.5    4.8      39.136
2014   10       28     6  38    3.73   420.3    4.8      39.120
2014   10       28     6  44    3.73   420.1    4.8      39.105
2014   10       28     6  49    3.73   419.9    4.8      39.089
2014   10       28     6  55    3.73   419.7    4.8      39.074
2014   10       28     7   0    3.73   419.5    4.8      39.058
2014   10       28     7   5    3.73   419.3    4.8      39.042
2014   10       28     7  11    3.73   419.1    4.8      39.026
2014   10       28     7  16    3.73   418.9    4.8      39.011
2014   10       28     7  22    3.73   418.7    4.8      38.995
2014   10       28     7  27    3.73   418.5    4.8      38.979
2014   10       28     7  33    3.74   418.3    4.8      38.963
2014   10       28     7  38    3.74   418.1    4.8      38.947
2014   10       28     7  44    3.74   417.9    4.8      38.931
2014   10       28     7  49    3.74   417.7    4.8      38.915
2014   10       28     7  55    3.74   417.5    4.8      38.899
2014   10       28     8   0    3.74   417.3    4.8      38.882
2014   10       28     8   6    3.74   417.1    4.8      38.866
2014   10       28     8  11    3.74   416.9    4.8      38.850
2014   10       28     8  17    3.74   416.7    4.8      38.834
2014   10       28     8  22    3.74   416.5    4.8      38.817
2014   10       28     8  27    3.74   416.3    4.9      38.801
2014   10       28     8  33    3.74   416.1    4.9      38.785
2014   10       28     8  38    3.74   415.9    4.9      38.768
2014   10       28     8  44    3.74   415.7    4.9      38.752
2014   10       28     8  49    3.74   415.5    4.9      38.735
2014   10       28     8  55    3.74   415.3    4.9      38.719
2014   10       28     9   0    3.74   415.1    4.9      38.702
2014   10       28     9   6    3.74   414.9    4.9      38.686
2014   10       28     9  11    3.75   414.7    4.9      38.670
2014   10       28     9  17    3.75   414.5    4.9      38.653
2014   10       28     9  22    3.75   414.3    4.9      38.637
2014   10       28     9  28    3.75   414.1    4.9      38.620
2014   10       28     9  33    3.75   413.9    4.9      38.604
2014   10       28     9  39    3.75   413.7    4.9      38.588
2014   10       28     9  44    3.75   413.5    4.9      38.572
2014   10       28     9  50    3.75   413.3    4.9      38.555
2014   10       28     9  55    3.75   413.1    4.9      38.539
2014   10       28    10   0    3.75   412.9    4.9      38.523
2014   10       28    10   6    3.75   412.7    4.9      38.507
2014   10       28    10  11    3.75   412.5    4.9      38.491
2014   10       28    10  17    3.75   412.3    4.9      38.475
2014   10       28    10  22    3.75   412.1    4.9      38.459
2014   10       28    10  28    3.75   411.9    5.0      38.444
2014   10       28    10  33    3.75   411.7    5.0      38.428
2014   10       28    10  39    3.75   411.5    5.0      38.412
2014   10       28    10  44    3.76   411.3    5.0      38.397
2014   10       28    10  50    3.76   411.1    5.0      38.381
2014   10       28    10  55    3.76   410.9    5.0      38.366
2014   10       28    11   1    3.76   410.7    5.0      38.351
2014   10       28    11   6    3.76   410.5    5.0      38.335
2014   10       28    11  12    3.76   410.3    5.0      38.320
2014   10       28    11  17    3.76   410.1    5.0      38.305
2014   10       28    11  23    3.76   409.9    5.0      38.290
2014   10       28    11  28    3.76   409.7    5.0      38.275
2014   10       28    11  34    3.76   409.5    5.0      38.261
2014   10       28    11  39    3.76   409.4    5.0      38.246
2014   10       28    11  45    3.76   409.2    5.0      38.231
2014   10       28    11  50    3.76   409.0    5.0      38.217
2014   10       28    11  55    3.77   408.8    5.0      38.202
2014   10       28    12   1    3.77   408.6    5.0      38.188
2014   10       28    12   6    3.77   408.4    5.0      38.173
2014   10       28    12  12    3.77   408.2    5.1      38.159
2014   10       28    12  17    3.77   408.0    5.1      38.145
2014   10       28    12  23    3.77   407.8    5.1      38.131
2014   10       28    12  28    3.77   407.6    5.1      38.117
2014   10       28    12  34    3.77   407.4    5.1      38.102
2014   10       28    12  39    3.77   407.2    5.1      38.089
2014   10       28    12  45    3.77   407.0    5.1      38.075
2014   10       28    12  50    3.78   406.8    5.1      38.061
2014   10       28    12  56    3.78   406.6    5.1      38.047
2014   10       28    13   1    3.78   406.5    5.1      38.033
2014   10       28    13   7    3.78   406.3    5.1      38.019
2014   10       28    13  12    3.78   406.1    5.1      38.005
2014   10       28    13  18    3.78   405.9    5.1      37.992
2014   10       28    13  23    3.78   405.7    5.1      37.978
2014   10       28    13  29    3.78   405.5    5.1      37.964
2014   10       28    13  34    3.78   405.3    5.1      37.951
2014   10       28    13  39    3.79   405.1    5.1      37.937
2014   10       28    13  45    3.79   404.9    5.1      37.923
2014   10       28    13  50    3.79   404.7    5.2      37.909
2014   10       28    13  56    3.79   404.5    5.2      37.896
2014   10       28    14   1    3.79   404.4    5.2      37.882
2014   10       28    14   7    3.79   404.2    5.2      37.868
2014   10       28    14  12    3.79   404.0    5.2      37.854
2014   10       28    14  18    3.79   403.8    5.2      37.840
2014   10       28    14  23    3.80   403.6    5.2      37.827
2014   10       28    14  29    3.80   403.4    5.2      37.813
2014   10       28    14  34    3.80   403.2    5.2      37.799
2014   10       28    14  40    3.80   403.0    5.2      37.785
2014   10       28    14  45    3.80   402.8    5.2      37.771
2014   10       28    14  51    3.80   402.6    5.2      37.757
2014   10       28    14  56    3.80   402.4    5.2      37.743
2014   10       28    15   2    3.80   402.3    5.2      37.728
2014   10       28    15   7    3.81   402.1    5.2      37.714
2014   10       28    15  12    3.81   401.9    5.2      37.700
2014   10       28    15  18    3.81   401.7    5.2      37.686
2014   10       28    15  23    3.81   401.5    5.2      37.671
2014   10       28    15  29    3.81   401.3    5.3      37.657
2014   10       28    15  34    3.81   401.1    5.3      37.642
2014   10       28    15  40    3.81   400.9    5.3      37.628
2014   10       28    15  45    3.81   400.7    5.3      37.613
2014   10       28    15  51    3.82   400.5    5.3      37.599
2014   10       28    15  56    3.82   400.3    5.3      37.584
2014   10       28    16   2    3.82   400.1    5.3      37.569
2014   10       28    16   7    3.82   399.9    5.3      37.554
2014   10       28    16  13    3.82   399.8    5.3      37.539
2014   10       28    16  18    3.82   399.6    5.3      37.524
2014   10       28    16  24    3.82   399.4    5.3      37.509
2014   10       28    16  29    3.82   399.2    5.3      37.494
2014   10       28    16  34    3.83   399.0    5.3      37.479
2014   10       28    16  40    3.83   398.8    5.3      37.464
2014   10       28    16  45    3.83   398.6    5.3      37.449
2014   10       28    16  51    3.83   398.4    5.3      37.434
2014   10       28    16  56    3.83   398.2    5.3      37.418
2014   10       28    17   2    3.83   398.0    5.4      37.403
2014   10       28    17   7    3.83   397.8    5.4      37.388
2014   10       28    17  13    3.84   397.6    5.4      37.372
2014   10       28    17  18    3.84   397.4    5.4      37.357
2014   10       28    17  24    3.84   397.2    5.4      37.342
2014   10       28    17  29    3.84   397.1    5.4      37.326
2014   10       28    17  35    3.84   396.9    5.4      37.311
2014   10       28    17  40    3.84   396.7    5.4      37.295
2014   10       28    17  46    3.84   396.5    5.4      37.280
2014   10       28    17  51    3.84   396.3    5.4      37.264
2014   10       28    17  57    3.85   396.1    5.4      37.249
2014   10       28    18   2    3.85   395.9    5.4      37.233
2014   10       28    18   7    3.85   395.7    5.4      37.218
2014   10       28    18  13    3.85   395.5    5.4      37.203
2014   10       28    18  18    3.85   395.3    5.4      37.187
2014   10       28    18  24    3.85   395.1    5.4      37.172
2014   10       28    18  29    3.86   394.9    5.4      37.157
2014   10       28    18  35    3.86   394.7    5.5      37.141
2014   10       28    18  40    3.86   394.6    5.5      37.126
2014   10       28    18  46    3.86   394.4    5.5      37.111
2014   10       28    18  51    3.86   394.2    5.5      37.096
2014   10       28    18  57    3.86   394.0    5.5      37.081
2014   10       28    19   2    3.86   393.8    5.5      37.065
2014   10       28    19   8    3.87   393.6    5.5      37.050
2014   10       28    19  13    3.87   393.4    5.5      37.035
2014   10       28    19  19    3.87   393.2    5.5      37.020
2014   10       28    19  24    3.87   393.0    5.5      37.006
2014   10       28    19  30    3.87   392.8    5.5      36.991
2014   10       28    19  35    3.88   392.7    5.5      36.976
2014   10       28    19  41    3.88   392.5    5.5      36.962
2014   10       28    19  46    3.88   392.3    5.5      36.947
2014   10       28    19  52    3.88   392.1    5.5      36.932
2014   10       28    19  57    3.88   391.9    5.5      36.918
2014   10       28    20   3    3.88   391.7    5.6      36.904
2014   10       28    20   8    3.89   391.5    5.6      36.889
2014   10       28    20  13    3.89   391.3    5.6      36.875
2014   10       28    20  19    3.89   391.2    5.6      36.861
2014   10       28    20  24    3.89   391.0    5.6      36.846
2014   10       28    20  30    3.89   390.8    5.6      36.833
2014   10       28    20  35    3.90   390.6    5.6      36.819
2014   10       28    20  41    3.90   390.4    5.6      36.805
2014   10       28    20  46    3.90   390.2    5.6      36.791
2014   10       28    20  52    3.90   390.0    5.6      36.777
2014   10       28    20  57    3.90   389.8    5.6      36.763
2014   10       28    21   3    3.91   389.7    5.6      36.750
2014   10       28    21   8    3.91   389.5    5.6      36.736
2014   10       28    21  14    3.91   389.3    5.6      36.723
2014   10       28    21  19    3.91   389.1    5.6      36.710
2014   10       28    21  25    3.91   388.9    5.7      36.696
2014   10       28    21  30    3.92   388.7    5.7      36.683
2014   10       28    21  36    3.92   388.5    5.7      36.670
2014   10       28    21  41    3.92   388.4    5.7      36.657
2014   10       28    21  47    3.92   388.2    5.7      36.644
2014   10       28    21  52    3.93   388.0    5.7      36.632
2014   10       28    21  57    3.93   387.8    5.7      36.619
2014   10       28    22   3    3.93   387.6    5.7      36.606
2014   10       28    22   8    3.93   387.4    5.7      36.594
2014   10       28    22  14    3.94   387.3    5.7      36.581
2014   10       28    22  19    3.94   387.1    5.7      36.569
2014   10       28    22  25    3.94   386.9    5.7      36.557
2014   10       28    22  30    3.94   386.7    5.7      36.545
2014   10       28    22  36    3.94   386.5    5.7      36.533
2014   10       28    22  41    3.95   386.4    5.8      36.521
2014   10       28    22  47    3.95   386.2    5.8      36.509
2014   10       28    22  52    3.95   386.0    5.8      36.497
2014   10       28    22  58    3.95   385.8    5.8      36.486
2014   10       28    23   3    3.96   385.6    5.8      36.474
2014   10       28    23   8    3.96   385.4    5.8      36.463
2014   10       28    23  14    3.96   385.3    5.8      36.451
2014   10       28    23  19    3.97   385.1    5.8      36.440
2014   10       28    23  25    3.97   384.9    5.8      36.429
2014   10       28    23  30    3.97   384.7    5.8      36.418
2014   10       28    23  36    3.97   384.5    5.8      36.407
2014   10       28    23  41    3.98   384.4    5.8      36.396
2014   10       28    23  47    3.98   384.2    5.9      36.385
2014   10       28    23  52    3.98   384.0    5.9      36.374
2014   10       28    23  58    3.98   383.8    5.9      36.363
2014   10       29     0   3    3.99   383.6    5.9      36.352
2014   10       29     0   9    3.99   383.5    5.9      36.342
2014   10       29     0  14    3.99   383.3    5.9      36.331
2014   10       29     0  20    4.00   383.1    5.9      36.320
2014   10       29     0  25    4.00   382.9    5.9      36.310
2014   10       29     0  31    4.00   382.8    5.9      36.299
2014   10       29     0  36    4.00   382.6    5.9      36.289
2014   10       29     0  41    4.01   382.4    5.9      36.279
2014   10       29     0  47    4.01   382.2    5.9      36.268
2014   10       29     0  52    4.01   382.0    5.9      36.258
2014   10       29     0  58    4.02   381.9    6.0      36.248
2014   10       29     1   3    4.02   381.7    6.0      36.237
2014   10       29     1   9    4.02   381.5    6.0      36.227
2014   10       29     1  14    4.02   381.3    6.0      36.217
2014   10       29     1  20    4.03   381.2    6.0      36.206
2014   10       29     1  25    4.03   381.0    6.0      36.196
2014   10       29     1  31    4.03   380.8    6.0      36.186
2014   10       29     1  36    4.04   380.6    6.0      36.176
2014   10       29     1  42    4.04   380.5    6.0      36.166
2014   10       29     1  47    4.04   380.3    6.0      36.156
2014   10       29     1  53    4.05   380.1    6.0      36.146
2014   10       29     1  58    4.05   379.9    6.0      36.136
2014   10       29     2   4    4.05   379.8    6.1      36.126
2014   10       29     2   9    4.05   379.6    6.1      36.116
2014   10       29     2  15    4.06   379.4    6.1      36.106
2014   10       29     2  20    4.06   379.2    6.1      36.096
2014   10       29     2  26    4.06   379.1    6.1      36.086
2014   10       29     2  31    4.07   378.9    6.1      36.076
2014   10       29     2  36    4.07   378.7    6.1      36.066
2014   10       29     2  42    4.07   378.6    6.1      36.056
2014   10       29     2  47    4.08   378.4    6.1      36.047
2014   10       29     2  53    4.08   378.2    6.1      36.037
2014   10       29     2  58    4.08   378.0    6.1      36.027
2014   10       29     3   4    4.09   377.9    6.2      36.017
2014   10       29     3   9    4.09   377.7    6.2      36.008
2014   10       29     3  15    4.09   377.5    6.2      35.998
2014   10       29     3  20    4.10   377.4    6.2      35.989
2014   10       29     3  26    4.10   377.2    6.2      35.979
2014   10       29     3  31    4.10   377.0    6.2      35.969
2014   10       29     3  37    4.11   376.9    6.2      35.960
2014   10       29     3  42    4.11   376.7    6.2      35.951
2014   10       29     3  48    4.11   376.5    6.2      35.941
2014   10       29     3  53    4.12   376.4    6.2      35.932
2014   10       29     3  59    4.12   376.2    6.2      35.923
2014   10       29     4   4    4.13   376.0    6.3      35.914
2014   10       29     4  10    4.13   375.9    6.3      35.905
2014   10       29     4  15    4.13   375.7    6.3      35.896
2014   10       29     4  21    4.14   375.5    6.3      35.887
2014   10       29     4  26    4.14   375.4    6.3      35.878
2014   10       29     4  31    4.14   375.2    6.3      35.869
2014   10       29     4  37    4.15   375.0    6.3      35.860
2014   10       29     4  42    4.15   374.9    6.3      35.852
2014   10       29     4  48    4.15   374.7    6.3      35.843
2014   10       29     4  53    4.16   374.5    6.3      35.834
2014   10       29     4  59    4.16   374.4    6.3      35.826
2014   10       29     5   4    4.17   374.2    6.4      35.818
2014   10       29     5  10    4.17   374.1    6.4      35.810
2014   10       29     5  15    4.17   373.9    6.4      35.801
2014   10       29     5  21    4.18   373.7    6.4      35.794
2014   10       29     5  26    4.18   373.6    6.4      35.786
2014   10       29     5  32    4.19   373.4    6.4      35.778
2014   10       29     5  37    4.19   373.3    6.4      35.770
2014   10       29     5  43    4.19   373.1    6.4      35.763
2014   10       29     5  48    4.20   372.9    6.4      35.756
2014   10       29     5  53    4.20   372.8    6.4      35.749
2014   10       29     5  59    4.21   372.6    6.5      35.742
2014   10       29     6   4    4.21   372.5    6.5      35.735
2014   10       29     6  10    4.22   372.3    6.5      35.728
2014   10       29     6  15    4.22   372.2    6.5      35.722
2014   10       29     6  21    4.22   372.0    6.5      35.716
2014   10       29     6  26    4.23   371.8    6.5      35.710
2014   10       29     6  32    4.23   371.7    6.5      35.705
2014   10       29     6  37    4.24   371.5    6.5      35.699
2014   10       29     6  43    4.24   371.4    6.5      35.694
2014   10       29     6  48    4.25   371.2    6.5      35.689
2014   10       29     6  54    4.25   371.1    6.6      35.684
2014   10       29     6  59    4.26   370.9    6.6      35.680
2014   10       29     7   4    4.26   370.8    6.6      35.676
2014   10       29     7  10    4.26   370.6    6.6      35.672
2014   10       29     7  15    4.27   370.5    6.6      35.669
2014   10       29     7  21    4.27   370.3    6.6      35.665
2014   10       29     7  26    4.28   370.2    6.6      35.662
2014   10       29     7  32    4.28   370.0    6.6      35.660
2014   10       29     7  37    4.29   369.9    6.6      35.657
2014   10       29     7  43    4.29   369.8    6.7      35.655
2014   10       29     7  48    4.30   369.6    6.7      35.653
2014   10       29     7  54    4.30   369.5    6.7      35.651
2014   10       29     7  59    4.31   369.3    6.7      35.650
2014   10       29     8   4    4.31   369.2    6.7      35.648
2014   10       29     8  10    4.32   369.0    6.7      35.647
2014   10       29     8  15    4.32   368.9    6.7      35.646
2014   10       29     8  21    4.33   368.8    6.7      35.646
2014   10       29     8  26    4.33   368.6    6.8      35.645
2014   10       29     8  32    4.34   368.5    6.8      35.645
2014   10       29     8  37    4.34   368.3    6.8      35.645
2014   10       29     8  43    4.35   368.2    6.8      35.645
2014   10       29     8  48    4.35   368.1    6.8      35.645
2014   10       29     8  53    4.36   367.9    6.8      35.646
2014   10       29     8  59    4.36   367.8    6.8      35.646
2014   10       29     9   4    4.37   367.7    6.8      35.647
2014   10       29     9  10    4.38   367.5    6.9      35.648
2014   10       29     9  15    4.38   367.4    6.9      35.649
2014   10       29     9  21    4.39   367.3    6.9      35.650
2014   10       29     9  26    4.39   367.1    6.9      35.651
2014   10       29     9  31    4.40   367.0    6.9      35.653
2014   10       29     9  37    4.40   366.9    6.9      35.654
2014   10       29     9  42    4.41   366.8    6.9      35.656
2014   10       29     9  48    4.41   366.6    6.9      35.657
2014   10       29     9  53    4.42   366.5    7.0      35.659
2014   10       29     9  58    4.42   366.4    7.0      35.661
2014   10       29    10   4    4.43   366.2    7.0      35.663
2014   10       29    10   9    4.43   366.1    7.0      35.665
2014   10       29    10  15    4.44   366.0    7.0      35.667
2014   10       29    10  20    4.44   365.9    7.0      35.669
2014   10       29    10  25    4.45   365.7    7.0      35.671
2014   10       29    10  31    4.46   365.6    7.0      35.673
2014   10       29    10  36    4.46   365.5    7.0      35.676
2014   10       29    10  42    4.47   365.4    7.1      35.678
2014   10       29    10  47    4.47   365.2    7.1      35.681
2014   10       29    10  53    4.48   365.1    7.1      35.684
2014   10       29    10  58    4.48   365.0    7.1      35.686
2014   10       29    11   3    4.49   364.9    7.1      35.689
2014   10       29    11   9    4.49   364.8    7.1      35.692
2014   10       29    11  14    4.50   364.6    7.1      35.695
2014   10       29    11  20    4.51   364.5    7.1      35.699
2014   10       29    11  25    4.51   364.4    7.2      35.702
2014   10       29    11  31    4.52   364.3    7.2      35.705
2014   10       29    11  36    4.52   364.2    7.2      35.709
2014   10       29    11  42    4.53   364.0    7.2      35.713
2014   10       29    11  47    4.54   363.9    7.2      35.717
2014   10       29    11  52    4.54   363.8    7.2      35.721
2014   10       29    11  58    4.55   363.7    7.2      35.725
2014   10       29    12   3    4.55   363.6    7.2      35.730
2014   10       29    12   9    4.56   363.5    7.3      35.734
2014   10       29    12  14    4.56   363.4    7.3      35.739
2014   10       29    12  20    4.57   363.2    7.3      35.744
2014   10       29    12  25    4.58   363.1    7.3      35.749
2014   10       29    12  31    4.58   363.0    7.3      35.754
2014   10       29    12  36    4.59   362.9    7.3      35.760
2014   10       29    12  42    4.59   362.8    7.3      35.765
2014   10       29    12  47    4.60   362.7    7.3      35.771
2014   10       29    12  53    4.61   362.6    7.4      35.777
2014   10       29    12  58    4.61   362.5    7.4      35.783
2014   10       29    13   3    4.62   362.4    7.4      35.790
2014   10       29    13   9    4.63   362.3    7.4      35.796
2014   10       29    13  14    4.63   362.1    7.4      35.803
2014   10       29    13  20    4.64   362.0    7.4      35.810
2014   10       29    13  25    4.64   361.9    7.4      35.817
2014   10       29    13  31    4.65   361.8    7.4      35.824
2014   10       29    13  36    4.66   361.7    7.5      35.831
2014   10       29    13  42    4.66   361.6    7.5      35.839
2014   10       29    13  47    4.67   361.5    7.5      35.847
2014   10       29    13  53    4.68   361.4    7.5      35.855
2014   10       29    13  58    4.68   361.3    7.5      35.863
2014   10       29    14   4    4.69   361.2    7.5      35.871
2014   10       29    14   9    4.69   361.1    7.5      35.880
2014   10       29    14  15    4.70   361.0    7.5      35.888
2014   10       29    14  20    4.71   360.9    7.6      35.897
2014   10       29    14  25    4.71   360.8    7.6      35.906
2014   10       29    14  31    4.72   360.7    7.6      35.916
2014   10       29    14  36    4.73   360.6    7.6      35.925
2014   10       29    14  42    4.73   360.5    7.6      35.935
2014   10       29    14  47    4.74   360.5    7.6      35.945
2014   10       29    14  53    4.75   360.4    7.6      35.955
2014   10       29    14  58    4.75   360.3    7.7      35.965
2014   10       29    15   4    4.76   360.2    7.7      35.975
2014   10       29    15   9    4.77   360.1    7.7      35.986
2014   10       29    15  15    4.77   360.0    7.7      35.997
2014   10       29    15  20    4.78   359.9    7.7      36.008
2014   10       29    15  25    4.79   359.8    7.7      36.020
2014   10       29    15  31    4.79   359.7    7.7      36.031
2014   10       29    15  36    4.80   359.7    7.8      36.043
2014   10       29    15  42    4.81   359.6    7.8      36.055
2014   10       29    15  47    4.81   359.5    7.8      36.067
2014   10       29    15  53    4.82   359.4    7.8      36.079
2014   10       29    15  58    4.83   359.3    7.8      36.092
2014   10       29    16   4    4.83   359.2    7.8      36.105
2014   10       29    16   9    4.84   359.2    7.8      36.118
2014   10       29    16  14    4.85   359.1    7.9      36.131
2014   10       29    16  20    4.86   359.0    7.9      36.144
2014   10       29    16  25    4.86   358.9    7.9      36.158
2014   10       29    16  31    4.87   358.8    7.9      36.172
2014   10       29    16  36    4.88   358.8    7.9      36.186
2014   10       29    16  41    4.88   358.7    7.9      36.200
2014   10       29    16  47    4.89   358.6    7.9      36.215
2014   10       29    16  52    4.90   358.5    8.0      36.229
2014   10       29    16  58    4.90   358.5    8.0      36.244
2014   10       29    17   3    4.91   358.4    8.0      36.259
2014   10       29    17   9    4.92   358.3    8.0      36.274
2014   10       29    17  14    4.93   358.3    8.0      36.290
2014   10       29    17  19    4.93   358.2    8.0      36.306
2014   10       29    17  25    4.94   358.1    8.1      36.322
2014   10       29    17  30    4.95   358.1    8.1      36.338
2014   10       29    17  36    4.96   358.0    8.1      36.354
2014   10       29    17  41    4.96   357.9    8.1      36.371
2014   10       29    17  46    4.97   357.9    8.1      36.388
2014   10       29    17  52    4.98   357.8    8.1      36.405
2014   10       29    17  57    4.98   357.7    8.1      36.422
2014   10       29    18   3    4.99   357.7    8.2      36.440
2014   10       29    18   8    5.00   357.6    8.2      36.458
2014   10       29    18  13    5.01   357.5    8.2      36.476
2014   10       29    18  19    5.01   357.5    8.2      36.494
2014   10       29    18  24    5.02   357.4    8.2      36.512
2014   10       29    18  30    5.03   357.3    8.2      36.531
2014   10       29    18  35    5.04   357.3    8.3      36.550
2014   10       29    18  41    5.04   357.2    8.3      36.570
2014   10       29    18  46    5.05   357.2    8.3      36.589
2014   10       29    18  52    5.06   357.1    8.3      36.609
2014   10       29    18  57    5.07   357.1    8.3      36.629
2014   10       29    19   3    5.07   357.0    8.3      36.649
2014   10       29    19   8    5.08   356.9    8.3      36.670
2014   10       29    19  13    5.09   356.9    8.4      36.691
2014   10       29    19  19    5.10   356.8    8.4      36.712
2014   10       29    19  24    5.10   356.8    8.4      36.733
2014   10       29    19  30    5.11   356.7    8.4      36.755
2014   10       29    19  35    5.12   356.7    8.4      36.777
2014   10       29    19  41    5.13   356.6    8.4      36.799
2014   10       29    19  46    5.14   356.6    8.5      36.822
2014   10       29    19  52    5.14   356.5    8.5      36.844
2014   10       29    19  57    5.15   356.5    8.5      36.867
2014   10       29    20   3    5.16   356.4    8.5      36.889
2014   10       29    20   8    5.17   356.4    8.5      36.912
2014   10       29    20  14    5.17   356.3    8.5      36.935
2014   10       29    20  19    5.18   356.3    8.5      36.958
2014   10       29    20  24    5.19   356.2    8.6      36.981
2014   10       29    20  30    5.20   356.2    8.6      37.005
2014   10       29    20  35    5.20   356.2    8.6      37.028
2014   10       29    20  41    5.21   356.1    8.6      37.051
2014   10       29    20  46    5.22   356.1    8.6      37.074
2014   10       29    20  52    5.23   356.0    8.6      37.098
2014   10       29    20  57    5.24   356.0    8.6      37.121
2014   10       29    21   3    5.24   355.9    8.7      37.144
2014   10       29    21   8    5.25   355.9    8.7      37.167
2014   10       29    21  14    5.26   355.9    8.7      37.190
2014   10       29    21  19    5.27   355.8    8.7      37.214
2014   10       29    21  25    5.27   355.8    8.7      37.237
2014   10       29    21  30    5.28   355.7    8.7      37.260
2014   10       29    21  35    5.29   355.7    8.7      37.283
2014   10       29    21  41    5.30   355.7    8.7      37.306
2014   10       29    21  46    5.31   355.6    8.8      37.329
2014   10       29    21  52    5.31   355.6    8.8      37.352
2014   10       29    21  57    5.32   355.6    8.8      37.375
2014   10       29    22   3    5.33   355.5    8.8      37.398
2014   10       29    22   8    5.34   355.5    8.8      37.420
2014   10       29    22  14    5.34   355.5    8.8      37.444
2014   10       29    22  19    5.35   355.4    8.8      37.467
2014   10       29    22  25    5.36   355.4    8.9      37.489
2014   10       29    22  30    5.37   355.4    8.9      37.513
2014   10       29    22  36    5.38   355.3    8.9      37.536
2014   10       29    22  41    5.38   355.3    8.9      37.559
2014   10       29    22  47    5.39   355.3    8.9      37.582
2014   10       29    22  52    5.40   355.3    8.9      37.605
2014   10       29    22  58    5.41   355.2    8.9      37.628
2014   10       29    23   3    5.41   355.2    9.0      37.651
2014   10       29    23   8    5.42   355.2    9.0      37.675
2014   10       29    23  14    5.43   355.1    9.0      37.698
2014   10       29    23  19    5.44   355.1    9.0      37.722
2014   10       29    23  25    5.44   355.1    9.0      37.746
2014   10       29    23  30    5.45   355.1    9.0      37.770
2014   10       29    23  36    5.46   355.0    9.0      37.794
2014   10       29    23  41    5.47   355.0    9.0      37.818
2014   10       29    23  47    5.48   355.0    9.1      37.842
2014   10       29    23  52    5.48   355.0    9.1      37.867
2014   10       29    23  58    5.49   355.0    9.1      37.892
2014   10       30     0   3    5.50   354.9    9.1      37.917
2014   10       30     0   9    5.51   354.9    9.1      37.942
2014   10       30     0  14    5.51   354.9    9.1      37.967
2014   10       30     0  20    5.52   354.9    9.1      37.993
2014   10       30     0  25    5.53   354.9    9.2      38.019
2014   10       30     0  30    5.54   354.8    9.2      38.045
2014   10       30     0  36    5.55   354.8    9.2      38.071
2014   10       30     0  41    5.55   354.8    9.2      38.098
2014   10       30     0  47    5.56   354.8    9.2      38.124
2014   10       30     0  52    5.57   354.8    9.2      38.151
2014   10       30     0  58    5.58   354.8    9.2      38.179
2014   10       30     1   3    5.59   354.7    9.2      38.206
2014   10       30     1   9    5.59   354.7    9.3      38.234
2014   10       30     1  14    5.60   354.7    9.3      38.262
2014   10       30     1  20    5.61   354.7    9.3      38.291
2014   10       30     1  25    5.62   354.7    9.3      38.319
2014   10       30     1  30    5.62   354.7    9.3      38.348
2014   10       30     1  36    5.63   354.7    9.3      38.377
2014   10       30     1  41    5.64   354.7    9.3      38.407
2014   10       30     1  47    5.65   354.7    9.4      38.437
2014   10       30     1  52    5.66   354.7    9.4      38.467
2014   10       30     1  58    5.66   354.7    9.4      38.497
2014   10       30     2   3    5.67   354.6    9.4      38.528
2014   10       30     2   9    5.68   354.6    9.4      38.559
2014   10       30     2  14    5.69   354.6    9.4      38.590
2014   10       30     2  19    5.70   354.6    9.4      38.621
2014   10       30     2  25    5.70   354.6    9.4      38.653
2014   10       30     2  30    5.71   354.6    9.5      38.685
2014   10       30     2  36    5.72   354.6    9.5      38.717
2014   10       30     2  41    5.73   354.6    9.5      38.749
2014   10       30     2  47    5.74   354.6    9.5      38.781
2014   10       30     2  52    5.74   354.6    9.5      38.813
2014   10       30     2  58    5.75   354.6    9.5      38.846
2014   10       30     3   3    5.76   354.6    9.5      38.878
2014   10       30     3   9    5.77   354.6    9.5      38.910
2014   10       30     3  14    5.78   354.6    9.6      38.943
2014   10       30     3  20    5.78   354.6    9.6      38.975
2014   10       30     3  25    5.79   354.6    9.6      39.007
2014   10       30     3  30    5.80   354.6    9.6      39.040
2014   10       30     3  36    5.81   354.6    9.6      39.072
2014   10       30     3  41    5.82   354.7    9.6      39.104
2014   10       30     3  47    5.82   354.7    9.6      39.136
2014   10       30     3  52    5.83   354.7    9.6      39.167
2014   10       30     3  58    5.84   354.7    9.7      39.199
2014   10       30     4   3    5.85   354.7    9.7      39.231
2014   10       30     4   9    5.86   354.7    9.7      39.262
2014   10       30     4  14    5.86   354.7    9.7      39.294
2014   10       30     4  20    5.87   354.7    9.7      39.325
2014   10       30     4  25    5.88   354.7    9.7      39.356
2014   10       30     4  31    5.89   354.7    9.7      39.387
2014   10       30     4  36    5.90   354.7    9.7      39.418
2014   10       30     4  41    5.90   354.7    9.7      39.448
2014   10       30     4  47    5.91   354.7    9.8      39.479
2014   10       30     4  52    5.92   354.7    9.8      39.509
2014   10       30     4  58    5.93   354.8    9.8      39.540
2014   10       30     5   3    5.94   354.8    9.8      39.570
2014   10       30     5   9    5.94   354.8    9.8      39.600
2014   10       30     5  14    5.95   354.8    9.8      39.630
2014   10       30     5  20    5.96   354.8    9.8      39.661
2014   10       30     5  25    5.97   354.8    9.8      39.691
2014   10       30     5  31    5.98   354.8    9.8      39.721
2014   10       30     5  36    5.98   354.8    9.9      39.751
2014   10       30     5  42    5.99   354.9    9.9      39.781
2014   10       30     5  47    6.00   354.9    9.9      39.810
2014   10       30     5  53    6.01   354.9    9.9      39.840
2014   10       30     5  58    6.02   354.9    9.9      39.870
2014   10       30     6   4    6.03   354.9    9.9      39.901
2014   10       30     6   9    6.03   354.9    9.9      39.931
2014   10       30     6  14    6.04   355.0    9.9      39.961
2014   10       30     6  20    6.05   355.0   10.0      39.991
2014   10       30     6  25    6.06   355.0   10.0      40.021
2014   10       30     6  31    6.07   355.0   10.0      40.052
2014   10       30     6  36    6.07   355.0   10.0      40.083
2014   10       30     6  42    6.08   355.1   10.0      40.114
2014   10       30     6  47    6.09   355.1   10.0      40.145
2014   10       30     6  53    6.10   355.1   10.0      40.176
2014   10       30     6  58    6.11   355.1   10.0      40.208
2014   10       30     7   4    6.11   355.2   10.0      40.239
2014   10       30     7   9    6.12   355.2   10.1      40.272
2014   10       30     7  15    6.13   355.2   10.1      40.304
2014   10       30     7  20    6.14   355.2   10.1      40.337
2014   10       30     7  25    6.15   355.3   10.1      40.371
2014   10       30     7  31    6.15   355.3   10.1      40.405
2014   10       30     7  36    6.16   355.3   10.1      40.439
2014   10       30     7  42    6.17   355.3   10.1      40.474
2014   10       30     7  47    6.18   355.4   10.1      40.510
2014   10       30     7  53    6.19   355.4   10.2      40.546
2014   10       30     7  58    6.19   355.4   10.2      40.583
2014   10       30     8   4    6.20   355.5   10.2      40.620
2014   10       30     8   9    6.21   355.5   10.2      40.659
2014   10       30     8  15    6.22   355.5   10.2      40.698
2014   10       30     8  20    6.23   355.6   10.2      40.738
2014   10       30     8  25    6.23   355.6   10.2      40.779
2014   10       30     8  31    6.24   355.7   10.2      40.821
2014   10       30     8  36    6.25   355.7   10.2      40.864
2014   10       30     8  42    6.26   355.7   10.3      40.907
2014   10       30     8  47    6.26   355.8   10.3      40.951
2014   10       30     8  53    6.27   355.8   10.3      40.995
2014   10       30     8  58    6.28   355.9   10.3      41.041
2014   10       30     9   4    6.29   355.9   10.3      41.086
2014   10       30     9   9    6.30   355.9   10.3      41.133
2014   10       30     9  15    6.30   356.0   10.3      41.179
2014   10       30     9  20    6.31   356.0   10.3      41.225
2014   10       30     9  25    6.32   356.1   10.3      41.272
2014   10       30     9  31    6.33   356.1   10.3      41.319
2014   10       30     9  36    6.33   356.2   10.4      41.365
2014   10       30     9  42    6.34   356.2   10.4      41.412
2014   10       30     9  47    6.35   356.2   10.4      41.459
2014   10       30     9  53    6.36   356.3   10.4      41.505
2014   10       30     9  58    6.36   356.3   10.4      41.550
2014   10       30    10   4    6.37   356.4   10.4      41.596
2014   10       30    10   9    6.38   356.4   10.4      41.641
2014   10       30    10  15    6.39   356.5   10.4      41.686
2014   10       30    10  20    6.39   356.5   10.4      41.730
2014   10       30    10  25    6.40   356.6   10.4      41.774
2014   10       30    10  31    6.41   356.6   10.4      41.817
2014   10       30    10  36    6.42   356.7   10.4      41.860
2014   10       30    10  42    6.42   356.7   10.5      41.903
2014   10       30    10  47    6.43   356.8   10.5      41.945
2014   10       30    10  53    6.44   356.8   10.5      41.986
2014   10       30    10  58    6.44   356.9   10.5      42.028
2014   10       30    11   4    6.45   356.9   10.5      42.069
2014   10       30    11   9    6.46   357.0   10.5      42.109
2014   10       30    11  15    6.47   357.0   10.5      42.149
2014   10       30    11  20    6.47   357.1   10.5      42.189
2014   10       30    11  26    6.48   357.1   10.5      42.228
2014   10       30    11  31    6.49   357.2   10.5      42.268
2014   10       30    11  37    6.50   357.2   10.5      42.306
2014   10       30    11  42    6.50   357.3   10.5      42.345
2014   10       30    11  47    6.51   357.3   10.5      42.383
2014   10       30    11  53    6.52   357.4   10.5      42.421
2014   10       30    11  58    6.52   357.4   10.5      42.459
2014   10       30    12   4    6.53   357.5   10.5      42.496
2014   10       30    12   9    6.54   357.6   10.6      42.533
2014   10       30    12  15    6.55   357.6   10.6      42.570
2014   10       30    12  20    6.55   357.7   10.6      42.606
2014   10       30    12  26    6.56   357.7   10.6      42.643
2014   10       30    12  31    6.57   357.8   10.6      42.679
2014   10       30    12  37    6.57   357.8   10.6      42.715
2014   10       30    12  42    6.58   357.9   10.6      42.751
2014   10       30    12  48    6.59   358.0   10.6      42.787
2014   10       30    12  53    6.60   358.0   10.6      42.823
2014   10       30    12  59    6.60   358.1   10.6      42.858
2014   10       30    13   4    6.61   358.2   10.6      42.894
2014   10       30    13   9    6.62   358.2   10.6      42.929
2014   10       30    13  15    6.62   358.3   10.6      42.964
2014   10       30    13  20    6.63   358.3   10.6      43.000
2014   10       30    13  26    6.64   358.4   10.6      43.035
2014   10       30    13  31    6.65   358.5   10.6      43.070
2014   10       30    13  37    6.65   358.5   10.6      43.105
2014   10       30    13  42    6.66   358.6   10.7      43.140
2014   10       30    13  48    6.67   358.7   10.7      43.175
2014   10       30    13  53    6.67   358.8   10.7      43.210
2014   10       30    13  59    6.68   358.8   10.7      43.245
2014   10       30    14   4    6.69   358.9   10.7      43.280
2014   10       30    14  10    6.70   359.0   10.7      43.315
2014   10       30    14  15    6.70   359.0   10.7      43.350
2014   10       30    14  20    6.71   359.1   10.7      43.385
2014   10       30    14  26    6.72   359.2   10.7      43.420
2014   10       30    14  31    6.72   359.3   10.7      43.455
2014   10       30    14  37    6.73   359.3   10.7      43.490
2014   10       30    14  42    6.74   359.4   10.7      43.526
2014   10       30    14  48    6.75   359.5   10.7      43.562
2014   10       30    14  53    6.75   359.6   10.7      43.597
2014   10       30    14  59    6.76   359.6   10.7      43.633
2014   10       30    15   4    6.77   359.7   10.7      43.669
2014   10       30    15  10    6.77   359.8   10.7      43.706
2014   10       30    15  15    6.78   359.9   10.8      43.742
2014   10       30    15  20    6.79   359.9   10.8      43.780
2014   10       30    15  26    6.79   360.0   10.8      43.818
2014   10       30    15  31    6.80   360.1   10.8      43.856
2014   10       30    15  37    6.81   360.2   10.8      43.895
2014   10       30    15  42    6.82   360.3   10.8      43.935
2014   10       30    15  48    6.82   360.3   10.8      43.975
2014   10       30    15  53    6.83   360.4   10.8      44.016
2014   10       30    15  59    6.84   360.5   10.8      44.058
2014   10       30    16   4    6.84   360.6   10.8      44.101
2014   10       30    16   9    6.85   360.7   10.8      44.144
2014   10       30    16  15    6.86   360.7   10.8      44.188
2014   10       30    16  20    6.86   360.8   10.8      44.232
2014   10       30    16  26    6.87   360.9   10.8      44.278
2014   10       30    16  31    6.87   361.0   10.8      44.323
2014   10       30    16  37    6.88   361.1   10.8      44.369
2014   10       30    16  42    6.89   361.2   10.8      44.416
2014   10       30    16  48    6.89   361.3   10.8      44.463
2014   10       30    16  53    6.90   361.3   10.9      44.510
2014   10       30    16  59    6.91   361.4   10.9      44.558
2014   10       30    17   4    6.91   361.5   10.9      44.606
2014   10       30    17  10    6.92   361.6   10.9      44.653
2014   10       30    17  15    6.93   361.7   10.9      44.701
2014   10       30    17  20    6.93   361.8   10.9      44.749
2014   10       30    17  26    6.94   361.8   10.9      44.797
2014   10       30    17  31    6.94   361.9   10.9      44.845
2014   10       30    17  37    6.95   362.0   10.9      44.893
2014   10       30    17  42    6.96   362.1   10.9      44.941
2014   10       30    17  48    6.96   362.2   10.9      44.989
2014   10       30    17  53    6.97   362.3   10.9      45.036
2014   10       30    17  59    6.97   362.4   10.9      45.084
2014   10       30    18   4    6.98   362.4   10.9      45.131
2014   10       30    18  10    6.98   362.5   10.9      45.179
2014   10       30    18  15    6.99   362.6   10.9      45.226
2014   10       30    18  20    7.00   362.7   10.9      45.273
2014   10       30    18  26    7.00   362.8   10.9      45.320
2014   10       30    18  31    7.01   362.9   10.9      45.367
2014   10       30    18  37    7.01   363.0   10.9      45.414
2014   10       30    18  42    7.02   363.1   10.9      45.461
2014   10       30    18  48    7.02   363.1   10.9      45.508
2014   10       30    18  53    7.03   363.2   10.9      45.554
2014   10       30    18  59    7.04   363.3   10.9      45.601
2014   10       30    19   4    7.04   363.4   10.9      45.647
2014   10       30    19  10    7.05   363.5   10.9      45.693
2014   10       30    19  15    7.05   363.6   10.9      45.739
2014   10       30    19  21    7.06   363.7   10.9      45.785
2014   10       30    19  26    7.06   363.8   10.9      45.831
2014   10       30    19  32    7.07   363.9   10.9      45.876
2014   10       30    19  37    7.07   363.9   10.9      45.921
2014   10       30    19  42    7.08   364.0   10.9      45.966
2014   10       30    19  48    7.09   364.1   10.9      46.011
2014   10       30    19  53    7.09   364.2   10.9      46.056
2014   10       30    19  59    7.10   364.3   10.9      46.100
2014   10       30    20   4    7.10   364.4   10.9      46.145
2014   10       30    20  10    7.11   364.5   10.9      46.188
2014   10       30    20  15    7.11   364.6   10.9      46.232
2014   10       30    20  21    7.12   364.7   10.9      46.276
2014   10       30    20  26    7.12   364.8   10.9      46.319
2014   10       30    20  32    7.13   364.9   10.9      46.363
2014   10       30    20  37    7.13   365.0   10.9      46.406
2014   10       30    20  43    7.14   365.1   10.9      46.449
2014   10       30    20  48    7.15   365.2   10.9      46.491
2014   10       30    20  54    7.15   365.3   10.9      46.534
2014   10       30    20  59    7.16   365.3   11.0      46.576
2014   10       30    21   4    7.16   365.4   11.0      46.618
2014   10       30    21  10    7.17   365.5   11.0      46.660
2014   10       30    21  15    7.17   365.6   11.0      46.703
2014   10       30    21  21    7.18   365.7   11.0      46.745
2014   10       30    21  26    7.18   365.8   11.0      46.787
2014   10       30    21  32    7.19   365.9   11.0      46.829
2014   10       30    21  37    7.20   366.0   11.0      46.871
2014   10       30    21  43    7.20   366.1   11.0      46.914
2014   10       30    21  48    7.21   366.2   11.0      46.956
2014   10       30    21  54    7.21   366.3   11.0      46.999
2014   10       30    21  59    7.22   366.4   11.0      47.042
2014   10       30    22   5    7.22   366.5   11.0      47.087
2014   10       30    22  10    7.23   366.6   11.0      47.132
2014   10       30    22  15    7.24   366.7   11.0      47.178
2014   10       30    22  21    7.24   366.8   11.0      47.224
2014   10       30    22  26    7.25   366.9   11.0      47.272
2014   10       30    22  32    7.25   367.1   11.0      47.321
2014   10       30    22  37    7.26   367.2   11.0      47.372
2014   10       30    22  43    7.27   367.3   11.0      47.423
2014   10       30    22  48    7.27   367.4   11.0      47.475
2014   10       30    22  54    7.28   367.5   11.0      47.528
2014   10       30    22  59    7.28   367.6   11.0      47.581
2014   10       30    23   4    7.29   367.8   11.0      47.635
2014   10       30    23  10    7.29   367.9   11.0      47.690
2014   10       30    23  15    7.30   368.0   11.0      47.744
2014   10       30    23  21    7.31   368.1   11.0      47.800
2014   10       30    23  26    7.31   368.3   11.0      47.856
2014   10       30    23  32    7.32   368.4   11.0      47.912
2014   10       30    23  37    7.32   368.5   11.0      47.968
2014   10       30    23  43    7.33   368.7   11.0      48.023
2014   10       30    23  48    7.33   368.8   11.0      48.079
2014   10       30    23  53    7.34   368.9   11.0      48.134
2014   10       30    23  59    7.34   369.1   11.0      48.189
2014   10       31     0   4    7.35   369.2   11.0      48.243
2014   10       31     0  10    7.35   369.3   11.0      48.297
2014   10       31     0  15    7.35   369.4   11.0      48.350
2014   10       31     0  21    7.36   369.6   11.0      48.404
2014   10       31     0  26    7.36   369.7   11.0      48.456
2014   10       31     0  32    7.37   369.8   11.0      48.508
2014   10       31     0  37    7.37   370.0   11.0      48.560
2014   10       31     0  43    7.37   370.1   11.0      48.612
2014   10       31     0  48    7.38   370.2   11.0      48.663
2014   10       31     0  53    7.38   370.4   11.0      48.714
2014   10       31     0  59    7.39   370.5   11.0      48.765
2014   10       31     1   4    7.39   370.6   11.0      48.815
2014   10       31     1  10    7.39   370.8   11.0      48.865
2014   10       31     1  15    7.40   370.9   11.0      48.916
2014   10       31     1  21    7.40   371.0   11.0      48.965
2014   10       31     1  26    7.40   371.2   11.0      49.015
2014   10       31     1  32    7.41   371.3   11.0      49.065
2014   10       31     1  37    7.41   371.4   11.0      49.114
2014   10       31     1  43    7.42   371.6   11.0      49.163
2014   10       31     1  48    7.42   371.7   11.0      49.212
2014   10       31     1  54    7.42   371.8   11.0      49.261
2014   10       31     1  59    7.43   371.9   11.0      49.309
2014   10       31     2   5    7.43   372.1   11.0      49.358
2014   10       31     2  10    7.43   372.2   11.0      49.407
2014   10       31     2  15    7.44   372.3   11.0      49.455
2014   10       31     2  21    7.44   372.5   11.0      49.504
2014   10       31     2  26    7.44   372.6   11.0      49.552
2014   10       31     2  32    7.45   372.7   11.0      49.600
2014   10       31     2  37    7.45   372.9   11.0      49.649
2014   10       31     2  43    7.45   373.0   11.0      49.697
2014   10       31     2  48    7.46   373.1   11.0      49.746
2014   10       31     2  54    7.46   373.3   10.9      49.794
2014   10       31     2  59    7.46   373.4   10.9      49.843
2014   10       31     3   5    7.47   373.5   10.9      49.892
2014   10       31     3  10    7.47   373.6   10.9      49.941
2014   10       31     3  16    7.47   373.8   10.9      49.990
2014   10       31     3  21    7.48   373.9   10.9      50.040
2014   10       31     3  26    7.48   374.0   10.9      50.091
2014   10       31     3  32    7.49   374.2   10.9      50.142
2014   10       31     3  37    7.49   374.3   10.9      50.193
2014   10       31     3  43    7.49   374.4   10.9      50.244
2014   10       31     3  48    7.50   374.6   10.9      50.296
2014   10       31     3  54    7.50   374.7   10.9      50.349
2014   10       31     3  59    7.50   374.8   10.9      50.401
2014   10       31     4   5    7.51   375.0   10.9      50.455
2014   10       31     4  10    7.51   375.1   10.9      50.509
2014   10       31     4  16    7.52   375.2   10.9      50.564
2014   10       31     4  21    7.52   375.4   10.9      50.620
2014   10       31     4  27    7.52   375.5   10.9      50.676
2014   10       31     4  32    7.53   375.7   10.9      50.732
2014   10       31     4  38    7.53   375.8   10.9      50.790
2014   10       31     4  43    7.54   375.9   10.9      50.847
2014   10       31     4  48    7.54   376.1   10.9      50.906
2014   10       31     4  54    7.54   376.2   10.9      50.964
2014   10       31     4  59    7.55   376.3   10.9      51.022
2014   10       31     5   5    7.55   376.5   10.9      51.080
2014   10       31     5  10    7.56   376.6   10.9      51.139
2014   10       31     5  16    7.56   376.7   10.9      51.197
2014   10       31     5  21    7.56   376.9   10.9      51.257
2014   10       31     5  27    7.57   377.0   10.9      51.317
2014   10       31     5  32    7.57   377.2   10.9      51.379
2014   10       31     5  37    7.58   377.3   10.9      51.441
2014   10       31     5  43    7.58   377.5   10.9      51.504
2014   10       31     5  48    7.58   377.6   10.9      51.567
2014   10       31     5  54    7.59   377.7   10.9      51.631
2014   10       31     5  59    7.59   377.9   10.9      51.695
2014   10       31     6   5    7.60   378.0   10.9      51.761
2014   10       31     6  10    7.60   378.2   10.9      51.826
2014   10       31     6  16    7.60   378.4   10.9      51.891
2014   10       31     6  21    7.61   378.5   10.9      51.957
2014   10       31     6  26    7.61   378.7   10.9      52.022
2014   10       31     6  32    7.61   378.8   10.9      52.087
2014   10       31     6  37    7.62   379.0   10.9      52.153
2014   10       31     6  43    7.62   379.1   10.9      52.218
2014   10       31     6  48    7.62   379.3   10.9      52.284
2014   10       31     6  54    7.63   379.5   10.9      52.349
2014   10       31     6  59    7.63   379.6   10.9      52.414
2014   10       31     7   5    7.63   379.8   10.9      52.478
2014   10       31     7  10    7.63   380.0   10.9      52.541
2014   10       31     7  15    7.64   380.1   10.9      52.603
2014   10       31     7  21    7.64   380.3   10.9      52.665
2014   10       31     7  26    7.64   380.5   10.9      52.725
2014   10       31     7  32    7.64   380.7   10.9      52.785
2014   10       31     7  37    7.64   380.8   10.9      52.844
2014   10       31     7  43    7.65   381.0   10.9      52.903
2014   10       31     7  48    7.65   381.2   10.9      52.960
2014   10       31     7  54    7.65   381.4   10.8      53.017
2014   10       31     7  59    7.65   381.5   10.8      53.073
2014   10       31     8   5    7.65   381.7   10.8      53.128
2014   10       31     8  10    7.66   381.9   10.8      53.182
2014   10       31     8  16    7.66   382.1   10.8      53.236
2014   10       31     8  21    7.66   382.2   10.8      53.290
2014   10       31     8  26    7.66   382.4   10.8      53.343
2014   10       31     8  32    7.66   382.6   10.8      53.395
2014   10       31     8  37    7.66   382.8   10.8      53.446
2014   10       31     8  43    7.66   383.0   10.8      53.497
2014   10       31     8  48    7.66   383.1   10.8      53.547
2014   10       31     8  54    7.67   383.3   10.8      53.597
2014   10       31     8  59    7.67   383.5   10.8      53.647
2014   10       31     9   5    7.67   383.7   10.8      53.695
2014   10       31     9  10    7.67   383.9   10.7      53.744
2014   10       31     9  16    7.67   384.0   10.7      53.791
2014   10       31     9  21    7.67   384.2   10.7      53.839
2014   10       31     9  27    7.67   384.4   10.7      53.886
2014   10       31     9  32    7.67   384.6   10.7      53.932
2014   10       31     9  37    7.67   384.8   10.7      53.978
2014   10       31     9  43    7.67   384.9   10.7      54.023
2014   10       31     9  48    7.67   385.1   10.7      54.069
2014   10       31     9  54    7.67   385.3   10.7      54.113
2014   10       31     9  59    7.68   385.5   10.7      54.157
2014   10       31    10   5    7.68   385.7   10.7      54.201
2014   10       31    10  10    7.68   385.9   10.6      54.244
2014   10       31    10  16    7.68   386.0   10.6      54.287
2014   10       31    10  21    7.68   386.2   10.6      54.330
2014   10       31    10  27    7.68   386.4   10.6      54.372
2014   10       31    10  32    7.68   386.6   10.6      54.413
2014   10       31    10  38    7.68   386.8   10.6      54.455
2014   10       31    10  43    7.68   386.9   10.6      54.496
2014   10       31    10  49    7.68   387.1   10.6      54.536
2014   10       31    10  54    7.68   387.3   10.6      54.577
2014   10       31    10  59    7.68   387.5   10.6      54.617
2014   10       31    11   5    7.68   387.7   10.6      54.657
2014   10       31    11  10    7.68   387.8   10.5      54.697
2014   10       31    11  16    7.68   388.0   10.5      54.737
2014   10       31    11  21    7.68   388.2   10.5      54.776
2014   10       31    11  27    7.68   388.4   10.5      54.816
2014   10       31    11  32    7.68   388.6   10.5      54.856
2014   10       31    11  38    7.68   388.7   10.5      54.895
2014   10       31    11  43    7.68   388.9   10.5      54.936
2014   10       31    11  49    7.68   389.1   10.5      54.977
2014   10       31    11  54    7.68   389.3   10.5      55.018
2014   10       31    12   0    7.68   389.5   10.5      55.060
2014   10       31    12   5    7.68   389.6   10.5      55.103
2014   10       31    12  10    7.68   389.8   10.4      55.145
2014   10       31    12  16    7.68   390.0   10.4      55.189
2014   10       31    12  21    7.68   390.2   10.4      55.232
2014   10       31    12  27    7.68   390.3   10.4      55.276
2014   10       31    12  32    7.68   390.5   10.4      55.320
2014   10       31    12  38    7.68   390.7   10.4      55.364
2014   10       31    12  43    7.68   390.9   10.4      55.407
2014   10       31    12  49    7.68   391.1   10.4      55.451
2014   10       31    12  54    7.68   391.2   10.4      55.494
2014   10       31    12  59    7.68   391.4   10.4      55.537
2014   10       31    13   5    7.68   391.6   10.3      55.580
2014   10       31    13  10    7.68   391.8   10.3      55.623
2014   10       31    13  16    7.68   392.0   10.3      55.664
2014   10       31    13  21    7.67   392.1   10.3      55.706
2014   10       31    13  27    7.67   392.3   10.3      55.747
2014   10       31    13  32    7.67   392.5   10.3      55.787
2014   10       31    13  37    7.67   392.7   10.3      55.826
2014   10       31    13  43    7.67   392.9   10.3      55.864
2014   10       31    13  48    7.67   393.0   10.3      55.902
2014   10       31    13  54    7.67   393.2   10.3      55.938
2014   10       31    13  59    7.66   393.4   10.2      55.974
2014   10       31    14   5    7.66   393.6   10.2      56.009
2014   10       31    14  10    7.66   393.8   10.2      56.043
2014   10       31    14  16    7.66   393.9   10.2      56.077
2014   10       31    14  21    7.66   394.1   10.2      56.109
2014   10       31    14  27    7.66   394.3   10.2      56.141
2014   10       31    14  32    7.65   394.5   10.2      56.172
2014   10       31    14  37    7.65   394.6   10.2      56.203
2014   10       31    14  43    7.65   394.8   10.1      56.232
2014   10       31    14  48    7.65   395.0   10.1      56.261
2014   10       31    14  54    7.64   395.2   10.1      56.290
2014   10       31    14  59    7.64   395.3   10.1      56.318
2014   10       31    15   5    7.64   395.5   10.1      56.346
2014   10       31    15  10    7.64   395.7   10.1      56.373
2014   10       31    15  16    7.63   395.8   10.1      56.401
2014   10       31    15  21    7.63   396.0   10.1      56.429
2014   10       31    15  27    7.63   396.2   10.0      56.456
2014   10       31    15  32    7.63   396.3   10.0      56.484
2014   10       31    15  38    7.62   396.5   10.0      56.511
2014   10       31    15  43    7.62   396.7   10.0      56.538
2014   10       31    15  48    7.62   396.8   10.0      56.565
2014   10       31    15  54    7.62   397.0   10.0      56.591
2014   10       31    15  59    7.61   397.2   10.0      56.617
2014   10       31    16   5    7.61   397.4   10.0      56.643
2014   10       31    16  10    7.61   397.5   10.0      56.668
2014   10       31    16  16    7.61   397.7    9.9      56.692
2014   10       31    16  21    7.60   397.9    9.9      56.716
2014   10       31    16  27    7.60   398.1    9.9      56.739
2014   10       31    16  32    7.60   398.3    9.9      56.761
2014   10       31    16  38    7.59   398.4    9.9      56.782
2014   10       31    16  43    7.59   398.6    9.9      56.802
2014   10       31    16  49    7.59   398.8    9.9      56.822
2014   10       31    16  54    7.59   399.0    9.9      56.840
2014   10       31    16  59    7.58   399.1    9.8      56.858
2014   10       31    17   5    7.58   399.3    9.8      56.875
2014   10       31    17  10    7.57   399.5    9.8      56.891
2014   10       31    17  16    7.57   399.7    9.8      56.906
2014   10       31    17  21    7.57   399.9    9.8      56.920
2014   10       31    17  27    7.56   400.0    9.8      56.933
2014   10       31    17  32    7.56   400.2    9.8      56.946
2014   10       31    17  38    7.56   400.4    9.8      56.957
2014   10       31    17  43    7.55   400.6    9.7      56.968
2014   10       31    17  49    7.55   400.7    9.7      56.978
2014   10       31    17  54    7.54   400.9    9.7      56.987
2014   10       31    18   0    7.54   401.1    9.7      56.996
2014   10       31    18   5    7.53   401.2    9.7      57.004
2014   10       31    18  10    7.53   401.4    9.7      57.011
2014   10       31    18  16    7.53   401.6    9.7      57.018
2014   10       31    18  21    7.52   401.7    9.6      57.025
2014   10       31    18  27    7.52   401.9    9.6      57.030
2014   10       31    18  32    7.51   402.0    9.6      57.036
2014   10       31    18  38    7.51   402.2    9.6      57.041
2014   10       31    18  43    7.50   402.4    9.6      57.047
2014   10       31    18  49    7.50   402.5    9.6      57.051
2014   10       31    18  54    7.49   402.7    9.6      57.056
2014   10       31    19   0    7.49   402.8    9.5      57.060
2014   10       31    19   5    7.48   403.0    9.5      57.063
2014   10       31    19  11    7.48   403.2    9.5      57.066
2014   10       31    19  16    7.47   403.3    9.5      57.069
2014   10       31    19  21    7.47   403.5    9.5      57.070
2014   10       31    19  27    7.46   403.6    9.5      57.072
2014   10       31    19  32    7.46   403.8    9.5      57.072
2014   10       31    19  38    7.45   404.0    9.5      57.072
2014   10       31    19  43    7.45   404.1    9.4      57.070
2014   10       31    19  49    7.44   404.3    9.4      57.069
2014   10       31    19  54    7.44   404.5    9.4      57.066
2014   10       31    20   0    7.43   404.6    9.4      57.062
2014   10       31    20   5    7.42   404.8    9.4      57.058
2014   10       31    20  10    7.42   404.9    9.4      57.052
2014   10       31    20  16    7.41   405.1    9.4      57.046
2014   10       31    20  21    7.41   405.2    9.4      57.039
2014   10       31    20  27    7.40   405.4    9.3      57.031
2014   10       31    20  32    7.40   405.6    9.3      57.022
2014   10       31    20  38    7.39   405.7    9.3      57.013
2014   10       31    20  43    7.39   405.9    9.3      57.003
2014   10       31    20  48    7.38   406.0    9.3      56.992
2014   10       31    20  54    7.37   406.2    9.3      56.981
2014   10       31    20  59    7.37   406.3    9.3      56.969
2014   10       31    21   5    7.36   406.5    9.2      56.957
2014   10       31    21  10    7.36   406.6    9.2      56.944
2014   10       31    21  16    7.35   406.7    9.2      56.931
2014   10       31    21  21    7.34   406.9    9.2      56.916
2014   10       31    21  27    7.34   407.0    9.2      56.901
2014   10       31    21  32    7.33   407.2    9.2      56.885
2014   10       31    21  37    7.33   407.3    9.2      56.869
2014   10       31    21  43    7.32   407.4    9.1      56.852
2014   10       31    21  48    7.31   407.6    9.1      56.835
2014   10       31    21  54    7.31   407.7    9.1      56.818
2014   10       31    21  59    7.30   407.8    9.1      56.800
2014   10       31    22   5    7.30   407.9    9.1      56.783
2014   10       31    22  10    7.29   408.1    9.1      56.765
2014   10       31    22  16    7.28   408.2    9.1      56.748
2014   10       31    22  21    7.28   408.3    9.1      56.731
2014   10       31    22  27    7.27   408.4    9.0      56.715
2014   10       31    22  32    7.27   408.5    9.0      56.699
2014   10       31    22  37    7.26   408.6    9.0      56.683
2014   10       31    22  43    7.25   408.7    9.0      56.668
2014   10       31    22  48    7.25   408.8    9.0      56.654
2014   10       31    22  54    7.24   408.9    9.0      56.641
2014   10       31    22  59    7.24   409.0    9.0      56.628
2014   10       31    23   5    7.23   409.1    9.0      56.617
2014   10       31    23  10    7.23   409.2    9.0      56.605
2014   10       31    23  16    7.22   409.4    8.9      56.595
2014   10       31    23  21    7.21   409.5    8.9      56.584
2014   10       31    23  27    7.21   409.6    8.9      56.575
2014   10       31    23  32    7.20   409.7    8.9      56.565
2014   10       31    23  38    7.20   409.8    8.9      56.556
2014   10       31    23  43    7.19   409.9    8.9      56.547
2014   10       31    23  48    7.18   410.0    8.9      56.537
2014   10       31    23  54    7.18   410.1    8.9      56.527
2014   10       31    23  59    7.17   410.2    8.9      56.516
2014   11        1     0   5    7.17   410.3    8.9      56.505
2014   11        1     0  10    7.16   410.5    8.9      56.494
2014   11        1     0  16    7.16   410.6    8.8      56.482
2014   11        1     0  21    7.15   410.7    8.8      56.469
2014   11        1     0  27    7.14   410.8    8.8      56.457
2014   11        1     0  32    7.14   410.9    8.8      56.443
2014   11        1     0  38    7.13   411.0    8.8      56.430
2014   11        1     0  43    7.13   411.1    8.8      56.415
2014   11        1     0  49    7.12   411.2    8.8      56.400
2014   11        1     0  54    7.11   411.4    8.8      56.384
2014   11        1     1   0    7.11   411.5    8.8      56.367
2014   11        1     1   5    7.10   411.6    8.8      56.349
2014   11        1     1  10    7.09   411.7    8.7      56.330
2014   11        1     1  16    7.09   411.8    8.7      56.311
2014   11        1     1  21    7.08   411.9    8.7      56.291
2014   11        1     1  27    7.07   412.0    8.7      56.271
2014   11        1     1  32    7.07   412.1    8.7      56.251
2014   11        1     1  38    7.06   412.2    8.7      56.230
2014   11        1     1  43    7.05   412.2    8.7      56.209
2014   11        1     1  49    7.05   412.3    8.7      56.188
2014   11        1     1  54    7.04   412.4    8.7      56.166
2014   11        1     2   0    7.03   412.5    8.7      56.146
2014   11        1     2   5    7.03   412.6    8.6      56.125
2014   11        1     2  10    7.02   412.7    8.6      56.105
2014   11        1     2  16    7.01   412.8    8.6      56.084
2014   11        1     2  21    7.01   412.9    8.6      56.063
2014   11        1     2  27    7.00   412.9    8.6      56.043
2014   11        1     2  32    6.99   413.0    8.6      56.022
2014   11        1     2  38    6.99   413.1    8.6      56.001
2014   11        1     2  43    6.98   413.2    8.6      55.980
2014   11        1     2  49    6.97   413.3    8.6      55.959
2014   11        1     2  54    6.97   413.4    8.6      55.938
2014   11        1     3   0    6.96   413.5    8.6      55.916
2014   11        1     3   5    6.95   413.6    8.5      55.893
2014   11        1     3  10    6.95   413.7    8.5      55.870
2014   11        1     3  16    6.94   413.8    8.5      55.847
2014   11        1     3  21    6.93   413.9    8.5      55.823
2014   11        1     3  27    6.93   414.0    8.5      55.799
2014   11        1     3  32    6.92   414.1    8.5      55.773
2014   11        1     3  38    6.91   414.2    8.5      55.747
2014   11        1     3  43    6.91   414.3    8.5      55.721
2014   11        1     3  48    6.90   414.4    8.5      55.694
2014   11        1     3  54    6.89   414.5    8.5      55.666
2014   11        1     3  59    6.89   414.6    8.5      55.639
2014   11        1     4   5    6.88   414.7    8.4      55.611
2014   11        1     4  10    6.87   414.8    8.4      55.582
2014   11        1     4  16    6.87   414.8    8.4      55.553
2014   11        1     4  21    6.86   414.9    8.4      55.524
2014   11        1     4  26    6.85   415.0    8.4      55.495
2014   11        1     4  32    6.85   415.1    8.4      55.466
2014   11        1     4  37    6.84   415.2    8.4      55.436
2014   11        1     4  43    6.83   415.2    8.4      55.406
2014   11        1     4  48    6.83   415.3    8.4      55.376
2014   11        1     4  54    6.82   415.4    8.4      55.345
2014   11        1     4  59    6.81   415.5    8.4      55.315
2014   11        1     5   5    6.81   415.5    8.3      55.285
2014   11        1     5  10    6.80   415.6    8.3      55.254
2014   11        1     5  15    6.79   415.7    8.3      55.224
2014   11        1     5  21    6.79   415.8    8.3      55.194
2014   11        1     5  26    6.78   415.8    8.3      55.164
2014   11        1     5  32    6.78   415.9    8.3      55.134
2014   11        1     5  37    6.77   415.9    8.3      55.105
2014   11        1     5  43    6.76   416.0    8.3      55.075
2014   11        1     5  48    6.76   416.1    8.3      55.047
2014   11        1     5  54    6.75   416.1    8.3      55.019
2014   11        1     5  59    6.74   416.2    8.3      54.991
2014   11        1     6   5    6.74   416.2    8.3      54.963
2014   11        1     6  10    6.73   416.3    8.3      54.937
2014   11        1     6  16    6.73   416.3    8.2      54.910
2014   11        1     6  21    6.72   416.4    8.2      54.884
2014   11        1     6  26    6.71   416.4    8.2      54.859
2014   11        1     6  32    6.71   416.5    8.2      54.835
2014   11        1     6  37    6.70   416.5    8.2      54.812
2014   11        1     6  43    6.70   416.6    8.2      54.790
2014   11        1     6  48    6.69   416.6    8.2      54.769
2014   11        1     6  54    6.68   416.7    8.2      54.748
2014   11        1     6  59    6.68   416.7    8.2      54.728
2014   11        1     7   5    6.67   416.7    8.2      54.709
2014   11        1     7  10    6.67   416.8    8.2      54.690
2014   11        1     7  16    6.66   416.8    8.2      54.671
2014   11        1     7  21    6.66   416.9    8.2      54.653
2014   11        1     7  27    6.65   416.9    8.2      54.635
2014   11        1     7  32    6.64   417.0    8.2      54.618
2014   11        1     7  38    6.64   417.0    8.2      54.600
2014   11        1     7  43    6.63   417.1    8.2      54.583
2014   11        1     7  48    6.63   417.1    8.2      54.566
2014   11        1     7  54    6.62   417.1    8.2      54.548
2014   11        1     7  59    6.62   417.2    8.2      54.530
2014   11        1     8   5    6.61   417.2    8.1      54.513
2014   11        1     8  10    6.60   417.3    8.1      54.495
2014   11        1     8  16    6.60   417.3    8.1      54.477
2014   11        1     8  21    6.59   417.4    8.1      54.459
2014   11        1     8  27    6.59   417.4    8.1      54.441
2014   11        1     8  32    6.58   417.4    8.1      54.422
2014   11        1     8  38    6.58   417.5    8.1      54.403
2014   11        1     8  43    6.57   417.5    8.1      54.383
2014   11        1     8  49    6.56   417.6    8.1      54.363
2014   11        1     8  54    6.56   417.6    8.1      54.343
2014   11        1     8  59    6.55   417.7    8.1      54.322
2014   11        1     9   5    6.55   417.7    8.1      54.301
2014   11        1     9  10    6.54   417.7    8.1      54.280
2014   11        1     9  16    6.54   417.8    8.1      54.258
2014   11        1     9  21    6.53   417.8    8.1      54.236
2014   11        1     9  27    6.52   417.9    8.1      54.215
2014   11        1     9  32    6.52   417.9    8.1      54.193
2014   11        1     9  38    6.51   417.9    8.1      54.170
2014   11        1     9  43    6.51   418.0    8.1      54.148
2014   11        1     9  48    6.50   418.0    8.1      54.125
2014   11        1     9  54    6.49   418.1    8.0      54.102
2014   11        1     9  59    6.49   418.1    8.0      54.079
2014   11        1    10   5    6.48   418.1    8.0      54.056
2014   11        1    10  10    6.48   418.2    8.0      54.032
2014   11        1    10  16    6.47   418.2    8.0      54.009
2014   11        1    10  21    6.47   418.2    8.0      53.985
2014   11        1    10  27    6.46   418.3    8.0      53.961
2014   11        1    10  32    6.45   418.3    8.0      53.938
2014   11        1    10  37    6.45   418.4    8.0      53.913
2014   11        1    10  43    6.44   418.4    8.0      53.889
2014   11        1    10  48    6.44   418.4    8.0      53.865
2014   11        1    10  54    6.43   418.5    8.0      53.841
2014   11        1    10  59    6.43   418.5    8.0      53.816
2014   11        1    11   4    6.42   418.5    8.0      53.791
2014   11        1    11  10    6.41   418.6    8.0      53.766
2014   11        1    11  15    6.41   418.6    8.0      53.741
2014   11        1    11  21    6.40   418.6    8.0      53.716
2014   11        1    11  26    6.40   418.7    8.0      53.691
2014   11        1    11  32    6.39   418.7    7.9      53.665
2014   11        1    11  37    6.39   418.7    7.9      53.640
2014   11        1    11  43    6.38   418.7    7.9      53.614
2014   11        1    11  48    6.37   418.8    7.9      53.589
2014   11        1    11  53    6.37   418.8    7.9      53.563
2014   11        1    11  59    6.36   418.8    7.9      53.537
2014   11        1    12   4    6.36   418.9    7.9      53.511
2014   11        1    12  10    6.35   418.9    7.9      53.485
2014   11        1    12  15    6.35   418.9    7.9      53.459
2014   11        1    12  21    6.34   418.9    7.9      53.433
2014   11        1    12  26    6.33   419.0    7.9      53.408
2014   11        1    12  32    6.33   419.0    7.9      53.382
2014   11        1    12  37    6.32   419.0    7.9      53.356
2014   11        1    12  42    6.32   419.0    7.9      53.331
2014   11        1    12  48    6.31   419.0    7.9      53.306
2014   11        1    12  53    6.31   419.1    7.9      53.280
2014   11        1    12  59    6.30   419.1    7.9      53.255
2014   11        1    13   4    6.30   419.1    7.9      53.231
2014   11        1    13  10    6.29   419.1    7.9      53.206
2014   11        1    13  15    6.29   419.1    7.9      53.182
2014   11        1    13  21    6.28   419.2    7.8      53.158
2014   11        1    13  26    6.27   419.2    7.8      53.134
2014   11        1    13  32    6.27   419.2    7.8      53.110
2014   11        1    13  37    6.26   419.2    7.8      53.087
2014   11        1    13  43    6.26   419.2    7.8      53.064
2014   11        1    13  48    6.25   419.2    7.8      53.041
2014   11        1    13  53    6.25   419.2    7.8      53.018
2014   11        1    13  59    6.24   419.2    7.8      52.996
2014   11        1    14   4    6.24   419.3    7.8      52.974
2014   11        1    14  10    6.23   419.3    7.8      52.952
2014   11        1    14  15    6.23   419.3    7.8      52.931
2014   11        1    14  21    6.22   419.3    7.8      52.909
2014   11        1    14  26    6.22   419.3    7.8      52.888
2014   11        1    14  32    6.21   419.3    7.8      52.868
2014   11        1    14  37    6.21   419.3    7.8      52.847
2014   11        1    14  43    6.20   419.3    7.8      52.827
2014   11        1    14  48    6.20   419.3    7.8      52.806
2014   11        1    14  54    6.19   419.3    7.8      52.786
2014   11        1    14  59    6.19   419.3    7.8      52.767
2014   11        1    15   5    6.18   419.3    7.8      52.747
2014   11        1    15  10    6.18   419.3    7.8      52.727
2014   11        1    15  15    6.17   419.3    7.8      52.708
2014   11        1    15  21    6.17   419.3    7.8      52.688
2014   11        1    15  26    6.16   419.4    7.8      52.668
2014   11        1    15  32    6.16   419.4    7.8      52.649
2014   11        1    15  37    6.15   419.4    7.8      52.629
2014   11        1    15  43    6.15   419.4    7.8      52.609
2014   11        1    15  48    6.14   419.4    7.8      52.590
2014   11        1    15  54    6.14   419.4    7.7      52.570
2014   11        1    15  59    6.13   419.4    7.7      52.550
2014   11        1    16   5    6.13   419.4    7.7      52.529
2014   11        1    16  10    6.12   419.4    7.7      52.509
2014   11        1    16  15    6.12   419.4    7.7      52.489
2014   11        1    16  21    6.11   419.4    7.7      52.468
2014   11        1    16  26    6.11   419.3    7.7      52.447
2014   11        1    16  32    6.10   419.3    7.7      52.426
2014   11        1    16  37    6.10   419.3    7.7      52.405
2014   11        1    16  43    6.09   419.3    7.7      52.383
2014   11        1    16  48    6.09   419.3    7.7      52.362
2014   11        1    16  54    6.08   419.3    7.7      52.340
2014   11        1    16  59    6.08   419.3    7.7      52.318
2014   11        1    17   4    6.07   419.3    7.7      52.296
2014   11        1    17  10    6.07   419.3    7.7      52.273
2014   11        1    17  15    6.06   419.3    7.7      52.251
2014   11        1    17  21    6.06   419.3    7.7      52.228
2014   11        1    17  26    6.05   419.3    7.7      52.205
2014   11        1    17  32    6.05   419.3    7.7      52.182
2014   11        1    17  37    6.04   419.3    7.7      52.159
2014   11        1    17  42    6.04   419.3    7.7      52.135
2014   11        1    17  48    6.04   419.3    7.7      52.112
2014   11        1    17  53    6.03   419.2    7.7      52.088
2014   11        1    17  59    6.03   419.2    7.7      52.064
2014   11        1    18   4    6.02   419.2    7.7      52.040
2014   11        1    18  10    6.02   419.2    7.7      52.015
2014   11        1    18  15    6.01   419.2    7.7      51.991
2014   11        1    18  20    6.01   419.2    7.7      51.966
2014   11        1    18  26    6.00   419.2    7.7      51.941
2014   11        1    18  31    6.00   419.2    7.7      51.916
2014   11        1    18  37    5.99   419.1    7.7      51.891
2014   11        1    18  42    5.99   419.1    7.7      51.866
2014   11        1    18  48    5.98   419.1    7.6      51.840
2014   11        1    18  53    5.98   419.1    7.6      51.814
2014   11        1    18  58    5.98   419.1    7.6      51.788
2014   11        1    19   4    5.97   419.1    7.6      51.763
2014   11        1    19   9    5.97   419.1    7.6      51.737
2014   11        1    19  15    5.96   419.0    7.6      51.711
2014   11        1    19  20    5.96   419.0    7.6      51.685
2014   11        1    19  26    5.95   419.0    7.6      51.658
2014   11        1    19  31    5.95   419.0    7.6      51.632
2014   11        1    19  37    5.94   419.0    7.6      51.606
2014   11        1    19  42    5.94   418.9    7.6      51.580
2014   11        1    19  47    5.94   418.9    7.6      51.554
2014   11        1    19  53    5.93   418.9    7.6      51.528
2014   11        1    19  58    5.93   418.9    7.6      51.501
2014   11        1    20   4    5.92   418.9    7.6      51.475
2014   11        1    20   9    5.92   418.8    7.6      51.449
2014   11        1    20  15    5.92   418.8    7.6      51.423
2014   11        1    20  20    5.91   418.8    7.6      51.397
2014   11        1    20  26    5.91   418.8    7.6      51.371
2014   11        1    20  31    5.90   418.8    7.6      51.346
2014   11        1    20  37    5.90   418.7    7.6      51.320
2014   11        1    20  42    5.89   418.7    7.6      51.294
2014   11        1    20  48    5.89   418.7    7.6      51.269
2014   11        1    20  53    5.89   418.7    7.6      51.243
2014   11        1    20  58    5.88   418.6    7.6      51.218
2014   11        1    21   4    5.88   418.6    7.6      51.193
2014   11        1    21   9    5.87   418.6    7.6      51.168
2014   11        1    21  15    5.87   418.6    7.6      51.143
2014   11        1    21  20    5.87   418.5    7.6      51.118
2014   11        1    21  26    5.86   418.5    7.6      51.093
2014   11        1    21  31    5.86   418.5    7.6      51.068
2014   11        1    21  37    5.86   418.5    7.6      51.044
2014   11        1    21  42    5.85   418.4    7.6      51.019
2014   11        1    21  48    5.85   418.4    7.6      50.995
2014   11        1    21  53    5.84   418.4    7.5      50.970
2014   11        1    21  59    5.84   418.3    7.5      50.946
2014   11        1    22   4    5.84   418.3    7.5      50.922
2014   11        1    22   9    5.83   418.3    7.5      50.898
2014   11        1    22  15    5.83   418.3    7.5      50.873
2014   11        1    22  20    5.83   418.2    7.5      50.849
2014   11        1    22  26    5.82   418.2    7.5      50.825
2014   11        1    22  31    5.82   418.2    7.5      50.801
2014   11        1    22  37    5.82   418.1    7.5      50.777
2014   11        1    22  42    5.81   418.1    7.5      50.753
2014   11        1    22  48    5.81   418.1    7.5      50.729
2014   11        1    22  53    5.81   418.0    7.5      50.705
2014   11        1    22  59    5.80   418.0    7.5      50.681
2014   11        1    23   4    5.80   418.0    7.5      50.657
2014   11        1    23  10    5.80   417.9    7.5      50.633
2014   11        1    23  15    5.79   417.9    7.5      50.609
2014   11        1    23  20    5.79   417.9    7.5      50.585
2014   11        1    23  26    5.79   417.8    7.5      50.561
2014   11        1    23  31    5.78   417.8    7.5      50.536
2014   11        1    23  37    5.78   417.7    7.5      50.512
2014   11        1    23  42    5.78   417.7    7.5      50.488
2014   11        1    23  48    5.77   417.7    7.5      50.464
2014   11        1    23  53    5.77   417.6    7.5      50.439
2014   11        1    23  59    5.77   417.6    7.5      50.415
2014   11        2     0   4    5.76   417.5    7.5      50.390
2014   11        2     0   9    5.76   417.5    7.5      50.365
2014   11        2     0  15    5.76   417.5    7.5      50.340
2014   11        2     0  20    5.75   417.4    7.5      50.316
2014   11        2     0  26    5.75   417.4    7.5      50.291
2014   11        2     0  31    5.75   417.3    7.5      50.266
2014   11        2     0  37    5.75   417.3    7.5      50.241
2014   11        2     0  42    5.74   417.3    7.5      50.215
2014   11        2     0  47    5.74   417.2    7.5      50.190
2014   11        2     0  53    5.74   417.2    7.5      50.165
2014   11        2     0  58    5.73   417.1    7.5      50.139
2014   11        2     1   4    5.73   417.1    7.5      50.114
2014   11        2     1   9    5.73   417.0    7.5      50.088
2014   11        2     1  14    5.72   417.0    7.5      50.063
2014   11        2     1  20    5.72   416.9    7.5      50.037
2014   11        2     1  25    5.72   416.9    7.5      50.011
2014   11        2     1  31    5.72   416.9    7.5      49.985
2014   11        2     1  36    5.71   416.8    7.5      49.959
2014   11        2     1  42    5.71   416.8    7.5      49.933
2014   11        2     1  47    5.71   416.7    7.5      49.907
2014   11        2     1  52    5.70   416.7    7.5      49.880
2014   11        2     1  58    5.70   416.6    7.5      49.854
2014   11        2     2   3    5.70   416.6    7.5      49.827
2014   11        2     2   9    5.70   416.5    7.5      49.801
2014   11        2     2  14    5.69   416.5    7.5      49.774
2014   11        2     2  20    5.69   416.4    7.5      49.748
2014   11        2     2  25    5.69   416.4    7.5      49.721
2014   11        2     2  30    5.68   416.3    7.5      49.694
2014   11        2     2  36    5.68   416.3    7.5      49.667
2014   11        2     2  41    5.68   416.2    7.5      49.640
2014   11        2     2  47    5.68   416.2    7.5      49.613
2014   11        2     2  52    5.67   416.1    7.5      49.586
2014   11        2     2  58    5.67   416.1    7.4      49.559
2014   11        2     3   3    5.67   416.0    7.4      49.532
2014   11        2     3   9    5.67   415.9    7.4      49.504
2014   11        2     3  14    5.66   415.9    7.4      49.477
2014   11        2     3  20    5.66   415.8    7.4      49.450
2014   11        2     3  25    5.66   415.8    7.4      49.423
2014   11        2     3  30    5.65   415.7    7.4      49.396
2014   11        2     3  36    5.65   415.7    7.4      49.369
2014   11        2     3  41    5.65   415.6    7.4      49.342
2014   11        2     3  47    5.65   415.6    7.4      49.315
2014   11        2     3  52    5.64   415.5    7.4      49.287
2014   11        2     3  58    5.64   415.4    7.4      49.260
2014   11        2     4   3    5.64   415.4    7.4      49.233
2014   11        2     4   9    5.64   415.3    7.4      49.206
2014   11        2     4  14    5.63   415.3    7.4      49.179
2014   11        2     4  20    5.63   415.2    7.4      49.152
2014   11        2     4  25    5.63   415.2    7.4      49.125
2014   11        2     4  31    5.62   415.1    7.4      49.098
2014   11        2     4  36    5.62   415.0    7.4      49.071
2014   11        2     4  41    5.62   415.0    7.4      49.045
2014   11        2     4  47    5.62   414.9    7.4      49.018
2014   11        2     4  52    5.61   414.9    7.4      48.991
2014   11        2     4  58    5.61   414.8    7.4      48.964
2014   11        2     5   3    5.61   414.7    7.4      48.937
2014   11        2     5   9    5.61   414.7    7.4      48.910
2014   11        2     5  14    5.60   414.6    7.4      48.884
2014   11        2     5  20    5.60   414.6    7.4      48.857
2014   11        2     5  25    5.60   414.5    7.4      48.830
2014   11        2     5  31    5.60   414.4    7.4      48.803
2014   11        2     5  36    5.59   414.4    7.4      48.777
2014   11        2     5  42    5.59   414.3    7.4      48.750
2014   11        2     5  47    5.59   414.2    7.4      48.724
2014   11        2     5  52    5.59   414.2    7.4      48.697
2014   11        2     5  58    5.58   414.1    7.4      48.670
2014   11        2     6   3    5.58   414.0    7.4      48.644
2014   11        2     6   9    5.58   414.0    7.4      48.617
2014   11        2     6  14    5.58   413.9    7.4      48.590
2014   11        2     6  20    5.57   413.9    7.4      48.564
2014   11        2     6  25    5.57   413.8    7.4      48.537
2014   11        2     6  31    5.57   413.7    7.4      48.510
2014   11        2     6  36    5.56   413.7    7.4      48.483
2014   11        2     6  42    5.56   413.6    7.4      48.457
2014   11        2     6  47    5.56   413.5    7.4      48.430
2014   11        2     6  52    5.56   413.5    7.4      48.403
2014   11        2     6  58    5.56   413.4    7.4      48.376
2014   11        2     7   3    5.55   413.3    7.4      48.349
2014   11        2     7   9    5.55   413.3    7.4      48.322
2014   11        2     7  14    5.55   413.2    7.4      48.295
2014   11        2     7  20    5.55   413.1    7.4      48.268
2014   11        2     7  25    5.54   413.0    7.4      48.242
2014   11        2     7  31    5.54   413.0    7.4      48.214
2014   11        2     7  36    5.54   412.9    7.4      48.188
2014   11        2     7  41    5.54   412.8    7.4      48.160
2014   11        2     7  47    5.53   412.8    7.4      48.134
2014   11        2     7  52    5.53   412.7    7.4      48.106
2014   11        2     7  58    5.53   412.6    7.4      48.080
2014   11        2     8   3    5.53   412.6    7.4      48.052
2014   11        2     8   8    5.52   412.5    7.4      48.026
2014   11        2     8  14    5.52   412.4    7.4      47.998
2014   11        2     8  19    5.52   412.3    7.4      47.971
2014   11        2     8  25    5.52   412.3    7.4      47.944
2014   11        2     8  30    5.51   412.2    7.4      47.917
2014   11        2     8  35    5.51   412.1    7.4      47.890
2014   11        2     8  41    5.51   412.1    7.4      47.863
2014   11        2     8  46    5.51   412.0    7.4      47.836
2014   11        2     8  52    5.50   411.9    7.4      47.809
2014   11        2     8  57    5.50   411.8    7.4      47.782
2014   11        2     9   2    5.50   411.8    7.4      47.755
2014   11        2     9   8    5.50   411.7    7.4      47.728
2014   11        2     9  13    5.50   411.6    7.4      47.701
2014   11        2     9  19    5.49   411.5    7.4      47.674
2014   11        2     9  24    5.49   411.5    7.4      47.647
2014   11        2     9  30    5.49   411.4    7.4      47.619
2014   11        2     9  35    5.49   411.3    7.4      47.592
2014   11        2     9  40    5.48   411.2    7.4      47.565
2014   11        2     9  46    5.48   411.2    7.4      47.538
2014   11        2     9  51    5.48   411.1    7.4      47.511
2014   11        2     9  57    5.48   411.0    7.4      47.484
2014   11        2    10   2    5.48   410.9    7.4      47.456
2014   11        2    10   8    5.47   410.8    7.4      47.429
2014   11        2    10  13    5.47   410.8    7.4      47.403
2014   11        2    10  19    5.47   410.7    7.4      47.376
2014   11        2    10  24    5.47   410.6    7.4      47.349
2014   11        2    10  30    5.46   410.5    7.4      47.322
2014   11        2    10  35    5.46   410.4    7.4      47.296
2014   11        2    10  41    5.46   410.4    7.4      47.269
2014   11        2    10  46    5.46   410.3    7.4      47.243
2014   11        2    10  51    5.46   410.2    7.4      47.217
2014   11        2    10  57    5.45   410.1    7.4      47.191
2014   11        2    11   2    5.45   410.0    7.4      47.165
2014   11        2    11   8    5.45   409.9    7.4      47.139
2014   11        2    11  13    5.45   409.9    7.4      47.114
2014   11        2    11  19    5.45   409.8    7.4      47.089
2014   11        2    11  24    5.44   409.7    7.4      47.063
2014   11        2    11  30    5.44   409.6    7.4      47.038
2014   11        2    11  35    5.44   409.5    7.4      47.014
2014   11        2    11  41    5.44   409.4    7.4      46.989
2014   11        2    11  46    5.44   409.4    7.4      46.965
2014   11        2    11  52    5.43   409.3    7.4      46.940
2014   11        2    11  57    5.43   409.2    7.4      46.916
2014   11        2    12   2    5.43   409.1    7.4      46.892
2014   11        2    12   8    5.43   409.0    7.4      46.869
2014   11        2    12  13    5.43   408.9    7.4      46.845
2014   11        2    12  19    5.43   408.8    7.4      46.822
2014   11        2    12  24    5.42   408.8    7.4      46.798
2014   11        2    12  30    5.42   408.7    7.4      46.775
2014   11        2    12  35    5.42   408.6    7.4      46.752
2014   11        2    12  41    5.42   408.5    7.4      46.730
2014   11        2    12  46    5.42   408.4    7.4      46.707
2014   11        2    12  52    5.41   408.3    7.4      46.684
2014   11        2    12  57    5.41   408.2    7.4      46.662
2014   11        2    13   2    5.41   408.1    7.4      46.639
2014   11        2    13   8    5.41   408.0    7.4      46.617
2014   11        2    13  13    5.41   407.9    7.4      46.595
2014   11        2    13  19    5.41   407.9    7.4      46.573
2014   11        2    13  24    5.40   407.8    7.4      46.551
2014   11        2    13  30    5.40   407.7    7.4      46.529
2014   11        2    13  35    5.40   407.6    7.4      46.507
2014   11        2    13  41    5.40   407.5    7.4      46.485
2014   11        2    13  46    5.40   407.4    7.4      46.464
2014   11        2    13  52    5.40   407.3    7.4      46.442
2014   11        2    13  57    5.39   407.2    7.4      46.420
2014   11        2    14   2    5.39   407.1    7.4      46.399
2014   11        2    14   8    5.39   407.0    7.4      46.377
2014   11        2    14  13    5.39   406.9    7.4      46.355
2014   11        2    14  19    5.39   406.8    7.4      46.334
2014   11        2    14  24    5.39   406.7    7.4      46.313
2014   11        2    14  30    5.38   406.6    7.4      46.291
2014   11        2    14  35    5.38   406.5    7.4      46.270
2014   11        2    14  40    5.38   406.5    7.4      46.249
2014   11        2    14  46    5.38   406.4    7.5      46.227
2014   11        2    14  51    5.38   406.3    7.5      46.206
2014   11        2    14  57    5.38   406.2    7.5      46.185
2014   11        2    15   2    5.38   406.1    7.5      46.164
2014   11        2    15   8    5.37   406.0    7.5      46.143
2014   11        2    15  13    5.37   405.9    7.5      46.122
2014   11        2    15  18    5.37   405.8    7.5      46.101
2014   11        2    15  24    5.37   405.7    7.5      46.080
2014   11        2    15  29    5.37   405.6    7.5      46.059
2014   11        2    15  35    5.37   405.5    7.5      46.039
2014   11        2    15  40    5.37   405.4    7.5      46.018
2014   11        2    15  45    5.37   405.3    7.5      45.997
2014   11        2    15  51    5.36   405.2    7.5      45.977
2014   11        2    15  56    5.36   405.1    7.5      45.956
2014   11        2    16   2    5.36   405.0    7.5      45.936
2014   11        2    16   7    5.36   404.9    7.5      45.916
2014   11        2    16  12    5.36   404.8    7.5      45.896
2014   11        2    16  18    5.36   404.6    7.5      45.876
2014   11        2    16  23    5.36   404.5    7.5      45.856
2014   11        2    16  29    5.36   404.4    7.5      45.836
2014   11        2    16  34    5.36   404.3    7.5      45.816
2014   11        2    16  39    5.35   404.2    7.5      45.797
2014   11        2    16  45    5.35   404.1    7.5      45.777
2014   11        2    16  50    5.35   404.0    7.5      45.758
2014   11        2    16  56    5.35   403.9    7.5      45.738
2014   11        2    17   1    5.35   403.8    7.5      45.719
2014   11        2    17   7    5.35   403.7    7.5      45.700
2014   11        2    17  12    5.35   403.6    7.5      45.681
2014   11        2    17  17    5.35   403.5    7.5      45.662
2014   11        2    17  23    5.35   403.4    7.5      45.644
2014   11        2    17  28    5.35   403.3    7.5      45.625
2014   11        2    17  34    5.35   403.2    7.5      45.607
2014   11        2    17  39    5.35   403.1    7.5      45.588
2014   11        2    17  45    5.35   403.0    7.5      45.570
2014   11        2    17  50    5.35   402.9    7.5      45.552
2014   11        2    17  56    5.35   402.8    7.5      45.534
2014   11        2    18   1    5.35   402.7    7.5      45.516
2014   11        2    18   7    5.35   402.5    7.5      45.499
2014   11        2    18  12    5.35   402.4    7.5      45.481
2014   11        2    18  18    5.35   402.3    7.5      45.464
2014   11        2    18  23    5.34   402.2    7.6      45.446
2014   11        2    18  28    5.34   402.1    7.6      45.429
2014   11        2    18  34    5.34   402.0    7.6      45.412
2014   11        2    18  39    5.34   401.9    7.6      45.395
2014   11        2    18  45    5.34   401.8    7.6      45.378
2014   11        2    18  50    5.34   401.7    7.6      45.362
2014   11        2    18  56    5.34   401.6    7.6      45.345
2014   11        2    19   1    5.34   401.5    7.6      45.329
2014   11        2    19   7    5.34   401.4    7.6      45.313
2014   11        2    19  12    5.34   401.3    7.6      45.296
2014   11        2    19  18    5.34   401.1    7.6      45.280
2014   11        2    19  23    5.34   401.0    7.6      45.265
2014   11        2    19  29    5.34   400.9    7.6      45.249
2014   11        2    19  34    5.34   400.8    7.6      45.234
2014   11        2    19  39    5.34   400.7    7.6      45.218
2014   11        2    19  45    5.34   400.6    7.6      45.203
2014   11        2    19  50    5.34   400.5    7.6      45.188
2014   11        2    19  56    5.35   400.4    7.6      45.174
2014   11        2    20   1    5.35   400.3    7.6      45.159
2014   11        2    20   7    5.35   400.2    7.6      45.145
2014   11        2    20  12    5.35   400.1    7.6      45.131
2014   11        2    20  18    5.35   399.9    7.6      45.117
2014   11        2    20  23    5.35   399.8    7.6      45.104
2014   11        2    20  29    5.35   399.7    7.6      45.090
2014   11        2    20  34    5.35   399.6    7.7      45.077
2014   11        2    20  40    5.35   399.5    7.7      45.065
2014   11        2    20  45    5.35   399.4    7.7      45.052
2014   11        2    20  50    5.35   399.3    7.7      45.040
2014   11        2    20  56    5.35   399.2    7.7      45.028
2014   11        2    21   1    5.35   399.1    7.7      45.016
2014   11        2    21   7    5.35   399.0    7.7      45.004
2014   11        2    21  12    5.35   398.9    7.7      44.993
2014   11        2    21  18    5.35   398.8    7.7      44.981
2014   11        2    21  23    5.35   398.7    7.7      44.971
2014   11        2    21  29    5.35   398.6    7.7      44.959
2014   11        2    21  34    5.36   398.5    7.7      44.949
2014   11        2    21  40    5.36   398.4    7.7      44.939
2014   11        2    21  45    5.36   398.2    7.7      44.929
2014   11        2    21  50    5.36   398.1    7.7      44.919
2014   11        2    21  56    5.36   398.0    7.7      44.909
2014   11        2    22   1    5.36   397.9    7.7      44.899
2014   11        2    22   7    5.36   397.8    7.7      44.890
2014   11        2    22  12    5.36   397.7    7.7      44.880
2014   11        2    22  18    5.36   397.6    7.7      44.872
2014   11        2    22  23    5.37   397.5    7.8      44.863
2014   11        2    22  28    5.37   397.4    7.8      44.854
2014   11        2    22  34    5.37   397.3    7.8      44.845
2014   11        2    22  39    5.37   397.2    7.8      44.837
2014   11        2    22  45    5.37   397.1    7.8      44.829
2014   11        2    22  50    5.37   397.0    7.8      44.821
2014   11        2    22  55    5.37   396.9    7.8      44.813
2014   11        2    23   1    5.37   396.8    7.8      44.805
2014   11        2    23   6    5.38   396.7    7.8      44.797
2014   11        2    23  12    5.38   396.6    7.8      44.790
2014   11        2    23  17    5.38   396.5    7.8      44.783
2014   11        2    23  22    5.38   396.4    7.8      44.776
2014   11        2    23  28    5.38   396.3    7.8      44.769
2014   11        2    23  33    5.38   396.2    7.8      44.762
2014   11        2    23  39    5.39   396.1    7.8      44.755
2014   11        2    23  44    5.39   396.0    7.8      44.749
2014   11        2    23  50    5.39   395.9    7.8      44.742
2014   11        2    23  55    5.39   395.9    7.8      44.736
2014   11        3     0   0    5.39   395.8    7.9      44.730
2014   11        3     0   6    5.39   395.7    7.9      44.724
2014   11        3     0  11    5.40   395.6    7.9      44.718
2014   11        3     0  17    5.40   395.5    7.9      44.712
2014   11        3     0  22    5.40   395.4    7.9      44.707
2014   11        3     0  28    5.40   395.3    7.9      44.701
2014   11        3     0  33    5.40   395.2    7.9      44.696
2014   11        3     0  38    5.41   395.1    7.9      44.691
2014   11        3     0  44    5.41   395.0    7.9      44.687
2014   11        3     0  49    5.41   394.9    7.9      44.682
2014   11        3     0  55    5.41   394.8    7.9      44.678
2014   11        3     1   0    5.42   394.7    7.9      44.675
2014   11        3     1   6    5.42   394.6    7.9      44.671
2014   11        3     1  11    5.42   394.6    7.9      44.668
2014   11        3     1  17    5.42   394.5    7.9      44.666
2014   11        3     1  22    5.42   394.4    7.9      44.664
2014   11        3     1  28    5.43   394.3    7.9      44.662
2014   11        3     1  33    5.43   394.2    8.0      44.661
2014   11        3     1  39    5.43   394.1    8.0      44.660
2014   11        3     1  44    5.43   394.0    8.0      44.659
2014   11        3     1  49    5.44   394.0    8.0      44.659
2014   11        3     1  55    5.44   393.9    8.0      44.659
2014   11        3     2   0    5.44   393.8    8.0      44.659
2014   11        3     2   6    5.44   393.7    8.0      44.659
2014   11        3     2  11    5.45   393.6    8.0      44.660
2014   11        3     2  17    5.45   393.6    8.0      44.661
2014   11        3     2  22    5.45   393.5    8.0      44.662
2014   11        3     2  28    5.45   393.4    8.0      44.663
2014   11        3     2  33    5.46   393.3    8.0      44.665
2014   11        3     2  39    5.46   393.2    8.0      44.666
2014   11        3     2  44    5.46   393.2    8.0      44.668
2014   11        3     2  50    5.47   393.1    8.0      44.669
2014   11        3     2  55    5.47   393.0    8.1      44.671
2014   11        3     3   0    5.47   392.9    8.1      44.673
2014   11        3     3   6    5.47   392.8    8.1      44.675
2014   11        3     3  11    5.48   392.8    8.1      44.677
2014   11        3     3  17    5.48   392.7    8.1      44.679
2014   11        3     3  22    5.48   392.6    8.1      44.682
2014   11        3     3  28    5.49   392.5    8.1      44.684
2014   11        3     3  33    5.49   392.5    8.1      44.687
2014   11        3     3  39    5.49   392.4    8.1      44.690
2014   11        3     3  44    5.49   392.3    8.1      44.693
2014   11        3     3  50    5.50   392.3    8.1      44.696
2014   11        3     3  55    5.50   392.2    8.1      44.699
2014   11        3     4   0    5.50   392.1    8.1      44.703
2014   11        3     4   6    5.51   392.1    8.1      44.706
2014   11        3     4  11    5.51   392.0    8.1      44.710
2014   11        3     4  17    5.51   391.9    8.2      44.714
2014   11        3     4  22    5.52   391.9    8.2      44.718
2014   11        3     4  28    5.52   391.8    8.2      44.722
2014   11        3     4  33    5.52   391.7    8.2      44.726
2014   11        3     4  39    5.52   391.7    8.2      44.731
2014   11        3     4  44    5.53   391.6    8.2      44.735
2014   11        3     4  50    5.53   391.5    8.2      44.740
2014   11        3     4  55    5.53   391.5    8.2      44.745
2014   11        3     5   0    5.54   391.4    8.2      44.750
2014   11        3     5   6    5.54   391.4    8.2      44.755
2014   11        3     5  11    5.54   391.3    8.2      44.761
2014   11        3     5  17    5.55   391.3    8.2      44.766
2014   11        3     5  22    5.55   391.2    8.2      44.772
2014   11        3     5  28    5.55   391.1    8.2      44.778
2014   11        3     5  33    5.56   391.1    8.2      44.784
2014   11        3     5  38    5.56   391.0    8.3      44.791
2014   11        3     5  44    5.56   391.0    8.3      44.798
2014   11        3     5  49    5.57   390.9    8.3      44.804
2014   11        3     5  55    5.57   390.9    8.3      44.812
2014   11        3     6   0    5.57   390.8    8.3      44.819
2014   11        3     6   6    5.58   390.8    8.3      44.827
2014   11        3     6  11    5.58   390.7    8.3      44.835
2014   11        3     6  16    5.59   390.7    8.3      44.843
2014   11        3     6  22    5.59   390.6    8.3      44.851
2014   11        3     6  27    5.59   390.6    8.3      44.860
2014   11        3     6  33    5.60   390.5    8.3      44.868
2014   11        3     6  38    5.60   390.5    8.3      44.878
2014   11        3     6  43    5.60   390.5    8.3      44.887
2014   11        3     6  49    5.61   390.4    8.3      44.896
2014   11        3     6  54    5.61   390.4    8.3      44.906
2014   11        3     7   0    5.61   390.3    8.4      44.916
2014   11        3     7   5    5.62   390.3    8.4      44.926
2014   11        3     7  10    5.62   390.2    8.4      44.937
2014   11        3     7  16    5.63   390.2    8.4      44.947
2014   11        3     7  21    5.63   390.1    8.4      44.958
2014   11        3     7  27    5.63   390.1    8.4      44.969
2014   11        3     7  32    5.64   390.1    8.4      44.981
2014   11        3     7  38    5.64   390.0    8.4      44.993
2014   11        3     7  43    5.65   390.0    8.4      45.005
2014   11        3     7  49    5.65   389.9    8.4      45.017
2014   11        3     7  54    5.65   389.9    8.4      45.031
2014   11        3     7  59    5.66   389.9    8.4      45.044
2014   11        3     8   5    5.66   389.8    8.4      45.058
2014   11        3     8  10    5.67   389.8    8.4      45.073
2014   11        3     8  16    5.67   389.8    8.5      45.089
2014   11        3     8  21    5.67   389.7    8.5      45.104
2014   11        3     8  27    5.68   389.7    8.5      45.121
2014   11        3     8  32    5.68   389.7    8.5      45.138
2014   11        3     8  38    5.69   389.6    8.5      45.156
2014   11        3     8  43    5.69   389.6    8.5      45.175
2014   11        3     8  49    5.70   389.6    8.5      45.195
2014   11        3     8  54    5.70   389.6    8.5      45.216
2014   11        3     8  59    5.70   389.5    8.5      45.237
2014   11        3     9   5    5.71   389.5    8.5      45.259
2014   11        3     9  10    5.71   389.5    8.5      45.282
2014   11        3     9  16    5.72   389.5    8.5      45.305
2014   11        3     9  21    5.72   389.4    8.6      45.328
2014   11        3     9  27    5.73   389.4    8.6      45.352
2014   11        3     9  32    5.73   389.4    8.6      45.376
2014   11        3     9  38    5.73   389.4    8.6      45.400
2014   11        3     9  43    5.74   389.4    8.6      45.424
2014   11        3     9  49    5.74   389.4    8.6      45.448
2014   11        3     9  54    5.75   389.3    8.6      45.472
2014   11        3    10   0    5.75   389.3    8.6      45.496
2014   11        3    10   5    5.75   389.3    8.6      45.520
2014   11        3    10  11    5.76   389.3    8.6      45.544
2014   11        3    10  16    5.76   389.3    8.6      45.567
2014   11        3    10  21    5.77   389.3    8.6      45.590
2014   11        3    10  27    5.77   389.3    8.6      45.612
2014   11        3    10  32    5.77   389.2    8.6      45.634
2014   11        3    10  38    5.78   389.2    8.7      45.656
2014   11        3    10  43    5.78   389.2    8.7      45.677
2014   11        3    10  49    5.79   389.2    8.7      45.698
2014   11        3    10  54    5.79   389.2    8.7      45.719
2014   11        3    11   0    5.79   389.2    8.7      45.739
2014   11        3    11   5    5.80   389.2    8.7      45.759
2014   11        3    11  11    5.80   389.2    8.7      45.779
2014   11        3    11  16    5.80   389.1    8.7      45.798
2014   11        3    11  21    5.81   389.1    8.7      45.817
2014   11        3    11  27    5.81   389.1    8.7      45.836
2014   11        3    11  32    5.82   389.1    8.7      45.855
2014   11        3    11  38    5.82   389.1    8.7      45.873
2014   11        3    11  43    5.82   389.1    8.7      45.891
2014   11        3    11  49    5.83   389.1    8.7      45.909
2014   11        3    11  54    5.83   389.1    8.7      45.927
2014   11        3    12   0    5.83   389.1    8.7      45.945
2014   11        3    12   5    5.84   389.1    8.7      45.962
2014   11        3    12  11    5.84   389.1    8.7      45.979
2014   11        3    12  16    5.85   389.0    8.7      45.997
2014   11        3    12  21    5.85   389.0    8.8      46.014
2014   11        3    12  27    5.85   389.0    8.8      46.031
2014   11        3    12  32    5.86   389.0    8.8      46.048
2014   11        3    12  38    5.86   389.0    8.8      46.065
2014   11        3    12  43    5.86   389.0    8.8      46.081
2014   11        3    12  49    5.87   389.0    8.8      46.098
2014   11        3    12  54    5.87   389.0    8.8      46.115
2014   11        3    12  59    5.87   389.0    8.8      46.132
2014   11        3    13   5    5.88   389.0    8.8      46.149
2014   11        3    13  10    5.88   389.0    8.8      46.166
2014   11        3    13  16    5.89   389.0    8.8      46.182
2014   11        3    13  21    5.89   389.0    8.8      46.200
2014   11        3    13  27    5.89   389.0    8.8      46.217
2014   11        3    13  32    5.90   389.0    8.8      46.234
2014   11        3    13  37    5.90   389.0    8.8      46.251
2014   11        3    13  43    5.90   389.0    8.8      46.268
2014   11        3    13  48    5.91   389.0    8.8      46.286
2014   11        3    13  54    5.91   389.0    8.8      46.303
2014   11        3    13  59    5.92   389.0    8.8      46.321
2014   11        3    14   4    5.92   389.0    8.8      46.339
2014   11        3    14  10    5.92   389.0    8.8      46.357
2014   11        3    14  15    5.93   389.0    8.9      46.375
2014   11        3    14  21    5.93   389.0    8.9      46.393
2014   11        3    14  26    5.94   389.0    8.9      46.412
2014   11        3    14  31    5.94   389.0    8.9      46.430
2014   11        3    14  37    5.94   389.0    8.9      46.449
2014   11        3    14  42    5.95   389.0    8.9      46.468
2014   11        3    14  48    5.95   389.0    8.9      46.487
2014   11        3    14  53    5.96   389.0    8.9      46.506
2014   11        3    14  59    5.96   389.0    8.9      46.526
2014   11        3    15   4    5.96   389.0    8.9      46.545
2014   11        3    15   9    5.97   389.0    8.9      46.566
2014   11        3    15  15    5.97   389.1    8.9      46.586
2014   11        3    15  20    5.98   389.1    8.9      46.606
2014   11        3    15  26    5.98   389.1    8.9      46.627
2014   11        3    15  31    5.98   389.1    8.9      46.648
2014   11        3    15  37    5.99   389.1    8.9      46.670
2014   11        3    15  42    5.99   389.1    8.9      46.691
2014   11        3    15  48    6.00   389.1    8.9      46.713
2014   11        3    15  53    6.00   389.1    9.0      46.736
2014   11        3    15  59    6.01   389.1    9.0      46.759
2014   11        3    16   4    6.01   389.1    9.0      46.783
2014   11        3    16  10    6.01   389.1    9.0      46.807
2014   11        3    16  15    6.02   389.2    9.0      46.832
2014   11        3    16  20    6.02   389.2    9.0      46.858
2014   11        3    16  26    6.03   389.2    9.0      46.884
2014   11        3    16  31    6.03   389.2    9.0      46.911
2014   11        3    16  37    6.04   389.2    9.0      46.940
2014   11        3    16  42    6.04   389.2    9.0      46.969
2014   11        3    16  48    6.04   389.3    9.0      46.999
2014   11        3    16  53    6.05   389.3    9.0      47.030
2014   11        3    16  59    6.05   389.3    9.0      47.062
2014   11        3    17   4    6.06   389.3    9.0      47.095
2014   11        3    17  10    6.06   389.4    9.1      47.129
2014   11        3    17  15    6.07   389.4    9.1      47.163
2014   11        3    17  21    6.07   389.4    9.1      47.199
2014   11        3    17  26    6.08   389.4    9.1      47.235
2014   11        3    17  31    6.08   389.5    9.1      47.271
2014   11        3    17  37    6.08   389.5    9.1      47.307
2014   11        3    17  42    6.09   389.5    9.1      47.344
2014   11        3    17  48    6.09   389.5    9.1      47.380
2014   11        3    17  53    6.10   389.6    9.1      47.416
2014   11        3    17  59    6.10   389.6    9.1      47.453
2014   11        3    18   4    6.10   389.6    9.1      47.489
2014   11        3    18  10    6.11   389.7    9.1      47.524
2014   11        3    18  15    6.11   389.7    9.1      47.559
2014   11        3    18  21    6.11   389.7    9.1      47.594
2014   11        3    18  26    6.12   389.8    9.2      47.628
2014   11        3    18  32    6.12   389.8    9.2      47.661
2014   11        3    18  37    6.13   389.8    9.2      47.694
2014   11        3    18  42    6.13   389.9    9.2      47.726
2014   11        3    18  48    6.13   389.9    9.2      47.757
2014   11        3    18  53    6.14   389.9    9.2      47.787
2014   11        3    18  59    6.14   390.0    9.2      47.817
2014   11        3    19   4    6.14   390.0    9.2      47.846
2014   11        3    19  10    6.15   390.0    9.2      47.874
2014   11        3    19  15    6.15   390.1    9.2      47.902
2014   11        3    19  21    6.15   390.1    9.2      47.928
2014   11        3    19  26    6.16   390.1    9.2      47.955
2014   11        3    19  31    6.16   390.2    9.2      47.981
2014   11        3    19  37    6.16   390.2    9.2      48.006
2014   11        3    19  42    6.17   390.2    9.2      48.031
2014   11        3    19  48    6.17   390.3    9.2      48.055
2014   11        3    19  53    6.17   390.3    9.2      48.079
2014   11        3    19  59    6.18   390.3    9.2      48.103
2014   11        3    20   4    6.18   390.4    9.2      48.126
2014   11        3    20  10    6.18   390.4    9.2      48.148
2014   11        3    20  15    6.19   390.4    9.2      48.171
2014   11        3    20  20    6.19   390.5    9.2      48.193
2014   11        3    20  26    6.19   390.5    9.2      48.215
2014   11        3    20  31    6.20   390.5    9.2      48.236
2014   11        3    20  37    6.20   390.6    9.2      48.258
2014   11        3    20  42    6.20   390.6    9.2      48.279
2014   11        3    20  47    6.21   390.6    9.3      48.300
2014   11        3    20  53    6.21   390.7    9.3      48.321
2014   11        3    20  58    6.21   390.7    9.3      48.341
2014   11        3    21   4    6.22   390.7    9.3      48.362
2014   11        3    21   9    6.22   390.8    9.3      48.383
2014   11        3    21  14    6.22   390.8    9.3      48.403
2014   11        3    21  20    6.23   390.8    9.3      48.424
2014   11        3    21  25    6.23   390.9    9.3      48.444
2014   11        3    21  31    6.23   390.9    9.3      48.465
2014   11        3    21  36    6.24   391.0    9.3      48.485
2014   11        3    21  41    6.24   391.0    9.3      48.506
2014   11        3    21  47    6.24   391.0    9.3      48.527
2014   11        3    21  52    6.25   391.1    9.3      48.548
2014   11        3    21  58    6.25   391.1    9.3      48.569
2014   11        3    22   3    6.25   391.1    9.3      48.591
2014   11        3    22   9    6.26   391.2    9.3      48.612
2014   11        3    22  14    6.26   391.2    9.3      48.634
2014   11        3    22  20    6.26   391.2    9.3      48.656
2014   11        3    22  25    6.27   391.3    9.3      48.679
2014   11        3    22  30    6.27   391.3    9.3      48.703
2014   11        3    22  36    6.28   391.4    9.3      48.726
2014   11        3    22  41    6.28   391.4    9.3      48.751
2014   11        3    22  47    6.28   391.4    9.3      48.776
2014   11        3    22  52    6.29   391.5    9.3      48.803
2014   11        3    22  58    6.29   391.5    9.3      48.829
2014   11        3    23   3    6.29   391.6    9.4      48.857
2014   11        3    23   9    6.30   391.6    9.4      48.884
2014   11        3    23  14    6.30   391.7    9.4      48.913
2014   11        3    23  20    6.31   391.7    9.4      48.941
2014   11        3    23  25    6.31   391.8    9.4      48.970
2014   11        3    23  30    6.31   391.8    9.4      48.999
2014   11        3    23  36    6.32   391.9    9.4      49.028
2014   11        3    23  41    6.32   391.9    9.4      49.057
2014   11        3    23  47    6.33   392.0    9.4      49.086
2014   11        3    23  52    6.33   392.0    9.4      49.115
2014   11        3    23  58    6.33   392.1    9.4      49.144
2014   11        4     0   3    6.34   392.2    9.4      49.173
2014   11        4     0   9    6.34   392.2    9.4      49.202
2014   11        4     0  14    6.34   392.3    9.4      49.230
2014   11        4     0  20    6.35   392.3    9.4      49.258
2014   11        4     0  25    6.35   392.4    9.4      49.285
2014   11        4     0  31    6.36   392.5    9.4      49.313
2014   11        4     0  36    6.36   392.5    9.4      49.340
2014   11        4     0  42    6.36   392.6    9.4      49.367
2014   11        4     0  47    6.37   392.6    9.4      49.394
2014   11        4     0  52    6.37   392.7    9.4      49.421
2014   11        4     0  58    6.37   392.8    9.4      49.447
2014   11        4     1   3    6.37   392.8    9.5      49.473
2014   11        4     1   9    6.38   392.9    9.5      49.499
2014   11        4     1  14    6.38   392.9    9.5      49.525
2014   11        4     1  20    6.38   393.0    9.5      49.551
2014   11        4     1  25    6.39   393.1    9.5      49.578
2014   11        4     1  31    6.39   393.1    9.5      49.603
2014   11        4     1  36    6.39   393.2    9.5      49.629
2014   11        4     1  42    6.40   393.3    9.5      49.655
2014   11        4     1  47    6.40   393.3    9.5      49.681
2014   11        4     1  52    6.40   393.4    9.5      49.706
2014   11        4     1  58    6.41   393.5    9.5      49.731
2014   11        4     2   3    6.41   393.5    9.5      49.755
2014   11        4     2   9    6.41   393.6    9.5      49.780
2014   11        4     2  14    6.41   393.7    9.5      49.804
2014   11        4     2  20    6.42   393.7    9.5      49.827
2014   11        4     2  25    6.42   393.8    9.5      49.850
2014   11        4     2  31    6.42   393.9    9.5      49.873
2014   11        4     2  36    6.42   393.9    9.5      49.896
2014   11        4     2  42    6.43   394.0    9.5      49.918
2014   11        4     2  47    6.43   394.1    9.5      49.940
2014   11        4     2  52    6.43   394.1    9.5      49.961
2014   11        4     2  58    6.44   394.2    9.5      49.982
2014   11        4     3   3    6.44   394.3    9.5      50.002
2014   11        4     3   9    6.44   394.3    9.5      50.022
2014   11        4     3  14    6.44   394.4    9.5      50.042
2014   11        4     3  20    6.45   394.5    9.5      50.061
2014   11        4     3  25    6.45   394.5    9.5      50.080
2014   11        4     3  30    6.45   394.6    9.5      50.098
2014   11        4     3  36    6.45   394.7    9.5      50.116
2014   11        4     3  41    6.46   394.7    9.5      50.134
2014   11        4     3  47    6.46   394.8    9.5      50.151
2014   11        4     3  52    6.46   394.9    9.5      50.168
2014   11        4     3  58    6.46   394.9    9.5      50.185
2014   11        4     4   3    6.47   395.0    9.5      50.202
2014   11        4     4   8    6.47   395.1    9.5      50.218
2014   11        4     4  14    6.47   395.1    9.5      50.234
2014   11        4     4  19    6.47   395.2    9.5      50.250
2014   11        4     4  25    6.48   395.2    9.5      50.266
2014   11        4     4  30    6.48   395.3    9.5      50.282
2014   11        4     4  35    6.48   395.4    9.5      50.297
2014   11        4     4  41    6.48   395.4    9.5      50.313
2014   11        4     4  46    6.48   395.5    9.5      50.328
2014   11        4     4  52    6.49   395.6    9.5      50.343
2014   11        4     4  57    6.49   395.6    9.5      50.358
2014   11        4     5   2    6.49   395.7    9.5      50.374
2014   11        4     5   8    6.49   395.8    9.5      50.389
2014   11        4     5  13    6.50   395.8    9.5      50.404
2014   11        4     5  19    6.50   395.9    9.5      50.420
2014   11        4     5  24    6.50   395.9    9.5      50.435
2014   11        4     5  30    6.50   396.0    9.5      50.451
2014   11        4     5  35    6.51   396.1    9.5      50.467
2014   11        4     5  40    6.51   396.1    9.5      50.483
2014   11        4     5  46    6.51   396.2    9.5      50.499
2014   11        4     5  51    6.52   396.2    9.5      50.515
2014   11        4     5  57    6.52   396.3    9.5      50.532
2014   11        4     6   2    6.52   396.4    9.5      50.549
2014   11        4     6   8    6.52   396.4    9.5      50.566
2014   11        4     6  13    6.53   396.5    9.5      50.584
2014   11        4     6  19    6.53   396.6    9.5      50.602
2014   11        4     6  24    6.53   396.6    9.5      50.621
2014   11        4     6  30    6.53   396.7    9.5      50.641
2014   11        4     6  35    6.54   396.7    9.5      50.661
2014   11        4     6  41    6.54   396.8    9.6      50.682
2014   11        4     6  46    6.54   396.9    9.6      50.704
2014   11        4     6  51    6.55   396.9    9.6      50.726
2014   11        4     6  57    6.55   397.0    9.6      50.749
2014   11        4     7   2    6.55   397.1    9.6      50.772
2014   11        4     7   8    6.55   397.1    9.6      50.796
2014   11        4     7  13    6.56   397.2    9.6      50.820
2014   11        4     7  19    6.56   397.3    9.6      50.844
2014   11        4     7  24    6.56   397.4    9.6      50.868
2014   11        4     7  30    6.57   397.4    9.6      50.893
2014   11        4     7  35    6.57   397.5    9.6      50.917
2014   11        4     7  41    6.57   397.6    9.6      50.943
2014   11        4     7  46    6.58   397.7    9.6      50.968
2014   11        4     7  52    6.58   397.7    9.6      50.994
2014   11        4     7  57    6.58   397.8    9.6      51.020
2014   11        4     8   2    6.58   397.9    9.6      51.045
2014   11        4     8   8    6.59   398.0    9.6      51.070
2014   11        4     8  13    6.59   398.1    9.6      51.096
2014   11        4     8  19    6.59   398.2    9.6      51.121
2014   11        4     8  24    6.59   398.2    9.6      51.145
2014   11        4     8  30    6.60   398.3    9.6      51.170
2014   11        4     8  35    6.60   398.4    9.6      51.194
2014   11        4     8  41    6.60   398.5    9.6      51.218
2014   11        4     8  46    6.61   398.6    9.6      51.242
2014   11        4     8  52    6.61   398.7    9.6      51.266
2014   11        4     8  57    6.61   398.8    9.6      51.290
2014   11        4     9   3    6.61   398.8    9.6      51.314
2014   11        4     9   8    6.62   398.9    9.6      51.337
2014   11        4     9  13    6.62   399.0    9.6      51.361
2014   11        4     9  19    6.62   399.1    9.6      51.383
2014   11        4     9  24    6.62   399.2    9.6      51.405
2014   11        4     9  30    6.62   399.3    9.6      51.427
2014   11        4     9  35    6.63   399.4    9.7      51.449
2014   11        4     9  41    6.63   399.5    9.7      51.469
2014   11        4     9  46    6.63   399.6    9.7      51.490
2014   11        4     9  52    6.63   399.7    9.7      51.510
2014   11        4     9  57    6.64   399.8    9.7      51.530
2014   11        4    10   2    6.64   399.9    9.7      51.549
2014   11        4    10   8    6.64   399.9    9.7      51.568
2014   11        4    10  13    6.64   400.0    9.7      51.586
2014   11        4    10  19    6.64   400.1    9.7      51.603
2014   11        4    10  24    6.65   400.2    9.7      51.620
2014   11        4    10  30    6.65   400.3    9.7      51.637
2014   11        4    10  35    6.65   400.4    9.7      51.653
2014   11        4    10  41    6.65   400.5    9.7      51.669
2014   11        4    10  46    6.65   400.6    9.7      51.684
2014   11        4    10  51    6.65   400.7    9.7      51.699
2014   11        4    10  57    6.66   400.8    9.7      51.713
2014   11        4    11   2    6.66   400.8    9.7      51.727
2014   11        4    11   8    6.66   400.9    9.7      51.740
2014   11        4    11  13    6.66   401.0    9.7      51.754
2014   11        4    11  18    6.66   401.1    9.7      51.766
2014   11        4    11  24    6.67   401.2    9.7      51.779
2014   11        4    11  29    6.67   401.3    9.7      51.791
2014   11        4    11  35    6.67   401.4    9.7      51.802
2014   11        4    11  40    6.67   401.5    9.6      51.813
2014   11        4    11  45    6.67   401.6    9.6      51.824
2014   11        4    11  51    6.67   401.6    9.6      51.835
2014   11        4    11  56    6.68   401.7    9.6      51.846
2014   11        4    12   2    6.68   401.8    9.6      51.856
2014   11        4    12   7    6.68   401.9    9.6      51.865
2014   11        4    12  12    6.68   402.0    9.6      51.875
2014   11        4    12  18    6.68   402.1    9.6      51.884
2014   11        4    12  23    6.68   402.2    9.6      51.894
2014   11        4    12  29    6.68   402.2    9.6      51.902
2014   11        4    12  34    6.69   402.3    9.6      51.911
2014   11        4    12  40    6.69   402.4    9.6      51.919
2014   11        4    12  45    6.69   402.5    9.6      51.928
2014   11        4    12  50    6.69   402.6    9.6      51.936
2014   11        4    12  56    6.69   402.7    9.6      51.944
2014   11        4    13   1    6.69   402.7    9.6      51.952
2014   11        4    13   7    6.70   402.8    9.6      51.960
2014   11        4    13  12    6.70   402.9    9.6      51.968
2014   11        4    13  18    6.70   403.0    9.6      51.975
2014   11        4    13  23    6.70   403.1    9.6      51.983
2014   11        4    13  29    6.70   403.1    9.6      51.991
2014   11        4    13  34    6.70   403.2    9.6      51.998
2014   11        4    13  40    6.71   403.3    9.6      52.006
2014   11        4    13  45    6.71   403.4    9.6      52.013
2014   11        4    13  51    6.71   403.5    9.6      52.021
2014   11        4    13  56    6.71   403.5    9.6      52.028
2014   11        4    14   1    6.71   403.6    9.6      52.036
2014   11        4    14   7    6.71   403.7    9.6      52.043
2014   11        4    14  12    6.72   403.8    9.6      52.051
2014   11        4    14  18    6.72   403.9    9.6      52.058
2014   11        4    14  23    6.72   403.9    9.6      52.066
2014   11        4    14  29    6.72   404.0    9.6      52.073
2014   11        4    14  34    6.72   404.1    9.6      52.081
2014   11        4    14  40    6.72   404.2    9.6      52.088
2014   11        4    14  45    6.73   404.3    9.6      52.095
2014   11        4    14  51    6.73   404.3    9.6      52.103
2014   11        4    14  56    6.73   404.4    9.6      52.110
2014   11        4    15   2    6.73   404.5    9.6      52.118
2014   11        4    15   7    6.73   404.6    9.6      52.125
2014   11        4    15  12    6.74   404.6    9.6      52.133
2014   11        4    15  18    6.74   404.7    9.6      52.140
2014   11        4    15  23    6.74   404.8    9.6      52.148
2014   11        4    15  29    6.74   404.9    9.6      52.156
2014   11        4    15  34    6.74   405.0    9.6      52.164
2014   11        4    15  40    6.74   405.0    9.6      52.173
2014   11        4    15  45    6.75   405.1    9.6      52.182
2014   11        4    15  51    6.75   405.2    9.6      52.191
2014   11        4    15  56    6.75   405.3    9.6      52.201
2014   11        4    16   2    6.75   405.4    9.6      52.211
2014   11        4    16   7    6.75   405.4    9.6      52.222
2014   11        4    16  13    6.76   405.5    9.6      52.233
2014   11        4    16  18    6.76   405.6    9.6      52.244
2014   11        4    16  23    6.76   405.7    9.6      52.255
2014   11        4    16  29    6.76   405.8    9.6      52.266
2014   11        4    16  34    6.76   405.8    9.6      52.279
2014   11        4    16  40    6.76   405.9    9.6      52.291
2014   11        4    16  45    6.77   406.0    9.6      52.304
2014   11        4    16  51    6.77   406.1    9.6      52.318
2014   11        4    16  56    6.77   406.2    9.6      52.332
2014   11        4    17   2    6.77   406.3    9.6      52.346
2014   11        4    17   7    6.77   406.3    9.6      52.361
2014   11        4    17  13    6.78   406.4    9.6      52.376
2014   11        4    17  18    6.78   406.5    9.6      52.391
2014   11        4    17  23    6.78   406.6    9.6      52.407
2014   11        4    17  29    6.78   406.7    9.6      52.423
2014   11        4    17  34    6.78   406.8    9.6      52.439
2014   11        4    17  40    6.78   406.9    9.6      52.455
2014   11        4    17  45    6.79   406.9    9.6      52.472
2014   11        4    17  51    6.79   407.0    9.6      52.489
2014   11        4    17  56    6.79   407.1    9.6      52.507
2014   11        4    18   1    6.79   407.2    9.6      52.524
2014   11        4    18   7    6.79   407.3    9.6      52.543
2014   11        4    18  12    6.80   407.4    9.6      52.561
2014   11        4    18  18    6.80   407.5    9.6      52.580
2014   11        4    18  23    6.80   407.5    9.7      52.599
2014   11        4    18  29    6.80   407.6    9.7      52.619
2014   11        4    18  34    6.80   407.7    9.7      52.639
2014   11        4    18  39    6.80   407.8    9.7      52.660
2014   11        4    18  45    6.81   407.9    9.7      52.681
2014   11        4    18  50    6.81   408.0    9.7      52.702
2014   11        4    18  56    6.81   408.1    9.7      52.724
2014   11        4    19   1    6.81   408.2    9.7      52.745
2014   11        4    19   6    6.81   408.3    9.7      52.767
2014   11        4    19  12    6.82   408.4    9.7      52.788
2014   11        4    19  17    6.82   408.5    9.7      52.810
2014   11        4    19  23    6.82   408.5    9.7      52.831
2014   11        4    19  28    6.82   408.6    9.7      52.851
2014   11        4    19  33    6.82   408.7    9.7      52.872
2014   11        4    19  39    6.82   408.8    9.7      52.892
2014   11        4    19  44    6.83   408.9    9.7      52.911
2014   11        4    19  50    6.83   409.0    9.7      52.930
2014   11        4    19  55    6.83   409.1    9.7      52.949
2014   11        4    20   1    6.83   409.2    9.7      52.967
2014   11        4    20   6    6.83   409.3    9.7      52.983
2014   11        4    20  11    6.83   409.4    9.7      53.000
2014   11        4    20  17    6.83   409.5    9.7      53.016
2014   11        4    20  22    6.84   409.6    9.7      53.031
2014   11        4    20  28    6.84   409.7    9.7      53.045
2014   11        4    20  33    6.84   409.8    9.7      53.059
2014   11        4    20  39    6.84   409.8    9.7      53.072
2014   11        4    20  44    6.84   409.9    9.7      53.085
2014   11        4    20  50    6.84   410.0    9.7      53.097
2014   11        4    20  55    6.84   410.1    9.7      53.109
2014   11        4    21   1    6.85   410.2    9.6      53.120
2014   11        4    21   6    6.85   410.3    9.6      53.131
2014   11        4    21  11    6.85   410.4    9.6      53.142
2014   11        4    21  17    6.85   410.5    9.6      53.151
2014   11        4    21  22    6.85   410.6    9.6      53.161
2014   11        4    21  28    6.85   410.7    9.6      53.170
2014   11        4    21  33    6.85   410.8    9.6      53.179
2014   11        4    21  39    6.86   410.9    9.6      53.187
2014   11        4    21  44    6.86   410.9    9.6      53.195
2014   11        4    21  50    6.86   411.0    9.6      53.203
2014   11        4    21  55    6.86   411.1    9.6      53.211
2014   11        4    22   1    6.86   411.2    9.6      53.218
2014   11        4    22   6    6.86   411.3    9.6      53.224
2014   11        4    22  12    6.86   411.4    9.6      53.231
2014   11        4    22  17    6.86   411.5    9.6      53.237
2014   11        4    22  22    6.87   411.6    9.6      53.243
2014   11        4    22  28    6.87   411.7    9.6      53.248
2014   11        4    22  33    6.87   411.8    9.6      53.254
2014   11        4    22  39    6.87   411.8    9.6      53.259
2014   11        4    22  44    6.87   411.9    9.6      53.264
2014   11        4    22  50    6.87   412.0    9.6      53.269
2014   11        4    22  55    6.87   412.1    9.6      53.273
2014   11        4    23   1    6.87   412.2    9.6      53.278
2014   11        4    23   6    6.88   412.3    9.6      53.282
2014   11        4    23  12    6.88   412.4    9.6      53.286
2014   11        4    23  17    6.88   412.5    9.6      53.290
2014   11        4    23  23    6.88   412.5    9.6      53.294
2014   11        4    23  28    6.88   412.6    9.6      53.297
2014   11        4    23  33    6.88   412.7    9.6      53.301
2014   11        4    23  39    6.88   412.8    9.6      53.305
2014   11        4    23  44    6.89   412.9    9.6      53.308
2014   11        4    23  50    6.89   413.0    9.6      53.312
2014   11        4    23  55    6.89   413.1    9.6      53.316
2014   11        5     0   1    6.89   413.2    9.6      53.320
2014   11        5     0   6    6.89   413.2    9.6      53.324
2014   11        5     0  12    6.89   413.3    9.5      53.328
2014   11        5     0  17    6.89   413.4    9.5      53.332
2014   11        5     0  23    6.89   413.5    9.5      53.337
2014   11        5     0  28    6.90   413.6    9.5      53.342
2014   11        5     0  33    6.90   413.7    9.5      53.347
2014   11        5     0  39    6.90   413.8    9.5      53.352
2014   11        5     0  44    6.90   413.9    9.5      53.358
2014   11        5     0  50    6.90   413.9    9.5      53.364
2014   11        5     0  55    6.90   414.0    9.5      53.370
2014   11        5     1   1    6.90   414.1    9.5      53.377
2014   11        5     1   6    6.90   414.2    9.5      53.384
2014   11        5     1  12    6.91   414.3    9.5      53.391
2014   11        5     1  17    6.91   414.4    9.5      53.400
2014   11        5     1  22    6.91   414.5    9.5      53.408
2014   11        5     1  28    6.91   414.6    9.5      53.417
2014   11        5     1  33    6.91   414.6    9.5      53.426
2014   11        5     1  39    6.91   414.7    9.5      53.436
2014   11        5     1  44    6.91   414.8    9.5      53.447
2014   11        5     1  49    6.92   414.9    9.5      53.458
2014   11        5     1  55    6.92   415.0    9.5      53.471
2014   11        5     2   0    6.92   415.1    9.5      53.484
2014   11        5     2   6    6.92   415.2    9.5      53.499
2014   11        5     2  11    6.92   415.3    9.5      53.514
2014   11        5     2  16    6.92   415.4    9.5      53.530
2014   11        5     2  22    6.93   415.5    9.5      53.547
2014   11        5     2  27    6.93   415.5    9.5      53.565
2014   11        5     2  33    6.93   415.6    9.5      53.584
2014   11        5     2  38    6.93   415.7    9.5      53.603
2014   11        5     2  43    6.93   415.8    9.5      53.622
2014   11        5     2  49    6.93   415.9    9.6      53.642
2014   11        5     2  54    6.94   416.0    9.6      53.663
2014   11        5     3   0    6.94   416.1    9.6      53.684
2014   11        5     3   5    6.94   416.2    9.6      53.706
2014   11        5     3  11    6.94   416.3    9.6      53.728
2014   11        5     3  16    6.94   416.4    9.6      53.750
2014   11        5     3  22    6.94   416.5    9.6      53.773
2014   11        5     3  27    6.95   416.6    9.6      53.796
2014   11        5     3  32    6.95   416.7    9.6      53.820
2014   11        5     3  38    6.95   416.8    9.6      53.844
2014   11        5     3  43    6.95   416.9    9.6      53.869
2014   11        5     3  49    6.95   417.0    9.6      53.894
2014   11        5     3  54    6.95   417.1    9.6      53.920
2014   11        5     4   0    6.96   417.2    9.6      53.946
2014   11        5     4   5    6.96   417.3    9.6      53.972
2014   11        5     4  11    6.96   417.4    9.6      53.999
2014   11        5     4  16    6.96   417.5    9.6      54.026
2014   11        5     4  22    6.96   417.6    9.6      54.053
2014   11        5     4  27    6.96   417.7    9.6      54.080
2014   11        5     4  33    6.97   417.8    9.6      54.106
2014   11        5     4  38    6.97   417.9    9.6      54.133
2014   11        5     4  43    6.97   418.0    9.6      54.160
2014   11        5     4  49    6.97   418.1    9.6      54.187
2014   11        5     4  54    6.97   418.2    9.6      54.213
2014   11        5     5   0    6.97   418.3    9.6      54.239
2014   11        5     5   5    6.98   418.4    9.6      54.264
2014   11        5     5  11    6.98   418.5    9.6      54.289
2014   11        5     5  16    6.98   418.6    9.6      54.313
2014   11        5     5  22    6.98   418.7    9.6      54.337
2014   11        5     5  27    6.98   418.8    9.6      54.360
2014   11        5     5  33    6.98   418.9    9.6      54.383
2014   11        5     5  38    6.99   419.0    9.6      54.405
2014   11        5     5  44    6.99   419.1    9.6      54.426
2014   11        5     5  49    6.99   419.2    9.5      54.447
2014   11        5     5  54    6.99   419.3    9.5      54.468
2014   11        5     6   0    6.99   419.4    9.5      54.488
2014   11        5     6   5    6.99   419.5    9.5      54.508
2014   11        5     6  11    6.99   419.6    9.5      54.527
2014   11        5     6  16    7.00   419.7    9.5      54.545
2014   11        5     6  22    7.00   419.8    9.5      54.564
2014   11        5     6  27    7.00   419.9    9.5      54.582
2014   11        5     6  33    7.00   420.1    9.5      54.599
2014   11        5     6  38    7.00   420.2    9.5      54.616
2014   11        5     6  44    7.00   420.3    9.5      54.633
2014   11        5     6  49    7.00   420.4    9.5      54.649
2014   11        5     6  54    7.00   420.5    9.5      54.665
2014   11        5     7   0    7.01   420.6    9.5      54.681
2014   11        5     7   5    7.01   420.7    9.5      54.696
2014   11        5     7  11    7.01   420.8    9.5      54.712
2014   11        5     7  16    7.01   420.9    9.5      54.726
2014   11        5     7  22    7.01   421.0    9.5      54.741
2014   11        5     7  27    7.01   421.1    9.5      54.755
2014   11        5     7  33    7.01   421.2    9.5      54.769
2014   11        5     7  38    7.01   421.3    9.5      54.783
2014   11        5     7  44    7.01   421.5    9.5      54.797
2014   11        5     7  49    7.02   421.6    9.5      54.811
2014   11        5     7  54    7.02   421.7    9.5      54.824
2014   11        5     8   0    7.02   421.8    9.5      54.837
2014   11        5     8   5    7.02   421.9    9.5      54.850
2014   11        5     8  11    7.02   422.0    9.5      54.863
2014   11        5     8  16    7.02   422.1    9.5      54.876
2014   11        5     8  22    7.02   422.2    9.5      54.889
2014   11        5     8  27    7.02   422.3    9.5      54.902
2014   11        5     8  32    7.02   422.4    9.5      54.915
2014   11        5     8  38    7.03   422.5    9.5      54.928
2014   11        5     8  43    7.03   422.6    9.5      54.941
2014   11        5     8  49    7.03   422.7    9.5      54.953
2014   11        5     8  54    7.03   422.9    9.4      54.966
2014   11        5     9   0    7.03   423.0    9.4      54.979
2014   11        5     9   5    7.03   423.1    9.4      54.992
2014   11        5     9  10    7.03   423.2    9.4      55.005
2014   11        5     9  16    7.03   423.3    9.4      55.019
2014   11        5     9  21    7.03   423.4    9.4      55.032
2014   11        5     9  27    7.04   423.5    9.4      55.046
2014   11        5     9  32    7.04   423.6    9.4      55.061
2014   11        5     9  37    7.04   423.7    9.4      55.076
2014   11        5     9  43    7.04   423.8    9.4      55.092
2014   11        5     9  48    7.04   423.9    9.4      55.108
2014   11        5     9  54    7.04   424.1    9.4      55.126
2014   11        5     9  59    7.04   424.2    9.4      55.144
2014   11        5    10   5    7.05   424.3    9.4      55.163
2014   11        5    10  10    7.05   424.4    9.4      55.183
2014   11        5    10  15    7.05   424.5    9.4      55.203
2014   11        5    10  21    7.05   424.6    9.4      55.224
2014   11        5    10  26    7.05   424.7    9.4      55.246
2014   11        5    10  32    7.05   424.8    9.4      55.269
2014   11        5    10  37    7.05   425.0    9.4      55.294
2014   11        5    10  43    7.06   425.1    9.4      55.319
2014   11        5    10  48    7.06   425.2    9.4      55.346
2014   11        5    10  53    7.06   425.3    9.4      55.373
2014   11        5    10  59    7.06   425.4    9.4      55.401
2014   11        5    11   4    7.06   425.5    9.4      55.430
2014   11        5    11  10    7.06   425.7    9.4      55.460
2014   11        5    11  15    7.06   425.8    9.4      55.491
2014   11        5    11  21    7.07   425.9    9.4      55.523
2014   11        5    11  26    7.07   426.0    9.4      55.554
2014   11        5    11  32    7.07   426.1    9.4      55.587
2014   11        5    11  37    7.07   426.3    9.4      55.619
2014   11        5    11  43    7.07   426.4    9.4      55.652
2014   11        5    11  48    7.07   426.5    9.4      55.686
2014   11        5    11  54    7.07   426.6    9.4      55.719
2014   11        5    11  59    7.08   426.8    9.4      55.752
2014   11        5    12   4    7.08   426.9    9.4      55.785
2014   11        5    12  10    7.08   427.0    9.4      55.818
2014   11        5    12  15    7.08   427.2    9.4      55.850
2014   11        5    12  21    7.08   427.3    9.4      55.882
2014   11        5    12  26    7.08   427.4    9.4      55.913
2014   11        5    12  32    7.08   427.5    9.4      55.944
2014   11        5    12  37    7.08   427.7    9.4      55.975
2014   11        5    12  43    7.08   427.8    9.4      56.005
2014   11        5    12  48    7.09   427.9    9.4      56.035
2014   11        5    12  54    7.09   428.1    9.4      56.065
2014   11        5    12  59    7.09   428.2    9.4      56.094
2014   11        5    13   5    7.09   428.3    9.4      56.123
2014   11        5    13  10    7.09   428.5    9.4      56.151
2014   11        5    13  15    7.09   428.6    9.4      56.180
2014   11        5    13  21    7.09   428.8    9.4      56.208
2014   11        5    13  26    7.09   428.9    9.3      56.235
2014   11        5    13  32    7.09   429.0    9.3      56.263
2014   11        5    13  37    7.09   429.2    9.3      56.289
2014   11        5    13  43    7.10   429.3    9.3      56.316
2014   11        5    13  48    7.10   429.5    9.3      56.342
2014   11        5    13  54    7.10   429.6    9.3      56.367
2014   11        5    13  59    7.10   429.8    9.3      56.392
2014   11        5    14   5    7.10   429.9    9.3      56.416
2014   11        5    14  10    7.10   430.1    9.3      56.440
2014   11        5    14  16    7.10   430.2    9.3      56.463
2014   11        5    14  21    7.10   430.3    9.3      56.485
2014   11        5    14  26    7.10   430.5    9.3      56.507
2014   11        5    14  32    7.10   430.6    9.3      56.529
2014   11        5    14  37    7.10   430.8    9.3      56.550
2014   11        5    14  43    7.10   430.9    9.3      56.570
2014   11        5    14  48    7.10   431.1    9.3      56.590
2014   11        5    14  54    7.10   431.2    9.3      56.610
2014   11        5    14  59    7.10   431.4    9.3      56.629
2014   11        5    15   5    7.11   431.5    9.2      56.648
2014   11        5    15  10    7.11   431.7    9.2      56.666
2014   11        5    15  15    7.11   431.9    9.2      56.684
2014   11        5    15  21    7.11   432.0    9.2      56.702
2014   11        5    15  26    7.11   432.2    9.2      56.719
2014   11        5    15  32    7.11   432.3    9.2      56.736
2014   11        5    15  37    7.11   432.5    9.2      56.753
2014   11        5    15  43    7.11   432.6    9.2      56.770
2014   11        5    15  48    7.11   432.8    9.2      56.786
2014   11        5    15  53    7.11   432.9    9.2      56.802
2014   11        5    15  59    7.11   433.1    9.2      56.817
2014   11        5    16   4    7.11   433.2    9.2      56.833
2014   11        5    16  10    7.11   433.4    9.2      56.848
2014   11        5    16  15    7.11   433.5    9.2      56.863
2014   11        5    16  21    7.11   433.7    9.2      56.878
2014   11        5    16  26    7.11   433.9    9.1      56.893
2014   11        5    16  31    7.11   434.0    9.1      56.907
2014   11        5    16  37    7.11   434.2    9.1      56.922
2014   11        5    16  42    7.11   434.3    9.1      56.937
2014   11        5    16  48    7.11   434.5    9.1      56.951
2014   11        5    16  53    7.11   434.6    9.1      56.965
2014   11        5    16  58    7.11   434.8    9.1      56.980
2014   11        5    17   4    7.11   434.9    9.1      56.994
2014   11        5    17   9    7.11   435.1    9.1      57.009
2014   11        5    17  15    7.11   435.2    9.1      57.024
2014   11        5    17  20    7.11   435.4    9.1      57.039
2014   11        5    17  25    7.11   435.6    9.1      57.054
2014   11        5    17  31    7.11   435.7    9.1      57.071
2014   11        5    17  36    7.11   435.9    9.1      57.088
2014   11        5    17  42    7.11   436.0    9.0      57.105
2014   11        5    17  47    7.11   436.2    9.0      57.123
2014   11        5    17  53    7.11   436.3    9.0      57.142
2014   11        5    17  58    7.11   436.5    9.0      57.161
2014   11        5    18   3    7.10   436.7    9.0      57.180
2014   11        5    18   9    7.10   436.8    9.0      57.200
2014   11        5    18  14    7.10   437.0    9.0      57.220
2014   11        5    18  20    7.10   437.1    9.0      57.240
2014   11        5    18  25    7.10   437.3    9.0      57.261
2014   11        5    18  31    7.10   437.4    9.0      57.283
2014   11        5    18  36    7.10   437.6    9.0      57.306
2014   11        5    18  42    7.10   437.8    9.0      57.328
2014   11        5    18  47    7.10   437.9    9.0      57.351
2014   11        5    18  53    7.10   438.1    9.0      57.374
2014   11        5    18  58    7.10   438.2    9.0      57.398
2014   11        5    19   4    7.10   438.4    8.9      57.421
2014   11        5    19   9    7.10   438.6    8.9      57.444
2014   11        5    19  14    7.10   438.7    8.9      57.468
2014   11        5    19  20    7.10   438.9    8.9      57.491
2014   11        5    19  25    7.10   439.0    8.9      57.514
2014   11        5    19  31    7.10   439.2    8.9      57.537
2014   11        5    19  36    7.10   439.3    8.9      57.560
2014   11        5    19  42    7.09   439.5    8.9      57.584
2014   11        5    19  47    7.09   439.7    8.9      57.607
2014   11        5    19  53    7.09   439.8    8.9      57.630
2014   11        5    19  58    7.09   440.0    8.9      57.653
2014   11        5    20   4    7.09   440.1    8.9      57.675
2014   11        5    20   9    7.09   440.3    8.9      57.697
2014   11        5    20  15    7.09   440.4    8.9      57.720
2014   11        5    20  20    7.09   440.6    8.8      57.742
2014   11        5    20  25    7.09   440.8    8.8      57.765
2014   11        5    20  31    7.09   440.9    8.8      57.787
2014   11        5    20  36    7.08   441.1    8.8      57.810
2014   11        5    20  42    7.08   441.3    8.8      57.832
2014   11        5    20  47    7.08   441.4    8.8      57.855
2014   11        5    20  53    7.08   441.6    8.8      57.877
2014   11        5    20  58    7.08   441.7    8.8      57.899
2014   11        5    21   4    7.08   441.9    8.8      57.921
2014   11        5    21   9    7.08   442.1    8.8      57.943
2014   11        5    21  15    7.08   442.2    8.8      57.965
2014   11        5    21  20    7.08   442.4    8.8      57.986
2014   11        5    21  26    7.08   442.6    8.8      58.007
2014   11        5    21  31    7.07   442.7    8.8      58.028
2014   11        5    21  36    7.07   442.9    8.7      58.049
2014   11        5    21  42    7.07   443.1    8.7      58.069
2014   11        5    21  47    7.07   443.3    8.7      58.090
2014   11        5    21  53    7.07   443.4    8.7      58.109
2014   11        5    21  58    7.07   443.6    8.7      58.128
2014   11        5    22   4    7.07   443.8    8.7      58.147
2014   11        5    22   9    7.06   444.0    8.7      58.165
2014   11        5    22  15    7.06   444.1    8.7      58.183
2014   11        5    22  20    7.06   444.3    8.7      58.200
2014   11        5    22  25    7.06   444.5    8.7      58.217
2014   11        5    22  31    7.06   444.7    8.7      58.233
2014   11        5    22  36    7.05   444.8    8.6      58.248
2014   11        5    22  42    7.05   445.0    8.6      58.263
2014   11        5    22  47    7.05   445.2    8.6      58.277
2014   11        5    22  53    7.05   445.4    8.6      58.291
2014   11        5    22  58    7.05   445.5    8.6      58.303
2014   11        5    23   3    7.04   445.7    8.6      58.316
2014   11        5    23   9    7.04   445.9    8.6      58.327
2014   11        5    23  14    7.04   446.1    8.6      58.338
2014   11        5    23  20    7.04   446.3    8.6      58.348
2014   11        5    23  25    7.03   446.4    8.6      58.358
2014   11        5    23  31    7.03   446.6    8.6      58.367
2014   11        5    23  36    7.03   446.8    8.5      58.375
2014   11        5    23  41    7.03   447.0    8.5      58.383
2014   11        5    23  47    7.02   447.2    8.5      58.391
2014   11        5    23  52    7.02   447.4    8.5      58.398
2014   11        5    23  58    7.02   447.5    8.5      58.404
2014   11        6     0   3    7.02   447.7    8.5      58.410
2014   11        6     0   8    7.01   447.9    8.5      58.415
2014   11        6     0  14    7.01   448.1    8.5      58.420
2014   11        6     0  19    7.01   448.3    8.5      58.424
2014   11        6     0  25    7.00   448.4    8.4      58.428
2014   11        6     0  30    7.00   448.6    8.4      58.431
2014   11        6     0  35    7.00   448.8    8.4      58.434
2014   11        6     0  41    7.00   449.0    8.4      58.436
2014   11        6     0  46    6.99   449.2    8.4      58.438
2014   11        6     0  52    6.99   449.3    8.4      58.440
2014   11        6     0  57    6.99   449.5    8.4      58.441
2014   11        6     1   3    6.98   449.7    8.4      58.442
2014   11        6     1   8    6.98   449.9    8.3      58.442
2014   11        6     1  13    6.98   450.0    8.3      58.443
2014   11        6     1  19    6.97   450.2    8.3      58.442
2014   11        6     1  24    6.97   450.4    8.3      58.442
2014   11        6     1  30    6.97   450.6    8.3      58.441
2014   11        6     1  35    6.96   450.8    8.3      58.440
2014   11        6     1  41    6.96   450.9    8.3      58.438
2014   11        6     1  46    6.96   451.1    8.3      58.437
2014   11        6     1  52    6.95   451.3    8.3      58.434
2014   11        6     1  57    6.95   451.5    8.2      58.432
2014   11        6     2   3    6.94   451.6    8.2      58.430
2014   11        6     2   8    6.94   451.8    8.2      58.427
2014   11        6     2  14    6.94   452.0    8.2      58.424
2014   11        6     2  19    6.93   452.2    8.2      58.420
2014   11        6     2  24    6.93   452.3    8.2      58.417
2014   11        6     2  30    6.92   452.5    8.2      58.413
2014   11        6     2  35    6.92   452.7    8.2      58.409
2014   11        6     2  41    6.92   452.8    8.1      58.404
2014   11        6     2  46    6.91   453.0    8.1      58.400
2014   11        6     2  52    6.91   453.2    8.1      58.395
2014   11        6     2  57    6.91   453.3    8.1      58.389
2014   11        6     3   3    6.90   453.5    8.1      58.384
2014   11        6     3   8    6.90   453.7    8.1      58.378
2014   11        6     3  14    6.89   453.8    8.1      58.372
2014   11        6     3  19    6.89   454.0    8.1      58.365
2014   11        6     3  25    6.88   454.2    8.0      58.359
2014   11        6     3  30    6.88   454.3    8.0      58.352
2014   11        6     3  35    6.88   454.5    8.0      58.345
2014   11        6     3  41    6.87   454.6    8.0      58.337
2014   11        6     3  46    6.87   454.8    8.0      58.330
2014   11        6     3  52    6.86   454.9    8.0      58.323
2014   11        6     3  57    6.86   455.1    8.0      58.315
2014   11        6     4   3    6.85   455.2    8.0      58.307
2014   11        6     4   8    6.85   455.4    8.0      58.300
2014   11        6     4  14    6.85   455.5    7.9      58.292
2014   11        6     4  19    6.84   455.7    7.9      58.284
2014   11        6     4  25    6.84   455.8    7.9      58.276
2014   11        6     4  30    6.83   456.0    7.9      58.268
2014   11        6     4  35    6.83   456.1    7.9      58.260
2014   11        6     4  41    6.82   456.3    7.9      58.252
2014   11        6     4  46    6.82   456.4    7.9      58.244
2014   11        6     4  52    6.82   456.6    7.9      58.236
2014   11        6     4  57    6.81   456.7    7.9      58.228
2014   11        6     5   3    6.81   456.8    7.9      58.221
2014   11        6     5   8    6.80   457.0    7.8      58.213
2014   11        6     5  14    6.80   457.1    7.8      58.206
2014   11        6     5  19    6.79   457.3    7.8      58.198
2014   11        6     5  25    6.79   457.4    7.8      58.191
2014   11        6     5  30    6.79   457.5    7.8      58.183
2014   11        6     5  35    6.78   457.7    7.8      58.176
2014   11        6     5  41    6.78   457.8    7.8      58.168
2014   11        6     5  46    6.77   457.9    7.8      58.160
2014   11        6     5  52    6.77   458.1    7.8      58.152
2014   11        6     5  57    6.77   458.2    7.8      58.144
2014   11        6     6   3    6.76   458.4    7.7      58.135
2014   11        6     6   8    6.76   458.5    7.7      58.127
2014   11        6     6  13    6.75   458.6    7.7      58.118
2014   11        6     6  19    6.75   458.8    7.7      58.109
2014   11        6     6  24    6.74   458.9    7.7      58.099
2014   11        6     6  30    6.74   459.0    7.7      58.090
2014   11        6     6  35    6.73   459.2    7.7      58.079
2014   11        6     6  41    6.73   459.3    7.7      58.069
2014   11        6     6  46    6.72   459.4    7.7      58.058
2014   11        6     6  51    6.72   459.5    7.7      58.047
2014   11        6     6  57    6.72   459.7    7.7      58.035
2014   11        6     7   2    6.71   459.8    7.6      58.023
2014   11        6     7   8    6.71   459.9    7.6      58.010
2014   11        6     7  13    6.70   460.1    7.6      57.998
2014   11        6     7  18    6.70   460.2    7.6      57.984
2014   11        6     7  24    6.69   460.3    7.6      57.971
2014   11        6     7  29    6.69   460.4    7.6      57.956
2014   11        6     7  35    6.68   460.6    7.6      57.942
2014   11        6     7  40    6.68   460.7    7.6      57.927
2014   11        6     7  45    6.67   460.8    7.6      57.911
2014   11        6     7  51    6.67   460.9    7.6      57.895
2014   11        6     7  56    6.66   461.0    7.5      57.880
2014   11        6     8   2    6.66   461.2    7.5      57.863
2014   11        6     8   7    6.66   461.3    7.5      57.846
2014   11        6     8  13    6.65   461.4    7.5      57.829
2014   11        6     8  18    6.65   461.5    7.5      57.812
2014   11        6     8  23    6.64   461.6    7.5      57.794
2014   11        6     8  29    6.64   461.7    7.5      57.776
2014   11        6     8  34    6.63   461.9    7.5      57.758
2014   11        6     8  40    6.63   462.0    7.5      57.740
2014   11        6     8  45    6.62   462.1    7.5      57.722
2014   11        6     8  51    6.62   462.2    7.5      57.703
2014   11        6     8  56    6.61   462.3    7.4      57.685
2014   11        6     9   2    6.61   462.4    7.4      57.667
2014   11        6     9   7    6.60   462.6    7.4      57.649
2014   11        6     9  13    6.60   462.7    7.4      57.630
2014   11        6     9  18    6.59   462.8    7.4      57.612
2014   11        6     9  23    6.59   462.9    7.4      57.595
2014   11        6     9  29    6.58   463.0    7.4      57.578
2014   11        6     9  34    6.58   463.2    7.4      57.561
2014   11        6     9  40    6.57   463.3    7.4      57.544
2014   11        6     9  45    6.57   463.4    7.4      57.528
2014   11        6     9  51    6.57   463.5    7.4      57.511
2014   11        6     9  56    6.56   463.6    7.4      57.495
2014   11        6    10   2    6.56   463.8    7.3      57.478
2014   11        6    10   7    6.55   463.9    7.3      57.462
2014   11        6    10  13    6.55   464.0    7.3      57.445
2014   11        6    10  18    6.54   464.1    7.3      57.428
2014   11        6    10  24    6.54   464.2    7.3      57.410
2014   11        6    10  29    6.53   464.3    7.3      57.393
2014   11        6    10  34    6.53   464.4    7.3      57.374
2014   11        6    10  40    6.52   464.6    7.3      57.356
2014   11        6    10  45    6.52   464.7    7.3      57.337
2014   11        6    10  51    6.51   464.8    7.3      57.317
2014   11        6    10  56    6.51   464.9    7.3      57.297
2014   11        6    11   2    6.50   465.0    7.3      57.276
2014   11        6    11   7    6.50   465.1    7.2      57.255
2014   11        6    11  13    6.49   465.2    7.2      57.233
2014   11        6    11  18    6.49   465.3    7.2      57.211
2014   11        6    11  24    6.48   465.4    7.2      57.189
2014   11        6    11  29    6.48   465.5    7.2      57.166
2014   11        6    11  35    6.47   465.6    7.2      57.143
2014   11        6    11  40    6.47   465.7    7.2      57.119
2014   11        6    11  45    6.46   465.8    7.2      57.095
2014   11        6    11  51    6.46   465.9    7.2      57.071
2014   11        6    11  56    6.45   466.0    7.2      57.047
2014   11        6    12   2    6.45   466.1    7.2      57.023
2014   11        6    12   7    6.44   466.2    7.2      56.998
2014   11        6    12  13    6.44   466.3    7.1      56.973
2014   11        6    12  18    6.44   466.4    7.1      56.948
2014   11        6    12  24    6.43   466.4    7.1      56.923
2014   11        6    12  29    6.43   466.5    7.1      56.898
2014   11        6    12  35    6.42   466.6    7.1      56.873
2014   11        6    12  40    6.42   466.7    7.1      56.848
2014   11        6    12  45    6.41   466.8    7.1      56.822
2014   11        6    12  51    6.41   466.9    7.1      56.797
2014   11        6    12  56    6.40   467.0    7.1      56.772
2014   11        6    13   2    6.40   467.0    7.1      56.748
2014   11        6    13   7    6.39   467.1    7.1      56.723
2014   11        6    13  13    6.39   467.2    7.1      56.698
2014   11        6    13  18    6.39   467.3    7.1      56.673
2014   11        6    13  23    6.38   467.4    7.0      56.649
2014   11        6    13  29    6.38   467.4    7.0      56.625
2014   11        6    13  34    6.37   467.5    7.0      56.601
2014   11        6    13  40    6.37   467.6    7.0      56.577
2014   11        6    13  45    6.36   467.7    7.0      56.554
2014   11        6    13  51    6.36   467.8    7.0      56.530
2014   11        6    13  56    6.35   467.8    7.0      56.507
2014   11        6    14   1    6.35   467.9    7.0      56.483
2014   11        6    14   7    6.35   468.0    7.0      56.461
2014   11        6    14  12    6.34   468.0    7.0      56.437
2014   11        6    14  18    6.34   468.1    7.0      56.414
2014   11        6    14  23    6.33   468.2    7.0      56.391
2014   11        6    14  28    6.33   468.3    7.0      56.368
2014   11        6    14  34    6.33   468.3    7.0      56.344
2014   11        6    14  39    6.32   468.4    7.0      56.321
2014   11        6    14  45    6.32   468.4    6.9      56.297
2014   11        6    14  50    6.31   468.5    6.9      56.273
2014   11        6    14  55    6.31   468.6    6.9      56.248
2014   11        6    15   1    6.30   468.6    6.9      56.224
2014   11        6    15   6    6.30   468.7    6.9      56.199
2014   11        6    15  12    6.30   468.7    6.9      56.174
2014   11        6    15  17    6.29   468.8    6.9      56.148
2014   11        6    15  22    6.29   468.8    6.9      56.123
2014   11        6    15  28    6.28   468.9    6.9      56.097
2014   11        6    15  33    6.28   469.0    6.9      56.072
2014   11        6    15  39    6.27   469.0    6.9      56.045
2014   11        6    15  44    6.27   469.1    6.9      56.019
2014   11        6    15  50    6.27   469.1    6.9      55.993
2014   11        6    15  55    6.26   469.1    6.9      55.967
2014   11        6    16   1    6.26   469.2    6.9      55.941
2014   11        6    16   6    6.25   469.2    6.9      55.914
2014   11        6    16  12    6.25   469.3    6.9      55.888
2014   11        6    16  17    6.25   469.3    6.9      55.862
2014   11        6    16  22    6.24   469.4    6.8      55.837
2014   11        6    16  28    6.24   469.4    6.8      55.812
2014   11        6    16  33    6.23   469.5    6.8      55.786
2014   11        6    16  39    6.23   469.5    6.8      55.761
2014   11        6    16  44    6.23   469.5    6.8      55.737
2014   11        6    16  50    6.22   469.6    6.8      55.714
2014   11        6    16  55    6.22   469.6    6.8      55.691
2014   11        6    17   1    6.21   469.7    6.8      55.670
2014   11        6    17   6    6.21   469.7    6.8      55.649
2014   11        6    17  12    6.21   469.8    6.8      55.629
2014   11        6    17  17    6.20   469.8    6.8      55.609
2014   11        6    17  23    6.20   469.9    6.8      55.590
2014   11        6    17  28    6.20   469.9    6.8      55.571
2014   11        6    17  33    6.19   470.0    6.8      55.552
2014   11        6    17  39    6.19   470.0    6.8      55.534
2014   11        6    17  44    6.18   470.1    6.8      55.516
2014   11        6    17  50    6.18   470.1    6.8      55.498
2014   11        6    17  55    6.18   470.2    6.8      55.481
2014   11        6    18   1    6.17   470.2    6.8      55.464
2014   11        6    18   6    6.17   470.2    6.8      55.447
2014   11        6    18  12    6.17   470.3    6.8      55.430
2014   11        6    18  17    6.16   470.3    6.8      55.413
2014   11        6    18  23    6.16   470.4    6.8      55.397
2014   11        6    18  28    6.16   470.4    6.8      55.380
2014   11        6    18  34    6.15   470.5    6.8      55.364
2014   11        6    18  39    6.15   470.5    6.8      55.349
2014   11        6    18  44    6.14   470.6    6.7      55.333
2014   11        6    18  50    6.14   470.6    6.7      55.318
2014   11        6    18  55    6.14   470.7    6.7      55.302
2014   11        6    19   1    6.13   470.7    6.7      55.287
2014   11        6    19   6    6.13   470.7    6.7      55.271
2014   11        6    19  12    6.13   470.8    6.7      55.255
2014   11        6    19  17    6.12   470.8    6.7      55.239
2014   11        6    19  23    6.12   470.8    6.7      55.223
2014   11        6    19  28    6.12   470.9    6.7      55.207
2014   11        6    19  34    6.11   470.9    6.7      55.190
2014   11        6    19  39    6.11   471.0    6.7      55.173
2014   11        6    19  44    6.11   471.0    6.7      55.156
2014   11        6    19  50    6.10   471.0    6.7      55.138
2014   11        6    19  55    6.10   471.1    6.7      55.120
2014   11        6    20   1    6.10   471.1    6.7      55.102
2014   11        6    20   6    6.09   471.1    6.7      55.084
2014   11        6    20  12    6.09   471.2    6.7      55.065
2014   11        6    20  17    6.09   471.2    6.7      55.047
2014   11        6    20  23    6.08   471.2    6.7      55.028
2014   11        6    20  28    6.08   471.2    6.7      55.009
2014   11        6    20  33    6.08   471.3    6.7      54.990
2014   11        6    20  39    6.07   471.3    6.7      54.972
2014   11        6    20  44    6.07   471.3    6.7      54.953
2014   11        6    20  50    6.07   471.4    6.7      54.934
2014   11        6    20  55    6.06   471.4    6.7      54.915
2014   11        6    21   1    6.06   471.4    6.7      54.896
2014   11        6    21   6    6.06   471.4    6.7      54.877
2014   11        6    21  11    6.05   471.5    6.7      54.858
2014   11        6    21  17    6.05   471.5    6.6      54.839
2014   11        6    21  22    6.05   471.5    6.6      54.821
2014   11        6    21  28    6.05   471.5    6.6      54.802
2014   11        6    21  33    6.04   471.6    6.6      54.784
2014   11        6    21  38    6.04   471.6    6.6      54.765
2014   11        6    21  44    6.04   471.6    6.6      54.747
2014   11        6    21  49    6.03   471.6    6.6      54.728
2014   11        6    21  55    6.03   471.7    6.6      54.709
2014   11        6    22   0    6.03   471.7    6.6      54.691
2014   11        6    22   5    6.03   471.7    6.6      54.672
2014   11        6    22  11    6.02   471.7    6.6      54.653
2014   11        6    22  16    6.02   471.7    6.6      54.633
2014   11        6    22  22    6.02   471.8    6.6      54.614
2014   11        6    22  27    6.02   471.8    6.6      54.594
2014   11        6    22  33    6.01   471.8    6.6      54.574
2014   11        6    22  38    6.01   471.8    6.6      54.553
2014   11        6    22  43    6.01   471.8    6.6      54.532
2014   11        6    22  49    6.00   471.9    6.6      54.511
2014   11        6    22  54    6.00   471.9    6.6      54.489
2014   11        6    23   0    6.00   471.9    6.6      54.467
2014   11        6    23   5    6.00   471.9    6.6      54.444
2014   11        6    23  11    5.99   471.9    6.6      54.421
2014   11        6    23  16    5.99   471.9    6.6      54.398
2014   11        6    23  21    5.99   472.0    6.6      54.373
2014   11        6    23  27    5.98   472.0    6.6      54.349
2014   11        6    23  32    5.98   472.0    6.6      54.324
2014   11        6    23  38    5.98   472.0    6.6      54.299
2014   11        6    23  43    5.98   472.0    6.6      54.273
2014   11        6    23  49    5.97   472.0    6.6      54.247
2014   11        6    23  54    5.97   472.0    6.5      54.221
2014   11        7     0   0    5.97   472.0    6.5      54.194
