year    month   day   hour  minute  B_enl V_enl   n_enl       T_enl
[year] [month] [day] [hour][minute] [nT]  [km/s]  [cm-3]      [kK]
2014   10        9     0   5    5.21   366.6    8.8      29.995
2014   10        9     0  12    5.22   366.6    8.8      30.018
2014   10        9     0  18    5.22   366.5    8.8      30.041
2014   10        9     0  24    5.23   366.5    8.8      30.064
2014   10        9     0  30    5.23   366.4    8.8      30.086
2014   10        9     0  36    5.24   366.4    8.8      30.107
2014   10        9     0  42    5.24   366.4    8.8      30.129
2014   10        9     0  48    5.25   366.3    8.9      30.150
2014   10        9     0  54    5.25   366.3    8.9      30.170
2014   10        9     1   0    5.26   366.3    8.9      30.191
2014   10        9     1   6    5.26   366.2    8.9      30.210
2014   10        9     1  12    5.26   366.2    8.9      30.230
2014   10        9     1  18    5.27   366.2    8.9      30.250
2014   10        9     1  24    5.27   366.1    8.9      30.269
2014   10        9     1  30    5.28   366.1    8.9      30.288
2014   10        9     1  36    5.28   366.1    9.0      30.306
2014   10        9     1  42    5.29   366.0    9.0      30.325
2014   10        9     1  48    5.29   366.0    9.0      30.343
2014   10        9     1  54    5.30   366.0    9.0      30.361
2014   10        9     2   0    5.30   365.9    9.0      30.379
2014   10        9     2   6    5.31   365.9    9.0      30.397
2014   10        9     2  12    5.31   365.9    9.0      30.414
2014   10        9     2  18    5.32   365.8    9.0      30.431
2014   10        9     2  24    5.32   365.8    9.0      30.449
2014   10        9     2  30    5.33   365.8    9.1      30.466
2014   10        9     2  36    5.33   365.8    9.1      30.483
2014   10        9     2  42    5.34   365.7    9.1      30.500
2014   10        9     2  48    5.34   365.7    9.1      30.517
2014   10        9     2  54    5.35   365.7    9.1      30.535
2014   10        9     3   0    5.35   365.7    9.1      30.552
2014   10        9     3   6    5.36   365.6    9.1      30.570
2014   10        9     3  12    5.36   365.6    9.1      30.588
2014   10        9     3  18    5.37   365.6    9.2      30.606
2014   10        9     3  24    5.37   365.6    9.2      30.624
2014   10        9     3  30    5.38   365.5    9.2      30.643
2014   10        9     3  36    5.38   365.5    9.2      30.662
2014   10        9     3  42    5.39   365.5    9.2      30.681
2014   10        9     3  48    5.39   365.5    9.2      30.701
2014   10        9     3  54    5.40   365.5    9.2      30.722
2014   10        9     4   0    5.41   365.5    9.2      30.743
2014   10        9     4   6    5.41   365.5    9.3      30.764
2014   10        9     4  12    5.42   365.5    9.3      30.786
2014   10        9     4  18    5.42   365.4    9.3      30.809
2014   10        9     4  24    5.43   365.4    9.3      30.832
2014   10        9     4  30    5.44   365.4    9.3      30.857
2014   10        9     4  36    5.44   365.4    9.3      30.883
2014   10        9     4  42    5.45   365.4    9.4      30.910
2014   10        9     4  48    5.45   365.4    9.4      30.937
2014   10        9     4  54    5.46   365.5    9.4      30.966
2014   10        9     5   0    5.47   365.5    9.4      30.996
2014   10        9     5   6    5.47   365.5    9.4      31.027
2014   10        9     5  12    5.48   365.5    9.5      31.060
2014   10        9     5  18    5.49   365.5    9.5      31.093
2014   10        9     5  24    5.49   365.5    9.5      31.129
2014   10        9     5  30    5.50   365.6    9.5      31.166
2014   10        9     5  36    5.51   365.6    9.5      31.205
2014   10        9     5  42    5.51   365.6    9.6      31.244
2014   10        9     5  48    5.52   365.6    9.6      31.285
2014   10        9     5  54    5.52   365.7    9.6      31.327
2014   10        9     6   0    5.53   365.7    9.6      31.368
2014   10        9     6   6    5.54   365.8    9.6      31.410
2014   10        9     6  12    5.54   365.8    9.6      31.450
2014   10        9     6  18    5.55   365.8    9.7      31.489
2014   10        9     6  24    5.55   365.9    9.7      31.527
2014   10        9     6  30    5.56   365.9    9.7      31.565
2014   10        9     6  36    5.57   365.9    9.7      31.601
2014   10        9     6  42    5.57   366.0    9.7      31.636
2014   10        9     6  48    5.58   366.0    9.7      31.671
2014   10        9     6  54    5.58   366.1    9.8      31.705
2014   10        9     7   0    5.59   366.1    9.8      31.737
2014   10        9     7   6    5.59   366.1    9.8      31.769
2014   10        9     7  12    5.60   366.2    9.8      31.800
2014   10        9     7  19    5.60   366.2    9.8      31.831
2014   10        9     7  25    5.61   366.2    9.8      31.861
2014   10        9     7  31    5.61   366.3    9.8      31.890
2014   10        9     7  37    5.62   366.3    9.8      31.918
2014   10        9     7  43    5.62   366.4    9.8      31.946
2014   10        9     7  49    5.63   366.4    9.9      31.974
2014   10        9     7  55    5.63   366.4    9.9      32.001
2014   10        9     8   1    5.64   366.5    9.9      32.027
2014   10        9     8   7    5.65   366.5    9.9      32.053
2014   10        9     8  13    5.65   366.5    9.9      32.079
2014   10        9     8  19    5.66   366.6    9.9      32.104
2014   10        9     8  25    5.66   366.6    9.9      32.129
2014   10        9     8  31    5.67   366.7    9.9      32.154
2014   10        9     8  37    5.67   366.7    9.9      32.178
2014   10        9     8  43    5.68   366.7    9.9      32.202
2014   10        9     8  49    5.68   366.8    9.9      32.225
2014   10        9     8  55    5.69   366.8   10.0      32.249
2014   10        9     9   1    5.69   366.8   10.0      32.272
2014   10        9     9   7    5.70   366.9   10.0      32.295
2014   10        9     9  13    5.70   366.9   10.0      32.318
2014   10        9     9  19    5.71   367.0   10.0      32.340
2014   10        9     9  25    5.71   367.0   10.0      32.363
2014   10        9     9  31    5.72   367.0   10.0      32.385
2014   10        9     9  37    5.72   367.1   10.0      32.407
2014   10        9     9  43    5.73   367.1   10.0      32.429
2014   10        9     9  49    5.73   367.2   10.0      32.452
2014   10        9     9  55    5.74   367.2   10.0      32.474
2014   10        9    10   1    5.74   367.3   10.0      32.496
2014   10        9    10   7    5.75   367.3   10.1      32.518
2014   10        9    10  13    5.75   367.3   10.1      32.540
2014   10        9    10  19    5.76   367.4   10.1      32.562
2014   10        9    10  25    5.76   367.4   10.1      32.585
2014   10        9    10  31    5.77   367.5   10.1      32.607
2014   10        9    10  37    5.77   367.5   10.1      32.630
2014   10        9    10  43    5.78   367.6   10.1      32.653
2014   10        9    10  49    5.78   367.6   10.1      32.676
2014   10        9    10  55    5.79   367.7   10.1      32.700
2014   10        9    11   1    5.79   367.7   10.1      32.724
2014   10        9    11   7    5.80   367.8   10.1      32.748
2014   10        9    11  13    5.80   367.8   10.1      32.773
2014   10        9    11  19    5.81   367.9   10.2      32.798
2014   10        9    11  25    5.82   367.9   10.2      32.824
2014   10        9    11  31    5.82   368.0   10.2      32.850
2014   10        9    11  37    5.83   368.0   10.2      32.877
2014   10        9    11  43    5.83   368.1   10.2      32.905
2014   10        9    11  49    5.84   368.2   10.2      32.933
2014   10        9    11  55    5.84   368.2   10.2      32.962
2014   10        9    12   1    5.85   368.3   10.2      32.993
2014   10        9    12   7    5.86   368.4   10.2      33.024
2014   10        9    12  13    5.86   368.4   10.3      33.056
2014   10        9    12  19    5.87   368.5   10.3      33.088
2014   10        9    12  25    5.88   368.6   10.3      33.122
2014   10        9    12  31    5.88   368.7   10.3      33.156
2014   10        9    12  37    5.89   368.8   10.3      33.192
2014   10        9    12  43    5.89   368.8   10.3      33.229
2014   10        9    12  49    5.90   368.9   10.3      33.267
2014   10        9    12  55    5.91   369.0   10.3      33.306
2014   10        9    13   1    5.91   369.1   10.4      33.346
2014   10        9    13   7    5.92   369.2   10.4      33.387
2014   10        9    13  13    5.92   369.3   10.4      33.428
2014   10        9    13  19    5.93   369.4   10.4      33.471
2014   10        9    13  25    5.94   369.5   10.4      33.512
2014   10        9    13  31    5.94   369.6   10.4      33.554
2014   10        9    13  37    5.95   369.7   10.4      33.596
2014   10        9    13  43    5.95   369.8   10.5      33.637
2014   10        9    13  49    5.96   369.9   10.5      33.678
2014   10        9    13  55    5.97   370.0   10.5      33.718
2014   10        9    14   1    5.97   370.1   10.5      33.759
2014   10        9    14   7    5.98   370.3   10.5      33.800
2014   10        9    14  13    5.98   370.4   10.5      33.840
2014   10        9    14  20    5.99   370.5   10.5      33.880
2014   10        9    14  26    5.99   370.6   10.5      33.920
2014   10        9    14  32    6.00   370.7   10.6      33.960
2014   10        9    14  38    6.00   370.8   10.6      33.999
2014   10        9    14  44    6.01   370.9   10.6      34.037
2014   10        9    14  50    6.01   371.0   10.6      34.075
2014   10        9    14  56    6.02   371.1   10.6      34.111
2014   10        9    15   2    6.02   371.3   10.6      34.147
2014   10        9    15   8    6.03   371.4   10.6      34.181
2014   10        9    15  14    6.03   371.5   10.6      34.215
2014   10        9    15  20    6.04   371.6   10.6      34.248
2014   10        9    15  26    6.04   371.7   10.6      34.279
2014   10        9    15  32    6.05   371.8   10.6      34.310
2014   10        9    15  38    6.05   371.9   10.6      34.340
2014   10        9    15  44    6.06   372.0   10.6      34.370
2014   10        9    15  50    6.06   372.1   10.7      34.398
2014   10        9    15  56    6.06   372.2   10.7      34.425
2014   10        9    16   2    6.07   372.3   10.7      34.452
2014   10        9    16   8    6.07   372.4   10.7      34.478
2014   10        9    16  14    6.08   372.5   10.7      34.504
2014   10        9    16  20    6.08   372.6   10.7      34.528
2014   10        9    16  26    6.09   372.7   10.7      34.552
2014   10        9    16  32    6.09   372.8   10.7      34.575
2014   10        9    16  38    6.09   372.9   10.7      34.598
2014   10        9    16  44    6.10   373.0   10.7      34.620
2014   10        9    16  50    6.10   373.1   10.7      34.642
2014   10        9    16  56    6.11   373.2   10.7      34.663
2014   10        9    17   2    6.11   373.3   10.7      34.683
2014   10        9    17   8    6.11   373.4   10.7      34.703
2014   10        9    17  14    6.12   373.5   10.7      34.723
2014   10        9    17  20    6.12   373.6   10.7      34.742
2014   10        9    17  26    6.13   373.7   10.7      34.761
2014   10        9    17  32    6.13   373.8   10.7      34.780
2014   10        9    17  38    6.13   373.9   10.7      34.799
2014   10        9    17  44    6.14   374.0   10.7      34.817
2014   10        9    17  50    6.14   374.1   10.7      34.836
2014   10        9    17  56    6.15   374.2   10.7      34.854
2014   10        9    18   2    6.15   374.3   10.7      34.872
2014   10        9    18   8    6.15   374.4   10.7      34.890
2014   10        9    18  14    6.16   374.4   10.7      34.909
2014   10        9    18  20    6.16   374.5   10.7      34.927
2014   10        9    18  26    6.17   374.6   10.7      34.946
2014   10        9    18  32    6.17   374.7   10.7      34.965
2014   10        9    18  38    6.17   374.8   10.7      34.983
2014   10        9    18  44    6.18   374.9   10.7      35.003
2014   10        9    18  50    6.18   375.0   10.7      35.022
2014   10        9    18  56    6.19   375.1   10.7      35.042
2014   10        9    19   2    6.19   375.2   10.7      35.062
2014   10        9    19   8    6.20   375.3   10.7      35.082
2014   10        9    19  14    6.20   375.4   10.7      35.103
2014   10        9    19  20    6.20   375.5   10.7      35.124
2014   10        9    19  26    6.21   375.6   10.7      35.146
2014   10        9    19  32    6.21   375.8   10.7      35.168
2014   10        9    19  38    6.22   375.9   10.7      35.191
2014   10        9    19  44    6.22   376.0   10.7      35.214
2014   10        9    19  50    6.23   376.1   10.7      35.237
2014   10        9    19  56    6.23   376.2   10.7      35.262
2014   10        9    20   2    6.24   376.3   10.7      35.286
2014   10        9    20   8    6.24   376.4   10.7      35.312
2014   10        9    20  14    6.25   376.5   10.7      35.338
2014   10        9    20  20    6.25   376.6   10.7      35.365
2014   10        9    20  26    6.26   376.8   10.7      35.392
2014   10        9    20  32    6.26   376.9   10.7      35.421
2014   10        9    20  38    6.26   377.0   10.7      35.450
2014   10        9    20  44    6.27   377.1   10.7      35.480
2014   10        9    20  50    6.27   377.2   10.7      35.511
2014   10        9    20  56    6.28   377.4   10.7      35.543
2014   10        9    21   2    6.28   377.5   10.8      35.575
2014   10        9    21   8    6.29   377.6   10.8      35.609
2014   10        9    21  14    6.29   377.7   10.8      35.644
2014   10        9    21  21    6.30   377.9   10.8      35.680
2014   10        9    21  27    6.30   378.0   10.8      35.716
2014   10        9    21  33    6.31   378.1   10.8      35.754
2014   10        9    21  39    6.31   378.3   10.8      35.793
2014   10        9    21  45    6.32   378.4   10.8      35.833
2014   10        9    21  51    6.32   378.5   10.8      35.873
2014   10        9    21  57    6.33   378.7   10.8      35.914
2014   10        9    22   3    6.33   378.8   10.8      35.955
2014   10        9    22   9    6.34   378.9   10.9      35.998
2014   10        9    22  15    6.34   379.1   10.9      36.040
2014   10        9    22  21    6.34   379.2   10.9      36.082
2014   10        9    22  27    6.35   379.4   10.9      36.125
2014   10        9    22  33    6.35   379.5   10.9      36.169
2014   10        9    22  39    6.36   379.7   10.9      36.214
2014   10        9    22  45    6.36   379.8   10.9      36.260
2014   10        9    22  51    6.37   380.0   10.9      36.305
2014   10        9    22  57    6.37   380.1   10.9      36.351
2014   10        9    23   3    6.38   380.3   10.9      36.397
2014   10        9    23   9    6.38   380.4   10.9      36.443
2014   10        9    23  15    6.38   380.6   10.9      36.489
2014   10        9    23  21    6.39   380.8   11.0      36.533
2014   10        9    23  27    6.39   380.9   11.0      36.575
2014   10        9    23  33    6.39   381.1   11.0      36.616
2014   10        9    23  39    6.40   381.3   11.0      36.655
2014   10        9    23  45    6.40   381.4   11.0      36.693
2014   10        9    23  51    6.41   381.6   11.0      36.729
2014   10        9    23  57    6.41   381.7   11.0      36.763
2014   10       10     0   3    6.41   381.9   11.0      36.796
2014   10       10     0   9    6.42   382.1   11.0      36.827
2014   10       10     0  15    6.42   382.2   11.0      36.858
2014   10       10     0  21    6.42   382.4   11.0      36.886
2014   10       10     0  27    6.42   382.5   11.0      36.914
2014   10       10     0  33    6.43   382.7   11.0      36.940
2014   10       10     0  39    6.43   382.9   11.0      36.966
2014   10       10     0  45    6.43   383.0   11.0      36.990
2014   10       10     0  51    6.44   383.2   10.9      37.014
2014   10       10     0  57    6.44   383.3   10.9      37.036
2014   10       10     1   3    6.44   383.5   10.9      37.058
2014   10       10     1   9    6.44   383.6   10.9      37.079
2014   10       10     1  15    6.45   383.8   10.9      37.099
2014   10       10     1  21    6.45   383.9   10.9      37.119
2014   10       10     1  27    6.45   384.1   10.9      37.137
2014   10       10     1  33    6.46   384.2   10.9      37.156
2014   10       10     1  39    6.46   384.4   10.9      37.173
2014   10       10     1  45    6.46   384.5   10.9      37.190
2014   10       10     1  51    6.46   384.7   10.9      37.206
2014   10       10     1  57    6.47   384.8   10.9      37.222
2014   10       10     2   3    6.47   385.0   10.9      37.238
2014   10       10     2   9    6.47   385.1   10.9      37.253
2014   10       10     2  15    6.47   385.3   10.9      37.268
2014   10       10     2  21    6.48   385.4   10.8      37.282
2014   10       10     2  27    6.48   385.6   10.8      37.296
2014   10       10     2  33    6.48   385.7   10.8      37.310
2014   10       10     2  39    6.48   385.9   10.8      37.323
2014   10       10     2  45    6.49   386.0   10.8      37.337
2014   10       10     2  51    6.49   386.1   10.8      37.350
2014   10       10     2  57    6.49   386.3   10.8      37.363
2014   10       10     3   3    6.50   386.4   10.8      37.376
2014   10       10     3   9    6.50   386.6   10.8      37.389
2014   10       10     3  15    6.50   386.7   10.8      37.401
2014   10       10     3  21    6.50   386.8   10.8      37.414
2014   10       10     3  27    6.51   387.0   10.8      37.427
2014   10       10     3  33    6.51   387.1   10.8      37.440
2014   10       10     3  39    6.51   387.3   10.7      37.453
2014   10       10     3  45    6.51   387.4   10.7      37.466
2014   10       10     3  51    6.52   387.5   10.7      37.480
2014   10       10     3  57    6.52   387.7   10.7      37.493
2014   10       10     4   3    6.52   387.8   10.7      37.507
2014   10       10     4   9    6.52   387.9   10.7      37.522
2014   10       10     4  15    6.53   388.1   10.7      37.537
2014   10       10     4  21    6.53   388.2   10.7      37.552
2014   10       10     4  28    6.53   388.3   10.7      37.568
2014   10       10     4  34    6.53   388.5   10.7      37.584
2014   10       10     4  40    6.54   388.6   10.7      37.601
2014   10       10     4  46    6.54   388.7   10.7      37.619
2014   10       10     4  52    6.54   388.9   10.7      37.637
2014   10       10     4  58    6.54   389.0   10.7      37.656
2014   10       10     5   4    6.55   389.1   10.7      37.675
2014   10       10     5  10    6.55   389.2   10.7      37.697
2014   10       10     5  16    6.55   389.4   10.7      37.719
2014   10       10     5  22    6.56   389.5   10.7      37.742
2014   10       10     5  28    6.56   389.6   10.7      37.767
2014   10       10     5  34    6.56   389.8   10.7      37.791
2014   10       10     5  40    6.56   389.9   10.7      37.817
2014   10       10     5  46    6.57   390.0   10.7      37.845
2014   10       10     5  52    6.57   390.2   10.7      37.875
2014   10       10     5  58    6.57   390.3   10.7      37.906
2014   10       10     6   4    6.58   390.4   10.7      37.938
2014   10       10     6  10    6.58   390.6   10.7      37.972
2014   10       10     6  16    6.58   390.7   10.7      38.007
2014   10       10     6  22    6.58   390.9   10.7      38.045
2014   10       10     6  28    6.59   391.0   10.7      38.082
2014   10       10     6  34    6.59   391.2   10.7      38.120
2014   10       10     6  40    6.59   391.3   10.7      38.157
2014   10       10     6  46    6.60   391.5   10.7      38.194
2014   10       10     6  52    6.60   391.6   10.7      38.232
2014   10       10     6  58    6.60   391.8   10.7      38.269
2014   10       10     7   4    6.61   392.0   10.7      38.307
2014   10       10     7  10    6.61   392.1   10.7      38.346
2014   10       10     7  16    6.61   392.3   10.7      38.383
2014   10       10     7  22    6.61   392.4   10.7      38.421
2014   10       10     7  28    6.62   392.6   10.7      38.459
2014   10       10     7  34    6.62   392.8   10.8      38.498
2014   10       10     7  40    6.62   392.9   10.8      38.537
2014   10       10     7  46    6.63   393.1   10.8      38.577
2014   10       10     7  52    6.63   393.3   10.8      38.617
2014   10       10     7  58    6.63   393.5   10.8      38.657
2014   10       10     8   4    6.64   393.7   10.8      38.697
2014   10       10     8  10    6.64   393.9   10.8      38.737
2014   10       10     8  16    6.64   394.1   10.8      38.776
2014   10       10     8  22    6.65   394.2   10.8      38.814
2014   10       10     8  28    6.65   394.4   10.8      38.850
2014   10       10     8  34    6.65   394.6   10.8      38.885
2014   10       10     8  40    6.65   394.8   10.7      38.918
2014   10       10     8  46    6.66   395.0   10.7      38.949
2014   10       10     8  52    6.66   395.2   10.7      38.979
2014   10       10     8  58    6.66   395.4   10.7      39.008
2014   10       10     9   4    6.66   395.6   10.7      39.035
2014   10       10     9  10    6.67   395.8   10.7      39.061
2014   10       10     9  16    6.67   396.0   10.7      39.086
2014   10       10     9  22    6.67   396.2   10.7      39.109
2014   10       10     9  28    6.67   396.3   10.7      39.132
2014   10       10     9  34    6.68   396.5   10.7      39.153
2014   10       10     9  40    6.68   396.7   10.7      39.174
2014   10       10     9  46    6.68   396.9   10.7      39.194
2014   10       10     9  52    6.68   397.1   10.7      39.212
2014   10       10     9  58    6.68   397.3   10.7      39.231
2014   10       10    10   4    6.69   397.5   10.6      39.248
2014   10       10    10  10    6.69   397.7   10.6      39.265
2014   10       10    10  16    6.69   397.9   10.6      39.281
2014   10       10    10  22    6.69   398.1   10.6      39.296
2014   10       10    10  28    6.69   398.2   10.6      39.311
2014   10       10    10  34    6.69   398.4   10.6      39.325
2014   10       10    10  40    6.69   398.6   10.6      39.339
2014   10       10    10  46    6.70   398.8   10.6      39.353
2014   10       10    10  52    6.70   399.0   10.6      39.365
2014   10       10    10  58    6.70   399.2   10.6      39.378
2014   10       10    11   4    6.70   399.4   10.5      39.390
2014   10       10    11  10    6.70   399.6   10.5      39.402
2014   10       10    11  16    6.70   399.8   10.5      39.413
2014   10       10    11  22    6.70   400.0   10.5      39.424
2014   10       10    11  29    6.70   400.1   10.5      39.435
2014   10       10    11  35    6.70   400.3   10.5      39.446
2014   10       10    11  41    6.71   400.5   10.5      39.456
2014   10       10    11  47    6.71   400.7   10.5      39.467
2014   10       10    11  53    6.71   400.9   10.5      39.477
2014   10       10    11  59    6.71   401.1   10.4      39.486
2014   10       10    12   5    6.71   401.3   10.4      39.496
2014   10       10    12  11    6.71   401.4   10.4      39.505
2014   10       10    12  17    6.71   401.6   10.4      39.514
2014   10       10    12  23    6.71   401.8   10.4      39.523
2014   10       10    12  29    6.71   402.0   10.4      39.532
2014   10       10    12  35    6.71   402.2   10.4      39.541
2014   10       10    12  41    6.71   402.3   10.4      39.550
2014   10       10    12  47    6.71   402.5   10.4      39.559
2014   10       10    12  53    6.72   402.7   10.3      39.569
2014   10       10    12  59    6.72   402.9   10.3      39.578
2014   10       10    13   5    6.72   403.0   10.3      39.588
2014   10       10    13  11    6.72   403.2   10.3      39.598
2014   10       10    13  17    6.72   403.4   10.3      39.609
2014   10       10    13  23    6.72   403.5   10.3      39.620
2014   10       10    13  29    6.72   403.7   10.3      39.633
2014   10       10    13  35    6.72   403.9   10.3      39.646
2014   10       10    13  41    6.72   404.0   10.3      39.660
2014   10       10    13  47    6.72   404.2   10.3      39.675
2014   10       10    13  53    6.73   404.4   10.3      39.691
2014   10       10    13  59    6.73   404.5   10.3      39.709
2014   10       10    14   5    6.73   404.7   10.3      39.729
2014   10       10    14  11    6.73   404.8   10.3      39.751
2014   10       10    14  17    6.73   405.0   10.3      39.775
2014   10       10    14  23    6.74   405.2   10.2      39.801
2014   10       10    14  29    6.74   405.3   10.2      39.828
2014   10       10    14  35    6.74   405.5   10.2      39.857
2014   10       10    14  41    6.74   405.7   10.2      39.886
2014   10       10    14  47    6.74   405.8   10.2      39.919
2014   10       10    14  53    6.75   406.0   10.2      39.954
2014   10       10    14  59    6.75   406.2   10.2      39.991
2014   10       10    15   5    6.75   406.4   10.2      40.030
2014   10       10    15  11    6.76   406.5   10.2      40.069
2014   10       10    15  17    6.76   406.7   10.2      40.110
2014   10       10    15  23    6.76   406.9   10.2      40.152
2014   10       10    15  29    6.77   407.1   10.2      40.196
2014   10       10    15  35    6.77   407.3   10.2      40.237
2014   10       10    15  41    6.77   407.5   10.2      40.278
2014   10       10    15  47    6.77   407.8   10.2      40.316
2014   10       10    15  53    6.78   408.0   10.2      40.354
2014   10       10    15  59    6.78   408.2   10.2      40.389
2014   10       10    16   5    6.78   408.4   10.2      40.424
2014   10       10    16  11    6.78   408.6   10.2      40.457
2014   10       10    16  17    6.79   408.8   10.2      40.489
2014   10       10    16  23    6.79   409.0   10.2      40.520
2014   10       10    16  29    6.79   409.2   10.2      40.549
2014   10       10    16  35    6.79   409.5   10.2      40.577
2014   10       10    16  41    6.79   409.7   10.2      40.605
2014   10       10    16  47    6.80   409.9   10.2      40.631
2014   10       10    16  53    6.80   410.1   10.2      40.657
2014   10       10    16  59    6.80   410.3   10.2      40.681
2014   10       10    17   5    6.80   410.6   10.2      40.705
2014   10       10    17  11    6.80   410.8   10.2      40.729
2014   10       10    17  17    6.80   411.0   10.1      40.752
2014   10       10    17  23    6.80   411.3   10.1      40.774
2014   10       10    17  29    6.81   411.5   10.1      40.796
2014   10       10    17  35    6.81   411.7   10.1      40.818
2014   10       10    17  41    6.81   412.0   10.1      40.840
2014   10       10    17  47    6.81   412.2   10.1      40.861
2014   10       10    17  53    6.81   412.4   10.1      40.882
2014   10       10    17  59    6.81   412.7   10.1      40.902
2014   10       10    18   5    6.81   412.9   10.1      40.923
2014   10       10    18  11    6.81   413.2   10.1      40.944
2014   10       10    18  17    6.81   413.4   10.0      40.964
2014   10       10    18  23    6.81   413.6   10.0      40.984
2014   10       10    18  30    6.81   413.9   10.0      41.005
2014   10       10    18  36    6.81   414.1   10.0      41.025
2014   10       10    18  42    6.81   414.4   10.0      41.045
2014   10       10    18  48    6.82   414.6   10.0      41.066
2014   10       10    18  54    6.82   414.8   10.0      41.086
2014   10       10    19   0    6.82   415.1   10.0      41.106
2014   10       10    19   6    6.82   415.3   10.0      41.127
2014   10       10    19  12    6.82   415.6    9.9      41.148
2014   10       10    19  18    6.82   415.8    9.9      41.168
2014   10       10    19  24    6.82   416.1    9.9      41.189
2014   10       10    19  30    6.82   416.3    9.9      41.210
2014   10       10    19  36    6.82   416.6    9.9      41.230
2014   10       10    19  42    6.82   416.8    9.9      41.251
2014   10       10    19  48    6.82   417.1    9.9      41.272
2014   10       10    19  54    6.82   417.3    9.9      41.293
2014   10       10    20   0    6.82   417.6    9.8      41.314
2014   10       10    20   6    6.82   417.8    9.8      41.335
2014   10       10    20  12    6.82   418.1    9.8      41.356
2014   10       10    20  18    6.82   418.3    9.8      41.377
2014   10       10    20  24    6.82   418.5    9.8      41.398
2014   10       10    20  30    6.82   418.8    9.8      41.419
2014   10       10    20  36    6.82   419.0    9.8      41.441
2014   10       10    20  42    6.82   419.3    9.8      41.462
2014   10       10    20  48    6.82   419.5    9.7      41.484
2014   10       10    20  54    6.82   419.8    9.7      41.506
2014   10       10    21   0    6.82   420.0    9.7      41.529
2014   10       10    21   6    6.82   420.3    9.7      41.551
2014   10       10    21  12    6.82   420.5    9.7      41.574
2014   10       10    21  18    6.82   420.8    9.7      41.598
2014   10       10    21  24    6.82   421.0    9.7      41.622
2014   10       10    21  30    6.82   421.3    9.7      41.647
2014   10       10    21  36    6.82   421.5    9.6      41.672
2014   10       10    21  42    6.82   421.7    9.6      41.697
2014   10       10    21  48    6.82   422.0    9.6      41.723
2014   10       10    21  54    6.82   422.2    9.6      41.749
2014   10       10    22   0    6.82   422.5    9.6      41.776
2014   10       10    22   6    6.82   422.7    9.6      41.803
2014   10       10    22  12    6.82   423.0    9.6      41.831
2014   10       10    22  18    6.82   423.2    9.6      41.859
2014   10       10    22  24    6.82   423.5    9.6      41.887
2014   10       10    22  30    6.82   423.7    9.5      41.916
2014   10       10    22  36    6.82   424.0    9.5      41.944
2014   10       10    22  42    6.82   424.2    9.5      41.972
2014   10       10    22  48    6.82   424.5    9.5      42.001
2014   10       10    22  54    6.82   424.8    9.5      42.028
2014   10       10    23   0    6.82   425.0    9.5      42.055
2014   10       10    23   6    6.82   425.3    9.5      42.081
2014   10       10    23  12    6.82   425.5    9.5      42.106
2014   10       10    23  18    6.82   425.8    9.5      42.131
2014   10       10    23  24    6.82   426.0    9.4      42.155
2014   10       10    23  30    6.82   426.3    9.4      42.178
2014   10       10    23  36    6.82   426.6    9.4      42.201
2014   10       10    23  42    6.82   426.8    9.4      42.223
2014   10       10    23  48    6.82   427.1    9.4      42.244
2014   10       10    23  54    6.82   427.3    9.4      42.266
2014   10       11     0   0    6.82   427.6    9.4      42.287
2014   10       11     0   6    6.82   427.8    9.4      42.309
2014   10       11     0  12    6.82   428.1    9.3      42.331
2014   10       11     0  18    6.82   428.3    9.3      42.352
2014   10       11     0  24    6.82   428.6    9.3      42.375
2014   10       11     0  30    6.82   428.8    9.3      42.398
2014   10       11     0  36    6.82   429.1    9.3      42.422
2014   10       11     0  42    6.82   429.4    9.3      42.446
2014   10       11     0  48    6.82   429.6    9.3      42.470
2014   10       11     0  54    6.81   429.9    9.3      42.495
2014   10       11     1   0    6.81   430.2    9.2      42.520
2014   10       11     1   6    6.81   430.4    9.2      42.544
2014   10       11     1  12    6.81   430.7    9.2      42.569
2014   10       11     1  18    6.81   431.0    9.2      42.593
2014   10       11     1  24    6.81   431.2    9.2      42.617
2014   10       11     1  30    6.81   431.5    9.2      42.641
2014   10       11     1  36    6.81   431.8    9.2      42.665
2014   10       11     1  42    6.81   432.0    9.2      42.689
2014   10       11     1  48    6.80   432.3    9.1      42.714
2014   10       11     1  54    6.80   432.6    9.1      42.738
2014   10       11     2   0    6.80   432.8    9.1      42.763
2014   10       11     2   6    6.80   433.1    9.1      42.787
2014   10       11     2  12    6.80   433.4    9.1      42.812
2014   10       11     2  18    6.80   433.6    9.1      42.837
2014   10       11     2  24    6.79   433.9    9.1      42.861
2014   10       11     2  30    6.79   434.2    9.0      42.886
2014   10       11     2  36    6.79   434.5    9.0      42.911
2014   10       11     2  42    6.79   434.7    9.0      42.936
2014   10       11     2  48    6.79   435.0    9.0      42.961
2014   10       11     2  54    6.78   435.3    9.0      42.985
2014   10       11     3   0    6.78   435.5    9.0      43.010
2014   10       11     3   6    6.78   435.8    9.0      43.034
2014   10       11     3  12    6.78   436.1    8.9      43.058
2014   10       11     3  18    6.78   436.4    8.9      43.082
2014   10       11     3  24    6.77   436.6    8.9      43.106
2014   10       11     3  30    6.77   436.9    8.9      43.129
2014   10       11     3  36    6.77   437.2    8.9      43.152
2014   10       11     3  42    6.77   437.5    8.9      43.175
2014   10       11     3  48    6.77   437.8    8.9      43.198
2014   10       11     3  54    6.76   438.0    8.8      43.220
2014   10       11     4   0    6.76   438.3    8.8      43.242
2014   10       11     4   6    6.76   438.6    8.8      43.263
2014   10       11     4  12    6.76   438.9    8.8      43.284
2014   10       11     4  18    6.75   439.1    8.8      43.304
2014   10       11     4  24    6.75   439.4    8.8      43.324
2014   10       11     4  30    6.75   439.7    8.7      43.344
2014   10       11     4  36    6.75   440.0    8.7      43.363
2014   10       11     4  42    6.74   440.2    8.7      43.381
2014   10       11     4  48    6.74   440.5    8.7      43.399
2014   10       11     4  54    6.74   440.8    8.7      43.416
2014   10       11     5   0    6.73   441.0    8.7      43.432
2014   10       11     5   6    6.73   441.3    8.7      43.448
2014   10       11     5  12    6.73   441.6    8.6      43.463
2014   10       11     5  18    6.73   441.9    8.6      43.477
2014   10       11     5  24    6.72   442.1    8.6      43.490
2014   10       11     5  30    6.72   442.4    8.6      43.502
2014   10       11     5  36    6.72   442.7    8.6      43.513
2014   10       11     5  42    6.71   443.0    8.5      43.524
2014   10       11     5  48    6.71   443.2    8.5      43.534
2014   10       11     5  54    6.71   443.5    8.5      43.543
2014   10       11     6   0    6.70   443.8    8.5      43.550
2014   10       11     6   6    6.70   444.1    8.5      43.558
2014   10       11     6  12    6.69   444.3    8.5      43.563
2014   10       11     6  18    6.69   444.6    8.4      43.567
2014   10       11     6  24    6.69   444.8    8.4      43.569
2014   10       11     6  30    6.68   445.0    8.4      43.570
2014   10       11     6  36    6.68   445.3    8.4      43.571
2014   10       11     6  42    6.67   445.5    8.4      43.571
2014   10       11     6  48    6.67   445.7    8.4      43.571
2014   10       11     6  54    6.67   445.9    8.3      43.571
2014   10       11     7   0    6.66   446.1    8.3      43.571
2014   10       11     7   6    6.66   446.3    8.3      43.571
2014   10       11     7  12    6.65   446.5    8.3      43.573
2014   10       11     7  18    6.65   446.7    8.3      43.575
2014   10       11     7  24    6.65   446.9    8.3      43.578
2014   10       11     7  30    6.64   447.1    8.2      43.582
2014   10       11     7  36    6.64   447.3    8.2      43.589
2014   10       11     7  42    6.64   447.5    8.2      43.597
2014   10       11     7  48    6.63   447.8    8.2      43.607
2014   10       11     7  54    6.63   448.0    8.2      43.618
2014   10       11     8   0    6.63   448.2    8.2      43.629
2014   10       11     8   6    6.62   448.5    8.2      43.641
2014   10       11     8  12    6.62   448.7    8.1      43.653
2014   10       11     8  18    6.62   449.0    8.1      43.664
2014   10       11     8  25    6.61   449.2    8.1      43.672
2014   10       11     8  31    6.61   449.5    8.1      43.678
2014   10       11     8  37    6.60   449.7    8.1      43.683
2014   10       11     8  43    6.60   449.9    8.1      43.687
2014   10       11     8  49    6.60   450.1    8.1      43.690
2014   10       11     8  55    6.59   450.3    8.0      43.693
2014   10       11     9   1    6.59   450.6    8.0      43.695
2014   10       11     9   7    6.58   450.8    8.0      43.697
2014   10       11     9  13    6.58   451.0    8.0      43.699
2014   10       11     9  19    6.58   451.2    8.0      43.701
2014   10       11     9  25    6.57   451.5    8.0      43.702
2014   10       11     9  31    6.57   451.7    8.0      43.703
2014   10       11     9  37    6.56   451.9    7.9      43.703
2014   10       11     9  43    6.56   452.1    7.9      43.703
2014   10       11     9  49    6.55   452.3    7.9      43.703
2014   10       11     9  55    6.55   452.5    7.9      43.704
2014   10       11    10   1    6.54   452.7    7.9      43.704
2014   10       11    10   7    6.54   452.9    7.9      43.705
2014   10       11    10  13    6.53   453.1    7.9      43.706
2014   10       11    10  19    6.53   453.3    7.8      43.707
2014   10       11    10  25    6.53   453.6    7.8      43.709
2014   10       11    10  31    6.52   453.8    7.8      43.712
2014   10       11    10  37    6.52   454.0    7.8      43.715
2014   10       11    10  43    6.51   454.2    7.8      43.718
2014   10       11    10  49    6.51   454.5    7.8      43.721
2014   10       11    10  55    6.50   454.7    7.8      43.724
2014   10       11    11   1    6.50   454.9    7.7      43.725
2014   10       11    11   7    6.49   455.2    7.7      43.726
2014   10       11    11  13    6.49   455.4    7.7      43.725
2014   10       11    11  19    6.48   455.6    7.7      43.724
2014   10       11    11  25    6.48   455.8    7.7      43.721
2014   10       11    11  31    6.47   456.1    7.7      43.717
2014   10       11    11  37    6.47   456.3    7.7      43.713
2014   10       11    11  43    6.46   456.5    7.6      43.707
2014   10       11    11  49    6.46   456.7    7.6      43.701
2014   10       11    11  55    6.45   456.9    7.6      43.694
2014   10       11    12   1    6.45   457.1    7.6      43.685
2014   10       11    12   7    6.44   457.3    7.6      43.677
2014   10       11    12  13    6.44   457.5    7.6      43.667
2014   10       11    12  19    6.43   457.7    7.5      43.656
2014   10       11    12  25    6.43   457.9    7.5      43.644
2014   10       11    12  31    6.42   458.1    7.5      43.630
2014   10       11    12  37    6.42   458.3    7.5      43.616
2014   10       11    12  43    6.41   458.5    7.5      43.601
2014   10       11    12  49    6.41   458.7    7.5      43.587
2014   10       11    12  55    6.40   458.9    7.5      43.572
2014   10       11    13   2    6.40   459.1    7.4      43.556
2014   10       11    13   8    6.39   459.3    7.4      43.539
2014   10       11    13  14    6.39   459.4    7.4      43.521
2014   10       11    13  20    6.38   459.6    7.4      43.502
2014   10       11    13  26    6.37   459.8    7.4      43.482
2014   10       11    13  32    6.37   459.9    7.4      43.460
2014   10       11    13  38    6.36   460.0    7.3      43.436
2014   10       11    13  44    6.36   460.2    7.3      43.413
2014   10       11    13  50    6.35   460.3    7.3      43.391
2014   10       11    13  56    6.35   460.4    7.3      43.368
2014   10       11    14   2    6.34   460.5    7.3      43.346
2014   10       11    14   8    6.34   460.6    7.3      43.325
2014   10       11    14  14    6.33   460.7    7.3      43.305
2014   10       11    14  20    6.33   460.8    7.3      43.285
2014   10       11    14  26    6.32   460.9    7.2      43.266
2014   10       11    14  32    6.32   461.0    7.2      43.248
2014   10       11    14  38    6.31   461.1    7.2      43.231
2014   10       11    14  44    6.31   461.3    7.2      43.215
2014   10       11    14  50    6.31   461.4    7.2      43.201
2014   10       11    14  56    6.30   461.5    7.2      43.188
2014   10       11    15   2    6.30   461.6    7.2      43.176
2014   10       11    15   8    6.29   461.8    7.2      43.164
2014   10       11    15  14    6.29   461.9    7.2      43.152
2014   10       11    15  20    6.28   462.1    7.2      43.140
2014   10       11    15  26    6.28   462.2    7.1      43.127
2014   10       11    15  32    6.27   462.4    7.1      43.112
2014   10       11    15  38    6.27   462.5    7.1      43.096
2014   10       11    15  44    6.27   462.6    7.1      43.078
2014   10       11    15  50    6.26   462.8    7.1      43.059
2014   10       11    15  56    6.26   462.9    7.1      43.038
2014   10       11    16   2    6.25   463.0    7.1      43.017
2014   10       11    16   8    6.25   463.1    7.1      42.996
2014   10       11    16  14    6.24   463.3    7.1      42.974
2014   10       11    16  20    6.24   463.4    7.0      42.951
2014   10       11    16  26    6.23   463.5    7.0      42.929
2014   10       11    16  32    6.23   463.7    7.0      42.906
2014   10       11    16  38    6.22   463.8    7.0      42.883
2014   10       11    16  44    6.22   463.9    7.0      42.860
2014   10       11    16  50    6.21   464.0    7.0      42.836
2014   10       11    16  56    6.21   464.2    7.0      42.812
2014   10       11    17   2    6.20   464.3    7.0      42.787
2014   10       11    17   8    6.20   464.4    6.9      42.763
2014   10       11    17  14    6.19   464.5    6.9      42.739
2014   10       11    17  20    6.19   464.6    6.9      42.715
2014   10       11    17  26    6.18   464.7    6.9      42.691
2014   10       11    17  32    6.18   464.8    6.9      42.668
2014   10       11    17  39    6.17   464.9    6.9      42.646
2014   10       11    17  45    6.17   465.0    6.9      42.624
2014   10       11    17  51    6.16   465.1    6.9      42.603
2014   10       11    17  57    6.16   465.2    6.9      42.583
2014   10       11    18   3    6.15   465.4    6.9      42.563
2014   10       11    18   9    6.15   465.5    6.8      42.544
2014   10       11    18  15    6.14   465.6    6.8      42.524
2014   10       11    18  21    6.14   465.7    6.8      42.504
2014   10       11    18  27    6.13   465.9    6.8      42.483
2014   10       11    18  33    6.13   466.0    6.8      42.461
2014   10       11    18  39    6.12   466.1    6.8      42.438
2014   10       11    18  45    6.12   466.2    6.8      42.415
2014   10       11    18  51    6.11   466.3    6.8      42.391
2014   10       11    18  57    6.11   466.4    6.8      42.367
2014   10       11    19   3    6.10   466.5    6.8      42.342
2014   10       11    19   9    6.10   466.6    6.7      42.317
2014   10       11    19  15    6.09   466.7    6.7      42.292
2014   10       11    19  21    6.09   466.8    6.7      42.267
2014   10       11    19  27    6.09   466.9    6.7      42.241
2014   10       11    19  33    6.08   467.0    6.7      42.216
2014   10       11    19  39    6.08   467.0    6.7      42.190
2014   10       11    19  45    6.07   467.1    6.7      42.164
2014   10       11    19  51    6.07   467.2    6.7      42.139
2014   10       11    19  57    6.06   467.3    6.7      42.113
2014   10       11    20   3    6.06   467.3    6.7      42.088
2014   10       11    20   9    6.05   467.4    6.7      42.063
2014   10       11    20  15    6.05   467.5    6.7      42.038
2014   10       11    20  21    6.04   467.5    6.6      42.013
2014   10       11    20  27    6.04   467.6    6.6      41.989
2014   10       11    20  33    6.04   467.6    6.6      41.965
2014   10       11    20  39    6.03   467.7    6.6      41.941
2014   10       11    20  45    6.03   467.7    6.6      41.919
2014   10       11    20  51    6.02   467.8    6.6      41.896
2014   10       11    20  57    6.02   467.8    6.6      41.874
2014   10       11    21   3    6.02   467.9    6.6      41.853
2014   10       11    21   9    6.01   467.9    6.6      41.832
2014   10       11    21  15    6.01   468.0    6.6      41.811
2014   10       11    21  21    6.01   468.0    6.6      41.791
2014   10       11    21  27    6.00   468.1    6.6      41.771
2014   10       11    21  33    6.00   468.1    6.6      41.752
2014   10       11    21  39    6.00   468.1    6.6      41.733
2014   10       11    21  45    5.99   468.2    6.6      41.714
2014   10       11    21  51    5.99   468.2    6.6      41.696
2014   10       11    21  57    5.98   468.3    6.6      41.677
2014   10       11    22   3    5.98   468.3    6.5      41.658
2014   10       11    22   9    5.98   468.4    6.5      41.640
2014   10       11    22  15    5.97   468.4    6.5      41.621
2014   10       11    22  21    5.97   468.5    6.5      41.602
2014   10       11    22  27    5.97   468.5    6.5      41.583
2014   10       11    22  33    5.96   468.6    6.5      41.563
2014   10       11    22  39    5.96   468.6    6.5      41.542
2014   10       11    22  46    5.96   468.7    6.5      41.522
2014   10       11    22  52    5.95   468.7    6.5      41.501
2014   10       11    22  58    5.95   468.8    6.5      41.480
2014   10       11    23   4    5.95   468.8    6.5      41.459
2014   10       11    23  10    5.94   468.9    6.5      41.437
2014   10       11    23  16    5.94   468.9    6.5      41.416
2014   10       11    23  22    5.94   469.0    6.5      41.394
2014   10       11    23  28    5.93   469.0    6.5      41.372
2014   10       11    23  34    5.93   469.1    6.5      41.349
2014   10       11    23  40    5.93   469.1    6.5      41.327
2014   10       11    23  46    5.92   469.2    6.5      41.305
2014   10       11    23  52    5.92   469.2    6.4      41.282
2014   10       11    23  58    5.91   469.2    6.4      41.260
2014   10       12     0   4    5.91   469.3    6.4      41.238
2014   10       12     0  10    5.91   469.3    6.4      41.215
2014   10       12     0  16    5.90   469.4    6.4      41.193
2014   10       12     0  22    5.90   469.4    6.4      41.170
2014   10       12     0  28    5.90   469.5    6.4      41.148
2014   10       12     0  34    5.89   469.5    6.4      41.125
2014   10       12     0  40    5.89   469.5    6.4      41.102
2014   10       12     0  46    5.89   469.6    6.4      41.080
2014   10       12     0  52    5.88   469.6    6.4      41.058
2014   10       12     0  58    5.88   469.7    6.4      41.035
2014   10       12     1   4    5.88   469.7    6.4      41.013
2014   10       12     1  10    5.87   469.7    6.4      40.991
2014   10       12     1  16    5.87   469.8    6.4      40.969
2014   10       12     1  22    5.87   469.8    6.4      40.948
2014   10       12     1  28    5.86   469.9    6.4      40.926
2014   10       12     1  34    5.86   469.9    6.4      40.905
2014   10       12     1  40    5.86   469.9    6.3      40.884
2014   10       12     1  46    5.85   469.9    6.3      40.864
2014   10       12     1  52    5.85   470.0    6.3      40.843
2014   10       12     1  58    5.85   470.0    6.3      40.823
2014   10       12     2   4    5.85   470.0    6.3      40.803
2014   10       12     2  10    5.84   470.1    6.3      40.784
2014   10       12     2  16    5.84   470.1    6.3      40.765
2014   10       12     2  22    5.84   470.1    6.3      40.746
2014   10       12     2  28    5.83   470.1    6.3      40.728
2014   10       12     2  35    5.83   470.2    6.3      40.710
2014   10       12     2  41    5.83   470.2    6.3      40.692
2014   10       12     2  47    5.83   470.2    6.3      40.675
2014   10       12     2  53    5.82   470.2    6.3      40.658
2014   10       12     2  59    5.82   470.3    6.3      40.642
2014   10       12     3   5    5.82   470.3    6.3      40.626
2014   10       12     3  11    5.81   470.3    6.3      40.610
2014   10       12     3  17    5.81   470.3    6.3      40.595
2014   10       12     3  23    5.81   470.3    6.3      40.580
2014   10       12     3  29    5.81   470.4    6.3      40.565
2014   10       12     3  35    5.80   470.4    6.3      40.550
2014   10       12     3  41    5.80   470.4    6.3      40.536
2014   10       12     3  47    5.80   470.4    6.3      40.523
2014   10       12     3  53    5.80   470.4    6.3      40.509
2014   10       12     3  59    5.80   470.4    6.3      40.496
2014   10       12     4   5    5.79   470.4    6.3      40.483
2014   10       12     4  11    5.79   470.5    6.3      40.470
2014   10       12     4  17    5.79   470.5    6.3      40.457
2014   10       12     4  23    5.79   470.5    6.3      40.445
2014   10       12     4  29    5.78   470.5    6.3      40.432
2014   10       12     4  35    5.78   470.5    6.3      40.420
2014   10       12     4  41    5.78   470.5    6.3      40.408
2014   10       12     4  47    5.78   470.5    6.3      40.396
2014   10       12     4  53    5.78   470.5    6.3      40.384
2014   10       12     4  59    5.78   470.6    6.3      40.372
2014   10       12     5   5    5.77   470.6    6.2      40.360
2014   10       12     5  11    5.77   470.6    6.2      40.348
2014   10       12     5  17    5.77   470.6    6.2      40.336
2014   10       12     5  23    5.77   470.6    6.2      40.323
2014   10       12     5  29    5.77   470.6    6.2      40.311
2014   10       12     5  35    5.76   470.6    6.2      40.299
2014   10       12     5  41    5.76   470.6    6.2      40.287
2014   10       12     5  47    5.76   470.6    6.2      40.274
2014   10       12     5  53    5.76   470.6    6.2      40.262
2014   10       12     5  59    5.76   470.6    6.2      40.249
2014   10       12     6   5    5.76   470.6    6.2      40.237
2014   10       12     6  11    5.75   470.6    6.2      40.224
2014   10       12     6  17    5.75   470.6    6.2      40.212
2014   10       12     6  23    5.75   470.6    6.2      40.199
2014   10       12     6  29    5.75   470.6    6.2      40.186
2014   10       12     6  35    5.75   470.7    6.2      40.173
2014   10       12     6  41    5.75   470.7    6.2      40.160
2014   10       12     6  47    5.74   470.7    6.2      40.147
2014   10       12     6  53    5.74   470.7    6.2      40.134
2014   10       12     6  59    5.74   470.7    6.2      40.121
2014   10       12     7   5    5.74   470.7    6.2      40.108
2014   10       12     7  11    5.74   470.7    6.2      40.095
2014   10       12     7  18    5.74   470.7    6.2      40.082
2014   10       12     7  24    5.73   470.7    6.2      40.069
2014   10       12     7  30    5.73   470.7    6.2      40.055
2014   10       12     7  36    5.73   470.7    6.2      40.042
2014   10       12     7  42    5.73   470.7    6.2      40.029
2014   10       12     7  48    5.73   470.7    6.2      40.016
2014   10       12     7  54    5.73   470.7    6.2      40.003
2014   10       12     8   0    5.73   470.7    6.2      39.990
2014   10       12     8   6    5.72   470.7    6.2      39.977
2014   10       12     8  12    5.72   470.7    6.2      39.965
2014   10       12     8  18    5.72   470.7    6.2      39.952
2014   10       12     8  24    5.72   470.7    6.2      39.939
2014   10       12     8  30    5.72   470.7    6.2      39.927
2014   10       12     8  36    5.72   470.7    6.2      39.915
2014   10       12     8  42    5.72   470.7    6.2      39.903
2014   10       12     8  48    5.72   470.7    6.2      39.891
2014   10       12     8  54    5.71   470.7    6.2      39.879
2014   10       12     9   0    5.71   470.7    6.2      39.868
2014   10       12     9   6    5.71   470.7    6.2      39.856
2014   10       12     9  12    5.71   470.7    6.2      39.845
2014   10       12     9  18    5.71   470.7    6.2      39.834
2014   10       12     9  24    5.71   470.7    6.2      39.824
2014   10       12     9  30    5.71   470.7    6.2      39.814
2014   10       12     9  36    5.71   470.7    6.2      39.804
2014   10       12     9  42    5.71   470.7    6.2      39.794
2014   10       12     9  48    5.70   470.7    6.2      39.785
2014   10       12     9  54    5.70   470.7    6.2      39.776
2014   10       12    10   0    5.70   470.7    6.2      39.767
2014   10       12    10   6    5.70   470.7    6.2      39.758
2014   10       12    10  12    5.70   470.6    6.2      39.750
2014   10       12    10  18    5.70   470.6    6.2      39.742
2014   10       12    10  24    5.70   470.6    6.2      39.734
2014   10       12    10  30    5.70   470.6    6.2      39.727
2014   10       12    10  36    5.70   470.6    6.2      39.720
2014   10       12    10  42    5.70   470.6    6.2      39.713
2014   10       12    10  48    5.70   470.6    6.2      39.706
2014   10       12    10  54    5.70   470.6    6.2      39.700
2014   10       12    11   0    5.70   470.6    6.2      39.694
2014   10       12    11   6    5.70   470.6    6.2      39.688
2014   10       12    11  12    5.70   470.6    6.2      39.682
2014   10       12    11  18    5.70   470.6    6.2      39.677
2014   10       12    11  24    5.70   470.6    6.2      39.671
2014   10       12    11  30    5.69   470.6    6.2      39.666
2014   10       12    11  36    5.69   470.6    6.2      39.661
2014   10       12    11  42    5.69   470.6    6.2      39.657
2014   10       12    11  48    5.69   470.6    6.2      39.652
2014   10       12    11  54    5.69   470.6    6.2      39.648
2014   10       12    12   0    5.69   470.6    6.2      39.643
2014   10       12    12   6    5.69   470.6    6.2      39.639
2014   10       12    12  12    5.69   470.6    6.2      39.635
2014   10       12    12  19    5.69   470.6    6.2      39.631
2014   10       12    12  25    5.69   470.6    6.2      39.627
2014   10       12    12  31    5.69   470.5    6.2      39.623
2014   10       12    12  37    5.69   470.5    6.2      39.619
2014   10       12    12  43    5.69   470.5    6.2      39.615
2014   10       12    12  49    5.69   470.5    6.2      39.611
2014   10       12    12  55    5.69   470.5    6.2      39.608
2014   10       12    13   1    5.69   470.5    6.2      39.604
2014   10       12    13   7    5.69   470.5    6.2      39.600
2014   10       12    13  13    5.69   470.5    6.2      39.596
2014   10       12    13  19    5.69   470.5    6.2      39.593
2014   10       12    13  25    5.69   470.5    6.2      39.589
2014   10       12    13  31    5.69   470.5    6.2      39.586
2014   10       12    13  37    5.69   470.5    6.2      39.582
2014   10       12    13  43    5.69   470.5    6.2      39.579
2014   10       12    13  49    5.69   470.4    6.2      39.575
2014   10       12    13  55    5.69   470.4    6.2      39.572
2014   10       12    14   1    5.69   470.4    6.2      39.568
2014   10       12    14   7    5.69   470.4    6.2      39.565
2014   10       12    14  13    5.69   470.4    6.2      39.562
2014   10       12    14  19    5.69   470.4    6.2      39.558
2014   10       12    14  25    5.69   470.4    6.2      39.555
2014   10       12    14  31    5.69   470.4    6.2      39.552
2014   10       12    14  37    5.69   470.4    6.2      39.549
2014   10       12    14  43    5.69   470.4    6.2      39.545
2014   10       12    14  49    5.69   470.3    6.2      39.543
2014   10       12    14  55    5.69   470.3    6.2      39.540
2014   10       12    15   1    5.69   470.3    6.2      39.537
2014   10       12    15   7    5.69   470.3    6.2      39.535
2014   10       12    15  13    5.69   470.3    6.2      39.532
2014   10       12    15  19    5.69   470.3    6.2      39.530
2014   10       12    15  25    5.69   470.3    6.2      39.528
2014   10       12    15  31    5.70   470.3    6.2      39.526
2014   10       12    15  37    5.70   470.3    6.2      39.525
2014   10       12    15  43    5.70   470.2    6.2      39.523
2014   10       12    15  49    5.70   470.2    6.2      39.522
2014   10       12    15  55    5.70   470.2    6.2      39.522
2014   10       12    16   1    5.70   470.2    6.2      39.521
2014   10       12    16   7    5.70   470.2    6.2      39.521
2014   10       12    16  13    5.70   470.2    6.2      39.522
2014   10       12    16  20    5.70   470.2    6.2      39.522
2014   10       12    16  26    5.70   470.2    6.2      39.523
2014   10       12    16  32    5.70   470.2    6.2      39.525
2014   10       12    16  38    5.70   470.2    6.2      39.527
2014   10       12    16  44    5.71   470.2    6.2      39.529
2014   10       12    16  50    5.71   470.2    6.2      39.532
2014   10       12    16  56    5.71   470.2    6.2      39.535
2014   10       12    17   2    5.71   470.2    6.2      39.538
2014   10       12    17   8    5.71   470.2    6.2      39.542
2014   10       12    17  14    5.71   470.2    6.2      39.547
2014   10       12    17  20    5.71   470.2    6.2      39.551
2014   10       12    17  26    5.71   470.2    6.2      39.557
2014   10       12    17  32    5.71   470.2    6.2      39.562
2014   10       12    17  38    5.72   470.2    6.2      39.568
2014   10       12    17  44    5.72   470.2    6.2      39.574
2014   10       12    17  50    5.72   470.2    6.2      39.581
2014   10       12    17  56    5.72   470.2    6.2      39.588
2014   10       12    18   2    5.72   470.2    6.2      39.595
2014   10       12    18   8    5.72   470.2    6.2      39.603
2014   10       12    18  14    5.72   470.2    6.2      39.611
2014   10       12    18  20    5.72   470.2    6.2      39.620
2014   10       12    18  26    5.73   470.3    6.2      39.628
2014   10       12    18  32    5.73   470.3    6.2      39.637
2014   10       12    18  38    5.73   470.3    6.2      39.647
2014   10       12    18  44    5.73   470.3    6.2      39.657
2014   10       12    18  50    5.73   470.3    6.2      39.667
2014   10       12    18  56    5.73   470.3    6.2      39.678
2014   10       12    19   2    5.73   470.3    6.2      39.689
2014   10       12    19   8    5.74   470.4    6.2      39.701
2014   10       12    19  14    5.74   470.4    6.2      39.712
2014   10       12    19  20    5.74   470.4    6.2      39.724
2014   10       12    19  26    5.74   470.4    6.2      39.735
2014   10       12    19  32    5.74   470.4    6.2      39.747
2014   10       12    19  38    5.74   470.4    6.2      39.758
2014   10       12    19  44    5.74   470.5    6.2      39.769
2014   10       12    19  50    5.75   470.5    6.2      39.781
2014   10       12    19  56    5.75   470.5    6.2      39.791
2014   10       12    20   2    5.75   470.5    6.2      39.803
2014   10       12    20   8    5.75   470.5    6.2      39.813
2014   10       12    20  14    5.75   470.5    6.2      39.824
2014   10       12    20  20    5.75   470.6    6.2      39.835
2014   10       12    20  26    5.75   470.6    6.2      39.846
2014   10       12    20  32    5.76   470.6    6.2      39.857
2014   10       12    20  38    5.76   470.6    6.2      39.868
2014   10       12    20  44    5.76   470.6    6.2      39.879
2014   10       12    20  50    5.76   470.6    6.2      39.890
2014   10       12    20  56    5.76   470.6    6.2      39.902
2014   10       12    21   2    5.76   470.7    6.2      39.913
2014   10       12    21   8    5.77   470.7    6.2      39.925
2014   10       12    21  15    5.77   470.7    6.3      39.937
2014   10       12    21  21    5.77   470.7    6.3      39.949
2014   10       12    21  27    5.77   470.7    6.3      39.961
2014   10       12    21  33    5.77   470.8    6.3      39.974
2014   10       12    21  39    5.77   470.8    6.3      39.987
2014   10       12    21  45    5.78   470.8    6.3      40.000
2014   10       12    21  51    5.78   470.8    6.3      40.014
2014   10       12    21  57    5.78   470.8    6.3      40.028
2014   10       12    22   3    5.78   470.9    6.3      40.042
2014   10       12    22   9    5.78   470.9    6.3      40.057
2014   10       12    22  15    5.79   470.9    6.3      40.073
2014   10       12    22  21    5.79   470.9    6.3      40.090
2014   10       12    22  27    5.79   471.0    6.3      40.107
2014   10       12    22  33    5.79   471.0    6.3      40.125
2014   10       12    22  39    5.80   471.0    6.3      40.144
2014   10       12    22  45    5.80   471.1    6.3      40.164
2014   10       12    22  51    5.80   471.1    6.3      40.185
2014   10       12    22  57    5.80   471.1    6.3      40.207
2014   10       12    23   3    5.81   471.2    6.3      40.230
2014   10       12    23   9    5.81   471.2    6.3      40.254
2014   10       12    23  15    5.81   471.3    6.3      40.279
2014   10       12    23  21    5.81   471.3    6.3      40.305
2014   10       12    23  27    5.81   471.4    6.3      40.331
2014   10       12    23  33    5.82   471.4    6.3      40.358
2014   10       12    23  39    5.82   471.5    6.3      40.384
2014   10       12    23  45    5.82   471.6    6.3      40.410
2014   10       12    23  51    5.82   471.6    6.3      40.436
2014   10       12    23  57    5.83   471.7    6.3      40.462
2014   10       13     0   3    5.83   471.7    6.3      40.487
2014   10       13     0   9    5.83   471.8    6.3      40.514
2014   10       13     0  15    5.83   471.8    6.3      40.539
2014   10       13     0  21    5.84   471.9    6.3      40.566
2014   10       13     0  27    5.84   472.0    6.3      40.592
2014   10       13     0  33    5.84   472.0    6.3      40.618
2014   10       13     0  39    5.84   472.1    6.4      40.644
2014   10       13     0  45    5.85   472.2    6.4      40.671
2014   10       13     0  51    5.85   472.2    6.4      40.697
2014   10       13     0  57    5.85   472.3    6.4      40.724
2014   10       13     1   3    5.85   472.4    6.4      40.751
2014   10       13     1   9    5.86   472.4    6.4      40.779
2014   10       13     1  15    5.86   472.5    6.4      40.807
2014   10       13     1  21    5.86   472.6    6.4      40.836
2014   10       13     1  27    5.86   472.6    6.4      40.865
2014   10       13     1  33    5.87   472.7    6.4      40.896
2014   10       13     1  39    5.87   472.8    6.4      40.928
2014   10       13     1  45    5.87   472.9    6.4      40.961
2014   10       13     1  51    5.87   473.0    6.4      40.995
2014   10       13     1  57    5.88   473.1    6.4      41.030
2014   10       13     2   3    5.88   473.2    6.4      41.067
2014   10       13     2   9    5.88   473.3    6.4      41.105
2014   10       13     2  15    5.88   473.4    6.4      41.143
2014   10       13     2  21    5.89   473.4    6.4      41.181
2014   10       13     2  27    5.89   473.5    6.4      41.220
2014   10       13     2  33    5.89   473.6    6.4      41.258
2014   10       13     2  39    5.89   473.7    6.4      41.296
2014   10       13     2  46    5.89   473.8    6.4      41.333
2014   10       13     2  52    5.90   473.9    6.4      41.369
2014   10       13     2  58    5.90   474.0    6.4      41.404
2014   10       13     3   4    5.90   474.1    6.4      41.439
2014   10       13     3  10    5.90   474.2    6.4      41.474
2014   10       13     3  16    5.91   474.3    6.4      41.508
2014   10       13     3  22    5.91   474.4    6.4      41.541
2014   10       13     3  28    5.91   474.4    6.4      41.574
2014   10       13     3  34    5.91   474.5    6.4      41.606
2014   10       13     3  40    5.91   474.6    6.4      41.638
2014   10       13     3  46    5.92   474.7    6.4      41.669
2014   10       13     3  52    5.92   474.8    6.4      41.700
2014   10       13     3  58    5.92   474.9    6.4      41.731
2014   10       13     4   4    5.92   475.0    6.4      41.761
2014   10       13     4  10    5.93   475.1    6.4      41.792
2014   10       13     4  16    5.93   475.2    6.4      41.822
2014   10       13     4  22    5.93   475.3    6.4      41.852
2014   10       13     4  28    5.93   475.4    6.4      41.882
2014   10       13     4  34    5.93   475.5    6.4      41.912
2014   10       13     4  40    5.94   475.6    6.4      41.942
2014   10       13     4  46    5.94   475.7    6.4      41.972
2014   10       13     4  52    5.94   475.8    6.4      42.002
2014   10       13     4  58    5.94   475.9    6.4      42.032
2014   10       13     5   4    5.95   476.0    6.4      42.062
2014   10       13     5  10    5.95   476.1    6.4      42.093
2014   10       13     5  16    5.95   476.2    6.5      42.124
2014   10       13     5  22    5.95   476.3    6.5      42.156
2014   10       13     5  28    5.96   476.4    6.5      42.187
2014   10       13     5  34    5.96   476.5    6.5      42.220
2014   10       13     5  40    5.96   476.6    6.5      42.252
2014   10       13     5  46    5.96   476.7    6.5      42.286
2014   10       13     5  52    5.97   476.8    6.5      42.320
2014   10       13     5  58    5.97   476.9    6.5      42.355
2014   10       13     6   4    5.97   477.0    6.5      42.391
2014   10       13     6  10    5.97   477.2    6.5      42.428
2014   10       13     6  16    5.98   477.3    6.5      42.466
2014   10       13     6  22    5.98   477.4    6.5      42.504
2014   10       13     6  28    5.98   477.5    6.5      42.541
2014   10       13     6  34    5.98   477.7    6.5      42.579
2014   10       13     6  40    5.98   477.8    6.5      42.616
2014   10       13     6  46    5.99   477.9    6.5      42.653
2014   10       13     6  52    5.99   478.0    6.5      42.689
2014   10       13     6  58    5.99   478.2    6.5      42.726
2014   10       13     7   4    5.99   478.3    6.5      42.762
2014   10       13     7  10    6.00   478.4    6.5      42.798
2014   10       13     7  16    6.00   478.5    6.5      42.834
2014   10       13     7  22    6.00   478.7    6.5      42.870
2014   10       13     7  28    6.00   478.8    6.5      42.907
2014   10       13     7  34    6.00   478.9    6.5      42.943
2014   10       13     7  40    6.01   479.0    6.5      42.979
2014   10       13     7  46    6.01   479.2    6.5      43.015
2014   10       13     7  52    6.01   479.3    6.5      43.052
2014   10       13     7  58    6.01   479.4    6.5      43.089
2014   10       13     8   4    6.01   479.5    6.5      43.125
2014   10       13     8  11    6.02   479.7    6.5      43.163
2014   10       13     8  17    6.02   479.8    6.5      43.200
2014   10       13     8  23    6.02   479.9    6.5      43.239
2014   10       13     8  29    6.02   480.0    6.5      43.278
2014   10       13     8  35    6.02   480.2    6.5      43.318
2014   10       13     8  41    6.03   480.3    6.5      43.359
2014   10       13     8  47    6.03   480.4    6.5      43.403
2014   10       13     8  53    6.03   480.6    6.5      43.449
2014   10       13     8  59    6.03   480.7    6.5      43.497
2014   10       13     9   5    6.04   480.8    6.5      43.547
2014   10       13     9  11    6.04   481.0    6.5      43.599
2014   10       13     9  17    6.04   481.1    6.5      43.655
2014   10       13     9  23    6.04   481.3    6.5      43.715
2014   10       13     9  29    6.04   481.5    6.5      43.778
2014   10       13     9  35    6.05   481.7    6.5      43.844
2014   10       13     9  41    6.05   481.8    6.6      43.912
2014   10       13     9  47    6.05   482.0    6.6      43.982
2014   10       13     9  53    6.05   482.2    6.6      44.052
2014   10       13     9  59    6.05   482.4    6.6      44.120
2014   10       13    10   5    6.06   482.6    6.6      44.185
2014   10       13    10  11    6.06   482.8    6.6      44.248
2014   10       13    10  17    6.06   483.0    6.6      44.310
2014   10       13    10  23    6.06   483.2    6.6      44.369
2014   10       13    10  29    6.06   483.4    6.6      44.426
2014   10       13    10  35    6.06   483.6    6.6      44.482
2014   10       13    10  41    6.07   483.8    6.6      44.535
2014   10       13    10  47    6.07   484.0    6.6      44.587
2014   10       13    10  53    6.07   484.2    6.6      44.637
2014   10       13    10  59    6.07   484.4    6.6      44.686
2014   10       13    11   5    6.07   484.6    6.6      44.734
2014   10       13    11  11    6.07   484.8    6.6      44.780
2014   10       13    11  17    6.07   485.0    6.6      44.825
2014   10       13    11  23    6.07   485.2    6.6      44.869
2014   10       13    11  29    6.08   485.4    6.6      44.912
2014   10       13    11  35    6.08   485.6    6.5      44.954
2014   10       13    11  41    6.08   485.8    6.5      44.995
2014   10       13    11  47    6.08   486.0    6.5      45.035
2014   10       13    11  53    6.08   486.2    6.5      45.075
2014   10       13    11  59    6.08   486.4    6.5      45.113
2014   10       13    12   5    6.08   486.6    6.5      45.151
2014   10       13    12  11    6.08   486.8    6.5      45.189
2014   10       13    12  17    6.08   487.0    6.5      45.226
2014   10       13    12  23    6.08   487.2    6.5      45.263
2014   10       13    12  29    6.09   487.4    6.5      45.299
2014   10       13    12  35    6.09   487.6    6.5      45.335
2014   10       13    12  41    6.09   487.8    6.5      45.370
2014   10       13    12  47    6.09   488.0    6.5      45.406
2014   10       13    12  53    6.09   488.2    6.5      45.441
2014   10       13    12  59    6.09   488.4    6.5      45.477
2014   10       13    13   5    6.09   488.6    6.5      45.512
2014   10       13    13  11    6.09   488.8    6.5      45.548
2014   10       13    13  17    6.09   488.9    6.5      45.584
2014   10       13    13  23    6.09   489.1    6.5      45.621
2014   10       13    13  29    6.09   489.3    6.5      45.659
2014   10       13    13  35    6.10   489.5    6.5      45.697
2014   10       13    13  41    6.10   489.7    6.5      45.737
2014   10       13    13  47    6.10   489.9    6.5      45.779
2014   10       13    13  53    6.10   490.2    6.5      45.822
2014   10       13    13  59    6.10   490.4    6.5      45.865
2014   10       13    14   5    6.10   490.6    6.5      45.910
2014   10       13    14  12    6.10   490.8    6.5      45.957
2014   10       13    14  18    6.10   491.0    6.5      46.006
2014   10       13    14  24    6.10   491.2    6.5      46.055
2014   10       13    14  30    6.10   491.5    6.5      46.105
2014   10       13    14  36    6.11   491.7    6.5      46.157
2014   10       13    14  42    6.11   491.9    6.5      46.207
2014   10       13    14  48    6.11   492.2    6.4      46.256
2014   10       13    14  54    6.11   492.4    6.4      46.303
2014   10       13    15   0    6.11   492.6    6.4      46.350
2014   10       13    15   6    6.11   492.9    6.4      46.395
2014   10       13    15  12    6.11   493.1    6.4      46.439
2014   10       13    15  18    6.11   493.3    6.4      46.483
2014   10       13    15  24    6.11   493.6    6.4      46.526
2014   10       13    15  30    6.11   493.8    6.4      46.568
2014   10       13    15  36    6.11   494.0    6.4      46.611
2014   10       13    15  42    6.11   494.3    6.4      46.653
2014   10       13    15  48    6.11   494.5    6.4      46.696
2014   10       13    15  54    6.11   494.7    6.4      46.739
2014   10       13    16   0    6.11   495.0    6.4      46.783
2014   10       13    16   6    6.11   495.2    6.4      46.827
2014   10       13    16  12    6.11   495.4    6.4      46.872
2014   10       13    16  18    6.11   495.7    6.4      46.918
2014   10       13    16  24    6.11   495.9    6.4      46.965
2014   10       13    16  30    6.11   496.2    6.4      47.012
2014   10       13    16  36    6.11   496.4    6.4      47.059
2014   10       13    16  42    6.11   496.7    6.4      47.107
2014   10       13    16  48    6.11   496.9    6.4      47.156
2014   10       13    16  54    6.11   497.2    6.4      47.204
2014   10       13    17   0    6.11   497.4    6.4      47.253
2014   10       13    17   6    6.11   497.7    6.4      47.303
2014   10       13    17  12    6.11   498.0    6.4      47.354
2014   10       13    17  18    6.11   498.2    6.4      47.405
2014   10       13    17  24    6.11   498.5    6.4      47.456
2014   10       13    17  30    6.11   498.8    6.4      47.508
2014   10       13    17  36    6.12   499.0    6.4      47.561
2014   10       13    17  42    6.12   499.3    6.4      47.616
2014   10       13    17  48    6.12   499.6    6.4      47.673
2014   10       13    17  54    6.12   499.8    6.4      47.733
2014   10       13    18   0    6.12   500.1    6.4      47.796
2014   10       13    18   6    6.12   500.4    6.4      47.861
2014   10       13    18  12    6.12   500.7    6.4      47.928
2014   10       13    18  18    6.12   501.0    6.4      47.994
2014   10       13    18  24    6.12   501.3    6.4      48.058
2014   10       13    18  30    6.13   501.5    6.4      48.121
2014   10       13    18  36    6.13   501.8    6.4      48.184
2014   10       13    18  42    6.13   502.1    6.4      48.245
2014   10       13    18  48    6.13   502.4    6.4      48.304
2014   10       13    18  54    6.13   502.7    6.4      48.363
2014   10       13    19   0    6.13   503.0    6.3      48.421
2014   10       13    19   6    6.13   503.3    6.3      48.477
2014   10       13    19  12    6.13   503.6    6.3      48.532
2014   10       13    19  18    6.13   503.9    6.3      48.584
2014   10       13    19  24    6.13   504.2    6.3      48.636
2014   10       13    19  30    6.13   504.6    6.3      48.684
2014   10       13    19  36    6.13   504.9    6.3      48.731
2014   10       13    19  42    6.13   505.2    6.3      48.775
2014   10       13    19  48    6.13   505.5    6.3      48.817
2014   10       13    19  54    6.13   505.8    6.3      48.856
2014   10       13    20   0    6.13   506.2    6.3      48.892
2014   10       13    20   6    6.13   506.5    6.3      48.926
2014   10       13    20  12    6.13   506.8    6.2      48.956
2014   10       13    20  18    6.13   507.1    6.2      48.984
2014   10       13    20  24    6.13   507.4    6.2      49.010
2014   10       13    20  30    6.13   507.7    6.2      49.033
2014   10       13    20  36    6.13   508.1    6.2      49.053
2014   10       13    20  42    6.13   508.4    6.2      49.072
2014   10       13    20  48    6.12   508.6    6.2      49.088
2014   10       13    20  54    6.12   508.9    6.1      49.102
2014   10       13    21   0    6.12   509.2    6.1      49.115
2014   10       13    21   6    6.12   509.5    6.1      49.126
2014   10       13    21  12    6.12   509.8    6.1      49.136
2014   10       13    21  18    6.11   510.1    6.1      49.145
2014   10       13    21  24    6.11   510.3    6.1      49.152
2014   10       13    21  31    6.11   510.6    6.1      49.159
2014   10       13    21  37    6.11   510.9    6.0      49.164
2014   10       13    21  43    6.10   511.2    6.0      49.169
2014   10       13    21  49    6.10   511.5    6.0      49.172
2014   10       13    21  55    6.10   511.8    6.0      49.174
2014   10       13    22   1    6.10   512.1    6.0      49.176
2014   10       13    22   7    6.09   512.4    6.0      49.177
2014   10       13    22  13    6.09   512.7    5.9      49.175
2014   10       13    22  19    6.09   513.0    5.9      49.170
2014   10       13    22  25    6.08   513.3    5.9      49.163
2014   10       13    22  31    6.08   513.6    5.9      49.154
2014   10       13    22  37    6.07   514.0    5.9      49.141
2014   10       13    22  43    6.07   514.3    5.8      49.124
2014   10       13    22  49    6.06   514.6    5.8      49.102
2014   10       13    22  55    6.06   514.8    5.8      49.076
2014   10       13    23   1    6.05   515.1    5.8      49.045
2014   10       13    23   7    6.05   515.4    5.8      49.011
2014   10       13    23  13    6.04   515.7    5.7      48.973
2014   10       13    23  19    6.04   516.0    5.7      48.934
2014   10       13    23  25    6.03   516.2    5.7      48.895
2014   10       13    23  31    6.02   516.5    5.7      48.856
2014   10       13    23  37    6.02   516.7    5.7      48.815
2014   10       13    23  43    6.01   516.9    5.7      48.773
2014   10       13    23  49    6.01   517.1    5.6      48.731
2014   10       13    23  55    6.00   517.2    5.6      48.689
2014   10       14     0   1    6.00   517.4    5.6      48.649
2014   10       14     0   7    5.99   517.5    5.6      48.611
2014   10       14     0  13    5.98   517.7    5.6      48.579
2014   10       14     0  19    5.98   517.8    5.6      48.552
2014   10       14     0  25    5.97   518.0    5.6      48.531
2014   10       14     0  31    5.97   518.2    5.5      48.515
2014   10       14     0  37    5.97   518.4    5.5      48.504
2014   10       14     0  43    5.96   518.6    5.5      48.502
2014   10       14     0  49    5.96   518.9    5.5      48.506
2014   10       14     0  55    5.95   519.1    5.5      48.514
2014   10       14     1   1    5.95   519.4    5.5      48.524
2014   10       14     1   7    5.94   519.7    5.5      48.536
2014   10       14     1  13    5.94   520.0    5.5      48.549
2014   10       14     1  19    5.93   520.3    5.4      48.557
2014   10       14     1  25    5.92   520.6    5.4      48.561
2014   10       14     1  31    5.92   520.9    5.4      48.560
2014   10       14     1  37    5.91   521.1    5.4      48.555
2014   10       14     1  43    5.91   521.4    5.4      48.545
2014   10       14     1  49    5.90   521.6    5.4      48.533
2014   10       14     1  55    5.89   521.9    5.4      48.517
2014   10       14     2   1    5.89   522.1    5.4      48.500
2014   10       14     2   7    5.88   522.3    5.3      48.482
2014   10       14     2  13    5.87   522.5    5.3      48.462
2014   10       14     2  19    5.87   522.8    5.3      48.443
2014   10       14     2  25    5.86   523.0    5.3      48.424
2014   10       14     2  31    5.85   523.2    5.3      48.404
2014   10       14     2  37    5.84   523.4    5.3      48.383
2014   10       14     2  43    5.83   523.6    5.3      48.362
2014   10       14     2  49    5.83   523.8    5.3      48.340
2014   10       14     2  55    5.82   524.0    5.2      48.318
2014   10       14     3   1    5.81   524.2    5.2      48.296
2014   10       14     3   7    5.80   524.4    5.2      48.273
2014   10       14     3  13    5.80   524.6    5.2      48.251
2014   10       14     3  19    5.79   524.8    5.2      48.227
2014   10       14     3  25    5.78   525.0    5.2      48.203
2014   10       14     3  31    5.77   525.2    5.2      48.178
2014   10       14     3  37    5.76   525.5    5.2      48.150
2014   10       14     3  43    5.75   525.7    5.1      48.121
2014   10       14     3  49    5.75   525.9    5.1      48.090
2014   10       14     3  55    5.74   526.1    5.1      48.057
2014   10       14     4   1    5.73   526.4    5.1      48.021
2014   10       14     4   7    5.72   526.6    5.1      47.983
2014   10       14     4  13    5.71   526.8    5.1      47.943
2014   10       14     4  19    5.70   527.0    5.1      47.900
2014   10       14     4  25    5.69   527.2    5.1      47.855
2014   10       14     4  31    5.69   527.3    5.1      47.809
2014   10       14     4  37    5.68   527.5    5.0      47.761
2014   10       14     4  43    5.67   527.7    5.0      47.713
2014   10       14     4  49    5.66   527.8    5.0      47.665
2014   10       14     4  55    5.65   528.0    5.0      47.618
2014   10       14     5   1    5.64   528.2    5.0      47.571
2014   10       14     5   7    5.63   528.3    5.0      47.525
2014   10       14     5  13    5.62   528.5    5.0      47.479
2014   10       14     5  19    5.61   528.6    5.0      47.434
2014   10       14     5  25    5.60   528.7    4.9      47.389
2014   10       14     5  31    5.59   528.9    4.9      47.345
2014   10       14     5  37    5.58   529.0    4.9      47.300
2014   10       14     5  43    5.58   529.1    4.9      47.257
2014   10       14     5  49    5.57   529.2    4.9      47.213
2014   10       14     5  55    5.56   529.3    4.9      47.170
2014   10       14     6   1    5.55   529.5    4.9      47.126
2014   10       14     6   7    5.54   529.6    4.9      47.083
2014   10       14     6  13    5.53   529.7    4.9      47.039
2014   10       14     6  19    5.52   529.8    4.8      46.995
2014   10       14     6  25    5.51   529.9    4.8      46.951
2014   10       14     6  31    5.51   530.0    4.8      46.906
2014   10       14     6  38    5.50   530.0    4.8      46.859
2014   10       14     6  44    5.49   530.1    4.8      46.812
2014   10       14     6  50    5.48   530.2    4.8      46.763
2014   10       14     6  56    5.47   530.3    4.8      46.713
2014   10       14     7   2    5.46   530.4    4.8      46.661
2014   10       14     7   8    5.45   530.5    4.8      46.608
2014   10       14     7  14    5.45   530.5    4.7      46.553
2014   10       14     7  20    5.44   530.6    4.7      46.498
2014   10       14     7  26    5.43   530.6    4.7      46.441
2014   10       14     7  32    5.42   530.7    4.7      46.384
2014   10       14     7  38    5.41   530.7    4.7      46.325
2014   10       14     7  44    5.40   530.7    4.7      46.267
2014   10       14     7  50    5.40   530.7    4.7      46.210
2014   10       14     7  56    5.39   530.7    4.7      46.154
2014   10       14     8   2    5.38   530.7    4.7      46.100
2014   10       14     8   8    5.37   530.8    4.7      46.047
2014   10       14     8  14    5.37   530.8    4.7      45.997
2014   10       14     8  20    5.36   530.8    4.6      45.947
2014   10       14     8  26    5.35   530.8    4.6      45.899
2014   10       14     8  32    5.34   530.8    4.6      45.854
2014   10       14     8  38    5.34   530.8    4.6      45.811
2014   10       14     8  44    5.33   530.8    4.6      45.771
2014   10       14     8  50    5.32   530.8    4.6      45.732
2014   10       14     8  56    5.32   530.9    4.6      45.695
2014   10       14     9   2    5.31   530.9    4.6      45.659
2014   10       14     9   8    5.30   530.9    4.6      45.624
2014   10       14     9  14    5.29   530.9    4.6      45.587
2014   10       14     9  20    5.29   530.9    4.6      45.549
2014   10       14     9  26    5.28   531.0    4.6      45.509
2014   10       14     9  32    5.27   531.0    4.6      45.468
2014   10       14     9  38    5.27   531.0    4.6      45.424
2014   10       14     9  44    5.26   531.0    4.5      45.380
2014   10       14     9  50    5.25   531.0    4.5      45.333
2014   10       14     9  56    5.25   531.1    4.5      45.284
2014   10       14    10   2    5.24   531.1    4.5      45.233
2014   10       14    10   8    5.23   531.1    4.5      45.179
2014   10       14    10  14    5.23   531.1    4.5      45.123
2014   10       14    10  20    5.22   531.1    4.5      45.065
2014   10       14    10  26    5.21   531.0    4.5      45.003
2014   10       14    10  32    5.20   531.0    4.5      44.939
2014   10       14    10  38    5.20   531.0    4.5      44.872
2014   10       14    10  44    5.19   531.0    4.5      44.805
2014   10       14    10  50    5.18   531.0    4.4      44.736
2014   10       14    10  56    5.18   530.9    4.4      44.667
2014   10       14    11   2    5.17   530.9    4.4      44.597
2014   10       14    11   8    5.16   530.9    4.4      44.528
2014   10       14    11  14    5.16   530.8    4.4      44.458
2014   10       14    11  20    5.15   530.8    4.4      44.388
2014   10       14    11  26    5.14   530.8    4.4      44.318
2014   10       14    11  32    5.14   530.7    4.4      44.248
2014   10       14    11  38    5.13   530.7    4.4      44.178
2014   10       14    11  44    5.12   530.6    4.4      44.109
2014   10       14    11  50    5.12   530.6    4.4      44.039
2014   10       14    11  56    5.11   530.5    4.4      43.970
2014   10       14    12   2    5.10   530.5    4.4      43.901
2014   10       14    12   8    5.10   530.4    4.3      43.833
2014   10       14    12  14    5.09   530.4    4.3      43.765
2014   10       14    12  20    5.09   530.3    4.3      43.698
2014   10       14    12  26    5.08   530.3    4.3      43.631
2014   10       14    12  32    5.07   530.2    4.3      43.564
2014   10       14    12  38    5.07   530.2    4.3      43.498
2014   10       14    12  44    5.06   530.1    4.3      43.433
2014   10       14    12  50    5.05   530.1    4.3      43.368
2014   10       14    12  56    5.05   530.0    4.3      43.304
2014   10       14    13   2    5.04   529.9    4.3      43.240
2014   10       14    13   8    5.04   529.9    4.3      43.176
2014   10       14    13  14    5.03   529.8    4.3      43.113
2014   10       14    13  20    5.02   529.8    4.3      43.050
2014   10       14    13  26    5.02   529.7    4.3      42.987
2014   10       14    13  32    5.01   529.6    4.2      42.925
2014   10       14    13  38    5.01   529.6    4.2      42.863
2014   10       14    13  44    5.00   529.5    4.2      42.800
2014   10       14    13  50    4.99   529.4    4.2      42.738
2014   10       14    13  56    4.99   529.4    4.2      42.675
2014   10       14    14   2    4.98   529.3    4.2      42.612
2014   10       14    14   8    4.98   529.2    4.2      42.549
2014   10       14    14  14    4.97   529.2    4.2      42.486
2014   10       14    14  20    4.96   529.1    4.2      42.422
2014   10       14    14  26    4.96   529.0    4.2      42.358
2014   10       14    14  32    4.95   528.9    4.2      42.294
2014   10       14    14  38    4.95   528.9    4.2      42.229
2014   10       14    14  44    4.94   528.8    4.2      42.164
2014   10       14    14  50    4.94   528.7    4.2      42.100
2014   10       14    14  56    4.93   528.6    4.2      42.035
2014   10       14    15   2    4.92   528.5    4.2      41.970
2014   10       14    15   8    4.92   528.4    4.2      41.905
2014   10       14    15  14    4.91   528.3    4.2      41.841
2014   10       14    15  20    4.91   528.2    4.2      41.778
2014   10       14    15  26    4.90   528.1    4.2      41.715
2014   10       14    15  32    4.90   528.0    4.2      41.654
2014   10       14    15  38    4.89   527.9    4.1      41.593
2014   10       14    15  44    4.89   527.8    4.1      41.535
2014   10       14    15  50    4.88   527.6    4.1      41.478
2014   10       14    15  56    4.88   527.5    4.1      41.424
2014   10       14    16   2    4.87   527.4    4.1      41.373
2014   10       14    16   8    4.87   527.3    4.1      41.324
2014   10       14    16  15    4.87   527.2    4.1      41.277
2014   10       14    16  21    4.86   527.0    4.1      41.233
2014   10       14    16  27    4.86   526.9    4.1      41.191
2014   10       14    16  33    4.85   526.8    4.1      41.151
2014   10       14    16  39    4.85   526.7    4.1      41.113
2014   10       14    16  45    4.84   526.5    4.1      41.078
2014   10       14    16  51    4.84   526.4    4.1      41.044
2014   10       14    16  57    4.84   526.3    4.1      41.012
2014   10       14    17   3    4.83   526.2    4.1      40.980
2014   10       14    17   9    4.83   526.1    4.1      40.949
2014   10       14    17  15    4.82   526.0    4.1      40.918
2014   10       14    17  21    4.82   525.9    4.1      40.886
2014   10       14    17  27    4.82   525.8    4.1      40.853
2014   10       14    17  33    4.81   525.6    4.1      40.818
2014   10       14    17  39    4.81   525.5    4.1      40.783
2014   10       14    17  45    4.80   525.4    4.1      40.747
2014   10       14    17  51    4.80   525.3    4.1      40.711
2014   10       14    17  57    4.80   525.2    4.1      40.674
2014   10       14    18   3    4.79   525.1    4.1      40.636
2014   10       14    18   8    4.79   525.0    4.1      40.599
2014   10       14    18  15    4.79   524.9    4.1      40.560
2014   10       14    18  20    4.78   524.8    4.1      40.521
2014   10       14    18  26    4.78   524.7    4.1      40.482
2014   10       14    18  32    4.77   524.6    4.1      40.442
2014   10       14    18  38    4.77   524.4    4.1      40.402
2014   10       14    18  44    4.77   524.3    4.1      40.361
2014   10       14    18  50    4.76   524.2    4.1      40.320
2014   10       14    18  56    4.76   524.1    4.1      40.279
2014   10       14    19   2    4.76   524.0    4.1      40.237
2014   10       14    19   8    4.75   523.9    4.1      40.195
2014   10       14    19  14    4.75   523.8    4.1      40.153
2014   10       14    19  20    4.74   523.7    4.1      40.111
2014   10       14    19  26    4.74   523.6    4.1      40.068
2014   10       14    19  32    4.74   523.5    4.1      40.025
2014   10       14    19  38    4.73   523.4    4.1      39.981
2014   10       14    19  44    4.73   523.2    4.0      39.938
2014   10       14    19  51    4.73   523.1    4.0      39.895
2014   10       14    19  56    4.72   523.0    4.0      39.852
2014   10       14    20   3    4.72   522.9    4.0      39.808
2014   10       14    20   9    4.72   522.8    4.0      39.765
2014   10       14    20  15    4.71   522.7    4.0      39.722
2014   10       14    20  21    4.71   522.6    4.0      39.680
2014   10       14    20  27    4.71   522.5    4.0      39.638
2014   10       14    20  33    4.70   522.3    4.0      39.596
2014   10       14    20  39    4.70   522.2    4.0      39.555
2014   10       14    20  45    4.70   522.1    4.0      39.514
2014   10       14    20  51    4.69   522.0    4.0      39.474
2014   10       14    20  57    4.69   521.9    4.0      39.434
2014   10       14    21   3    4.69   521.8    4.0      39.394
2014   10       14    21   9    4.69   521.7    4.0      39.356
2014   10       14    21  15    4.68   521.6    4.0      39.318
2014   10       14    21  21    4.68   521.5    4.0      39.281
2014   10       14    21  27    4.68   521.4    4.0      39.245
2014   10       14    21  33    4.67   521.3    4.0      39.210
2014   10       14    21  39    4.67   521.2    4.0      39.175
2014   10       14    21  45    4.67   521.1    4.0      39.142
2014   10       14    21  51    4.67   520.9    4.0      39.109
2014   10       14    21  57    4.66   520.8    4.0      39.078
2014   10       14    22   3    4.66   520.7    4.0      39.048
2014   10       14    22   9    4.66   520.6    4.0      39.020
2014   10       14    22  15    4.66   520.5    4.0      38.993
2014   10       14    22  21    4.65   520.4    4.0      38.967
2014   10       14    22  27    4.65   520.3    4.0      38.943
2014   10       14    22  33    4.65   520.1    4.0      38.919
2014   10       14    22  39    4.65   520.0    4.0      38.895
2014   10       14    22  45    4.64   519.9    4.0      38.873
2014   10       14    22  51    4.64   519.8    4.0      38.851
2014   10       14    22  57    4.64   519.7    4.0      38.829
2014   10       14    23   3    4.64   519.5    4.0      38.808
2014   10       14    23   9    4.64   519.4    4.0      38.788
2014   10       14    23  15    4.64   519.3    4.0      38.770
2014   10       14    23  21    4.63   519.2    4.0      38.753
2014   10       14    23  27    4.63   519.1    4.1      38.737
2014   10       14    23  33    4.63   518.9    4.1      38.723
2014   10       14    23  39    4.63   518.8    4.1      38.709
2014   10       14    23  45    4.63   518.7    4.1      38.697
2014   10       14    23  51    4.63   518.6    4.1      38.687
2014   10       14    23  57    4.62   518.5    4.1      38.678
2014   10       15     0   3    4.62   518.4    4.1      38.671
2014   10       15     0   9    4.62   518.3    4.1      38.666
2014   10       15     0  15    4.62   518.2    4.1      38.661
2014   10       15     0  21    4.62   518.1    4.1      38.657
2014   10       15     0  27    4.62   518.0    4.1      38.650
2014   10       15     0  33    4.62   517.9    4.1      38.643
2014   10       15     0  39    4.62   517.8    4.1      38.633
2014   10       15     0  45    4.62   517.7    4.1      38.623
2014   10       15     0  51    4.62   517.6    4.1      38.611
2014   10       15     0  57    4.61   517.5    4.1      38.598
2014   10       15     1   3    4.61   517.4    4.1      38.583
2014   10       15     1   9    4.61   517.3    4.1      38.568
2014   10       15     1  15    4.61   517.2    4.1      38.551
2014   10       15     1  21    4.61   517.1    4.1      38.532
2014   10       15     1  27    4.61   517.0    4.1      38.513
2014   10       15     1  33    4.61   516.9    4.1      38.493
2014   10       15     1  39    4.61   516.8    4.1      38.471
2014   10       15     1  45    4.61   516.7    4.1      38.449
2014   10       15     1  51    4.61   516.6    4.1      38.425
2014   10       15     1  57    4.60   516.5    4.1      38.401
2014   10       15     2   3    4.60   516.4    4.1      38.377
2014   10       15     2   9    4.60   516.3    4.1      38.351
2014   10       15     2  15    4.60   516.2    4.1      38.325
2014   10       15     2  21    4.60   516.1    4.1      38.298
2014   10       15     2  27    4.60   516.0    4.1      38.270
2014   10       15     2  33    4.60   515.9    4.1      38.242
2014   10       15     2  39    4.60   515.8    4.1      38.214
2014   10       15     2  45    4.60   515.7    4.1      38.185
2014   10       15     2  51    4.59   515.6    4.1      38.155
2014   10       15     2  57    4.59   515.5    4.1      38.126
2014   10       15     3   3    4.59   515.3    4.1      38.095
2014   10       15     3   9    4.59   515.2    4.1      38.065
2014   10       15     3  15    4.59   515.1    4.1      38.034
2014   10       15     3  21    4.59   515.0    4.1      38.003
2014   10       15     3  27    4.59   514.9    4.1      37.971
2014   10       15     3  33    4.59   514.8    4.1      37.940
2014   10       15     3  39    4.59   514.7    4.1      37.908
2014   10       15     3  45    4.59   514.5    4.1      37.876
2014   10       15     3  51    4.59   514.4    4.0      37.843
2014   10       15     3  57    4.59   514.3    4.0      37.811
2014   10       15     4   3    4.58   514.2    4.0      37.778
2014   10       15     4   9    4.58   514.1    4.0      37.745
2014   10       15     4  15    4.58   513.9    4.0      37.712
2014   10       15     4  21    4.58   513.8    4.0      37.679
2014   10       15     4  27    4.58   513.7    4.0      37.647
2014   10       15     4  33    4.58   513.6    4.0      37.614
2014   10       15     4  39    4.58   513.4    4.0      37.581
2014   10       15     4  45    4.58   513.3    4.0      37.548
2014   10       15     4  51    4.58   513.2    4.0      37.515
2014   10       15     4  57    4.58   513.0    4.0      37.483
2014   10       15     5   3    4.58   512.9    4.0      37.451
2014   10       15     5   9    4.58   512.8    4.0      37.419
2014   10       15     5  15    4.58   512.6    4.0      37.387
2014   10       15     5  21    4.58   512.5    4.0      37.356
2014   10       15     5  27    4.58   512.4    4.0      37.325
2014   10       15     5  33    4.58   512.2    4.0      37.294
2014   10       15     5  39    4.57   512.1    4.0      37.264
2014   10       15     5  45    4.57   511.9    4.0      37.234
2014   10       15     5  51    4.57   511.8    4.0      37.206
2014   10       15     5  57    4.57   511.6    4.0      37.178
2014   10       15     6   3    4.57   511.5    4.0      37.151
2014   10       15     6   9    4.57   511.4    4.0      37.126
2014   10       15     6  15    4.57   511.2    4.0      37.102
2014   10       15     6  21    4.57   511.1    4.0      37.079
2014   10       15     6  27    4.57   510.9    4.0      37.057
2014   10       15     6  33    4.57   510.8    4.0      37.037
2014   10       15     6  39    4.57   510.6    4.0      37.020
2014   10       15     6  45    4.57   510.5    4.0      37.005
2014   10       15     6  51    4.57   510.3    4.1      36.992
2014   10       15     6  57    4.57   510.2    4.1      36.981
2014   10       15     7   3    4.57   510.1    4.1      36.971
2014   10       15     7   9    4.57   509.9    4.1      36.965
2014   10       15     7  15    4.57   509.8    4.1      36.962
2014   10       15     7  21    4.57   509.7    4.1      36.961
2014   10       15     7  27    4.57   509.5    4.1      36.962
2014   10       15     7  33    4.58   509.4    4.1      36.965
2014   10       15     7  39    4.58   509.3    4.1      36.970
2014   10       15     7  45    4.58   509.2    4.1      36.975
2014   10       15     7  51    4.58   509.1    4.1      36.978
2014   10       15     7  57    4.58   509.0    4.1      36.981
2014   10       15     8   3    4.58   508.9    4.1      36.983
2014   10       15     8   9    4.58   508.8    4.1      36.986
2014   10       15     8  15    4.58   508.7    4.1      36.987
2014   10       15     8  21    4.58   508.6    4.1      36.988
2014   10       15     8  27    4.58   508.5    4.1      36.989
2014   10       15     8  33    4.58   508.4    4.1      36.989
2014   10       15     8  39    4.58   508.3    4.1      36.989
2014   10       15     8  45    4.58   508.2    4.1      36.988
2014   10       15     8  51    4.58   508.1    4.1      36.987
2014   10       15     8  57    4.58   508.0    4.1      36.987
2014   10       15     9   3    4.58   507.9    4.1      36.986
2014   10       15     9   9    4.58   507.7    4.1      36.986
2014   10       15     9  15    4.58   507.6    4.1      36.985
2014   10       15     9  21    4.58   507.5    4.2      36.985
2014   10       15     9  27    4.58   507.4    4.2      36.984
2014   10       15     9  33    4.58   507.3    4.2      36.984
2014   10       15     9  39    4.58   507.2    4.2      36.983
2014   10       15     9  45    4.58   507.1    4.2      36.981
2014   10       15     9  51    4.58   507.0    4.2      36.980
2014   10       15     9  57    4.58   506.8    4.2      36.977
2014   10       15    10   3    4.58   506.7    4.2      36.974
2014   10       15    10   9    4.58   506.6    4.2      36.971
2014   10       15    10  15    4.58   506.5    4.2      36.966
2014   10       15    10  21    4.58   506.4    4.2      36.960
2014   10       15    10  27    4.58   506.3    4.2      36.954
2014   10       15    10  33    4.58   506.1    4.2      36.947
2014   10       15    10  39    4.58   506.0    4.2      36.940
2014   10       15    10  45    4.58   505.9    4.2      36.932
2014   10       15    10  51    4.58   505.8    4.2      36.923
2014   10       15    10  57    4.58   505.7    4.2      36.914
2014   10       15    11   3    4.58   505.6    4.2      36.904
2014   10       15    11   9    4.58   505.5    4.2      36.894
2014   10       15    11  15    4.58   505.3    4.2      36.883
2014   10       15    11  21    4.58   505.2    4.2      36.872
2014   10       15    11  27    4.59   505.1    4.2      36.860
2014   10       15    11  33    4.59   505.0    4.2      36.848
2014   10       15    11  39    4.59   504.9    4.2      36.835
2014   10       15    11  45    4.59   504.8    4.2      36.822
2014   10       15    11  51    4.59   504.6    4.2      36.809
2014   10       15    11  57    4.59   504.5    4.2      36.796
2014   10       15    12   3    4.59   504.4    4.2      36.782
2014   10       15    12   9    4.59   504.3    4.2      36.767
2014   10       15    12  15    4.59   504.2    4.2      36.752
2014   10       15    12  21    4.59   504.1    4.2      36.738
2014   10       15    12  27    4.59   503.9    4.2      36.722
2014   10       15    12  33    4.59   503.8    4.2      36.707
2014   10       15    12  39    4.59   503.7    4.2      36.691
2014   10       15    12  45    4.59   503.6    4.2      36.675
2014   10       15    12  51    4.60   503.5    4.2      36.658
2014   10       15    12  57    4.60   503.3    4.2      36.642
2014   10       15    13   3    4.60   503.2    4.2      36.626
2014   10       15    13   9    4.60   503.1    4.2      36.609
2014   10       15    13  15    4.60   503.0    4.2      36.592
2014   10       15    13  21    4.60   502.9    4.2      36.576
2014   10       15    13  27    4.60   502.7    4.2      36.560
2014   10       15    13  33    4.60   502.6    4.2      36.544
2014   10       15    13  39    4.60   502.5    4.2      36.528
2014   10       15    13  45    4.61   502.4    4.2      36.512
2014   10       15    13  51    4.61   502.2    4.2      36.498
2014   10       15    13  57    4.61   502.1    4.2      36.483
2014   10       15    14   3    4.61   502.0    4.2      36.469
2014   10       15    14   9    4.61   501.9    4.2      36.456
2014   10       15    14  15    4.61   501.8    4.2      36.444
2014   10       15    14  21    4.61   501.6    4.2      36.433
2014   10       15    14  27    4.61   501.5    4.2      36.422
2014   10       15    14  33    4.62   501.4    4.2      36.413
2014   10       15    14  39    4.62   501.3    4.2      36.404
2014   10       15    14  45    4.62   501.2    4.2      36.397
2014   10       15    14  51    4.62   501.1    4.2      36.390
2014   10       15    14  57    4.62   501.0    4.2      36.385
2014   10       15    15   3    4.62   500.9    4.2      36.380
2014   10       15    15   9    4.62   500.8    4.2      36.377
2014   10       15    15  15    4.63   500.7    4.2      36.375
2014   10       15    15  21    4.63   500.6    4.2      36.373
2014   10       15    15  27    4.63   500.5    4.2      36.373
2014   10       15    15  33    4.63   500.4    4.3      36.374
2014   10       15    15  39    4.63   500.3    4.3      36.376
2014   10       15    15  45    4.63   500.2    4.3      36.378
2014   10       15    15  51    4.64   500.1    4.3      36.381
2014   10       15    15  57    4.64   500.0    4.3      36.385
2014   10       15    16   3    4.64   499.9    4.3      36.389
2014   10       15    16   9    4.64   499.8    4.3      36.395
2014   10       15    16  15    4.64   499.7    4.3      36.401
2014   10       15    16  21    4.64   499.6    4.3      36.408
2014   10       15    16  27    4.64   499.5    4.3      36.417
2014   10       15    16  33    4.65   499.4    4.3      36.426
2014   10       15    16  39    4.65   499.3    4.3      36.435
2014   10       15    16  45    4.65   499.2    4.3      36.445
2014   10       15    16  51    4.65   499.1    4.3      36.455
2014   10       15    16  57    4.65   499.0    4.3      36.465
2014   10       15    17   3    4.65   498.9    4.3      36.475
2014   10       15    17   9    4.66   498.8    4.3      36.486
2014   10       15    17  15    4.66   498.7    4.3      36.496
2014   10       15    17  21    4.66   498.6    4.3      36.506
2014   10       15    17  27    4.66   498.5    4.3      36.516
2014   10       15    17  33    4.66   498.4    4.3      36.526
2014   10       15    17  39    4.66   498.3    4.3      36.536
2014   10       15    17  45    4.67   498.2    4.4      36.546
2014   10       15    17  51    4.67   498.1    4.4      36.556
2014   10       15    17  57    4.67   498.0    4.4      36.566
2014   10       15    18   3    4.67   497.9    4.4      36.577
2014   10       15    18   9    4.67   497.8    4.4      36.588
2014   10       15    18  15    4.68   497.7    4.4      36.599
2014   10       15    18  21    4.68   497.6    4.4      36.610
2014   10       15    18  27    4.68   497.5    4.4      36.622
2014   10       15    18  33    4.68   497.4    4.4      36.634
2014   10       15    18  39    4.69   497.3    4.4      36.647
2014   10       15    18  45    4.69   497.3    4.4      36.660
2014   10       15    18  51    4.69   497.2    4.4      36.674
2014   10       15    18  57    4.69   497.1    4.4      36.689
2014   10       15    19   3    4.70   497.0    4.4      36.704
2014   10       15    19   9    4.70   496.9    4.4      36.720
2014   10       15    19  15    4.70   496.9    4.4      36.736
2014   10       15    19  21    4.70   496.8    4.4      36.754
2014   10       15    19  27    4.71   496.7    4.4      36.772
2014   10       15    19  33    4.71   496.6    4.4      36.791
2014   10       15    19  39    4.71   496.6    4.5      36.812
2014   10       15    19  45    4.72   496.5    4.5      36.834
2014   10       15    19  51    4.72   496.4    4.5      36.856
2014   10       15    19  57    4.72   496.4    4.5      36.880
2014   10       15    20   3    4.72   496.3    4.5      36.905
2014   10       15    20   9    4.73   496.3    4.5      36.931
2014   10       15    20  15    4.73   496.2    4.5      36.959
2014   10       15    20  21    4.73   496.2    4.5      36.989
2014   10       15    20  27    4.74   496.1    4.5      37.020
2014   10       15    20  33    4.74   496.1    4.5      37.052
2014   10       15    20  39    4.74   496.0    4.5      37.083
2014   10       15    20  45    4.74   496.0    4.5      37.114
2014   10       15    20  51    4.75   496.0    4.5      37.143
2014   10       15    20  57    4.75   495.9    4.5      37.171
2014   10       15    21   3    4.75   495.9    4.5      37.198
2014   10       15    21   9    4.76   495.8    4.6      37.224
2014   10       15    21  15    4.76   495.8    4.6      37.250
2014   10       15    21  21    4.76   495.8    4.6      37.274
2014   10       15    21  27    4.76   495.7    4.6      37.297
2014   10       15    21  33    4.77   495.7    4.6      37.320
2014   10       15    21  39    4.77   495.7    4.6      37.342
2014   10       15    21  45    4.77   495.6    4.6      37.363
2014   10       15    21  51    4.77   495.6    4.6      37.383
2014   10       15    21  57    4.78   495.6    4.6      37.403
2014   10       15    22   3    4.78   495.5    4.6      37.422
2014   10       15    22   9    4.78   495.5    4.6      37.441
2014   10       15    22  15    4.78   495.5    4.6      37.459
2014   10       15    22  21    4.78   495.4    4.6      37.476
2014   10       15    22  27    4.79   495.4    4.6      37.493
2014   10       15    22  33    4.79   495.4    4.6      37.509
2014   10       15    22  39    4.79   495.4    4.6      37.525
2014   10       15    22  45    4.79   495.3    4.6      37.541
2014   10       15    22  51    4.80   495.3    4.6      37.556
2014   10       15    22  57    4.80   495.3    4.6      37.571
2014   10       15    23   3    4.80   495.2    4.6      37.585
2014   10       15    23   9    4.80   495.2    4.6      37.599
2014   10       15    23  15    4.81   495.2    4.6      37.612
2014   10       15    23  21    4.81   495.1    4.6      37.625
2014   10       15    23  27    4.81   495.1    4.6      37.638
2014   10       15    23  33    4.81   495.1    4.7      37.651
2014   10       15    23  39    4.82   495.1    4.7      37.663
2014   10       15    23  45    4.82   495.0    4.7      37.675
2014   10       15    23  51    4.82   495.0    4.7      37.687
2014   10       15    23  57    4.82   495.0    4.7      37.699
2014   10       16     0   3    4.83   494.9    4.7      37.710
2014   10       16     0   9    4.83   494.9    4.7      37.721
2014   10       16     0  15    4.83   494.9    4.7      37.733
2014   10       16     0  21    4.83   494.8    4.7      37.744
2014   10       16     0  27    4.83   494.8    4.7      37.755
2014   10       16     0  33    4.84   494.8    4.7      37.766
2014   10       16     0  39    4.84   494.7    4.7      37.778
2014   10       16     0  45    4.84   494.7    4.7      37.789
2014   10       16     0  51    4.85   494.7    4.7      37.801
2014   10       16     0  57    4.85   494.6    4.7      37.814
2014   10       16     1   3    4.85   494.6    4.7      37.827
2014   10       16     1   9    4.85   494.6    4.7      37.840
2014   10       16     1  15    4.86   494.5    4.7      37.855
2014   10       16     1  21    4.86   494.5    4.7      37.870
2014   10       16     1  27    4.86   494.5    4.7      37.885
2014   10       16     1  33    4.86   494.4    4.7      37.902
2014   10       16     1  39    4.87   494.4    4.7      37.919
2014   10       16     1  45    4.87   494.4    4.7      37.938
2014   10       16     1  51    4.87   494.4    4.7      37.958
2014   10       16     1  57    4.88   494.4    4.7      37.978
2014   10       16     2   3    4.88   494.3    4.8      38.000
2014   10       16     2   9    4.88   494.3    4.8      38.023
2014   10       16     2  15    4.88   494.3    4.8      38.048
2014   10       16     2  21    4.89   494.3    4.8      38.074
2014   10       16     2  27    4.89   494.3    4.8      38.101
2014   10       16     2  33    4.89   494.3    4.8      38.129
2014   10       16     2  39    4.90   494.3    4.8      38.160
2014   10       16     2  45    4.90   494.2    4.8      38.192
2014   10       16     2  51    4.90   494.2    4.8      38.228
2014   10       16     2  57    4.91   494.2    4.8      38.266
2014   10       16     3   3    4.91   494.2    4.8      38.306
2014   10       16     3   9    4.91   494.2    4.8      38.347
2014   10       16     3  15    4.92   494.3    4.8      38.392
2014   10       16     3  21    4.92   494.3    4.9      38.440
2014   10       16     3  27    4.92   494.3    4.9      38.491
2014   10       16     3  33    4.93   494.3    4.9      38.546
2014   10       16     3  39    4.93   494.4    4.9      38.603
2014   10       16     3  45    4.93   494.4    4.9      38.663
2014   10       16     3  51    4.94   494.4    4.9      38.724
2014   10       16     3  57    4.94   494.5    4.9      38.783
2014   10       16     4   3    4.94   494.5    4.9      38.840
2014   10       16     4   9    4.94   494.5    4.9      38.894
2014   10       16     4  15    4.95   494.6    4.9      38.946
2014   10       16     4  21    4.95   494.6    4.9      38.996
2014   10       16     4  27    4.95   494.7    4.9      39.045
2014   10       16     4  33    4.95   494.7    4.9      39.091
2014   10       16     4  39    4.96   494.7    5.0      39.135
2014   10       16     4  45    4.96   494.8    5.0      39.177
2014   10       16     4  51    4.96   494.8    5.0      39.218
2014   10       16     4  57    4.96   494.8    5.0      39.257
2014   10       16     5   3    4.96   494.9    5.0      39.294
2014   10       16     5   9    4.97   494.9    5.0      39.330
2014   10       16     5  15    4.97   494.9    5.0      39.364
2014   10       16     5  21    4.97   495.0    5.0      39.397
2014   10       16     5  27    4.97   495.0    5.0      39.428
2014   10       16     5  33    4.97   495.0    5.0      39.459
2014   10       16     5  39    4.98   495.1    5.0      39.488
2014   10       16     5  45    4.98   495.1    5.0      39.516
2014   10       16     5  51    4.98   495.1    5.0      39.543
2014   10       16     5  57    4.98   495.1    5.0      39.569
2014   10       16     6   3    4.98   495.2    5.0      39.595
2014   10       16     6   9    4.99   495.2    5.0      39.619
2014   10       16     6  15    4.99   495.2    5.0      39.643
2014   10       16     6  21    4.99   495.2    5.0      39.665
2014   10       16     6  27    4.99   495.3    5.0      39.688
2014   10       16     6  33    4.99   495.3    5.0      39.709
2014   10       16     6  39    4.99   495.3    5.0      39.730
2014   10       16     6  45    5.00   495.4    5.0      39.750
2014   10       16     6  51    5.00   495.4    5.0      39.770
2014   10       16     6  57    5.00   495.4    5.0      39.789
2014   10       16     7   3    5.00   495.4    5.0      39.807
2014   10       16     7   9    5.00   495.5    5.0      39.826
2014   10       16     7  15    5.01   495.5    5.0      39.843
2014   10       16     7  21    5.01   495.5    5.0      39.861
2014   10       16     7  27    5.01   495.5    5.0      39.877
2014   10       16     7  33    5.01   495.5    5.0      39.894
2014   10       16     7  39    5.01   495.6    5.0      39.910
2014   10       16     7  45    5.01   495.6    5.0      39.926
2014   10       16     7  51    5.02   495.6    5.0      39.941
2014   10       16     7  57    5.02   495.6    5.0      39.957
2014   10       16     8   3    5.02   495.7    5.0      39.972
2014   10       16     8   9    5.02   495.7    5.0      39.987
2014   10       16     8  15    5.02   495.7    5.0      40.002
2014   10       16     8  21    5.02   495.7    5.0      40.016
2014   10       16     8  27    5.03   495.8    5.0      40.031
2014   10       16     8  33    5.03   495.8    5.0      40.046
2014   10       16     8  39    5.03   495.8    5.0      40.061
2014   10       16     8  45    5.03   495.8    5.0      40.076
2014   10       16     8  51    5.03   495.8    5.0      40.092
2014   10       16     8  57    5.03   495.9    5.0      40.107
2014   10       16     9   3    5.04   495.9    5.1      40.123
2014   10       16     9   9    5.04   495.9    5.1      40.140
2014   10       16     9  15    5.04   495.9    5.1      40.157
2014   10       16     9  21    5.04   496.0    5.1      40.175
2014   10       16     9  27    5.04   496.0    5.1      40.193
2014   10       16     9  33    5.04   496.0    5.1      40.212
2014   10       16     9  39    5.04   496.0    5.1      40.232
2014   10       16     9  45    5.05   496.0    5.1      40.252
2014   10       16     9  51    5.05   496.1    5.1      40.274
2014   10       16     9  57    5.05   496.1    5.1      40.296
2014   10       16    10   3    5.05   496.1    5.1      40.320
2014   10       16    10   9    5.05   496.1    5.1      40.346
2014   10       16    10  15    5.05   496.2    5.1      40.373
2014   10       16    10  21    5.06   496.2    5.1      40.401
2014   10       16    10  27    5.06   496.2    5.1      40.431
2014   10       16    10  33    5.06   496.2    5.1      40.463
2014   10       16    10  39    5.06   496.3    5.1      40.498
2014   10       16    10  45    5.06   496.3    5.1      40.535
2014   10       16    10  51    5.06   496.3    5.1      40.574
2014   10       16    10  57    5.07   496.4    5.1      40.615
2014   10       16    11   3    5.07   496.4    5.1      40.658
2014   10       16    11   9    5.07   496.5    5.1      40.703
2014   10       16    11  15    5.07   496.5    5.1      40.748
2014   10       16    11  21    5.07   496.6    5.1      40.792
2014   10       16    11  27    5.07   496.6    5.1      40.835
2014   10       16    11  33    5.07   496.7    5.2      40.877
2014   10       16    11  39    5.08   496.7    5.2      40.919
2014   10       16    11  45    5.08   496.7    5.2      40.959
2014   10       16    11  51    5.08   496.8    5.2      40.997
2014   10       16    11  57    5.08   496.8    5.2      41.034
2014   10       16    12   4    5.08   496.9    5.2      41.069
2014   10       16    12   9    5.08   496.9    5.2      41.103
2014   10       16    12  16    5.08   497.0    5.2      41.135
2014   10       16    12  22    5.08   497.0    5.2      41.166
2014   10       16    12  28    5.08   497.1    5.2      41.196
2014   10       16    12  33    5.09   497.1    5.2      41.225
2014   10       16    12  40    5.09   497.1    5.2      41.252
2014   10       16    12  45    5.09   497.2    5.2      41.279
2014   10       16    12  52    5.09   497.2    5.2      41.304
2014   10       16    12  57    5.09   497.3    5.2      41.328
2014   10       16    13   3    5.09   497.3    5.2      41.352
2014   10       16    13   9    5.09   497.3    5.2      41.374
2014   10       16    13  15    5.09   497.4    5.2      41.396
2014   10       16    13  21    5.09   497.4    5.2      41.417
2014   10       16    13  27    5.09   497.5    5.2      41.437
2014   10       16    13  33    5.09   497.5    5.2      41.456
2014   10       16    13  39    5.10   497.5    5.2      41.475
2014   10       16    13  45    5.10   497.6    5.2      41.493
2014   10       16    13  51    5.10   497.6    5.2      41.510
2014   10       16    13  57    5.10   497.7    5.2      41.526
2014   10       16    14   3    5.10   497.7    5.2      41.542
2014   10       16    14   9    5.10   497.7    5.2      41.558
2014   10       16    14  15    5.10   497.8    5.2      41.573
2014   10       16    14  21    5.10   497.8    5.2      41.587
2014   10       16    14  27    5.10   497.8    5.2      41.601
2014   10       16    14  33    5.10   497.9    5.2      41.614
2014   10       16    14  39    5.10   497.9    5.2      41.627
2014   10       16    14  45    5.10   497.9    5.2      41.640
2014   10       16    14  51    5.10   498.0    5.2      41.652
2014   10       16    14  57    5.10   498.0    5.2      41.663
2014   10       16    15   3    5.10   498.0    5.2      41.675
2014   10       16    15   9    5.10   498.1    5.2      41.686
2014   10       16    15  15    5.10   498.1    5.2      41.696
2014   10       16    15  21    5.10   498.1    5.2      41.706
2014   10       16    15  27    5.10   498.2    5.2      41.716
2014   10       16    15  33    5.10   498.2    5.2      41.726
2014   10       16    15  39    5.10   498.2    5.2      41.735
2014   10       16    15  45    5.10   498.3    5.2      41.744
2014   10       16    15  51    5.10   498.3    5.2      41.753
2014   10       16    15  57    5.11   498.3    5.2      41.762
2014   10       16    16   3    5.11   498.3    5.2      41.770
2014   10       16    16   9    5.11   498.4    5.2      41.779
2014   10       16    16  15    5.11   498.4    5.2      41.788
2014   10       16    16  21    5.11   498.4    5.2      41.796
2014   10       16    16  27    5.11   498.4    5.2      41.805
2014   10       16    16  33    5.11   498.5    5.2      41.814
2014   10       16    16  39    5.11   498.5    5.2      41.823
2014   10       16    16  45    5.11   498.5    5.2      41.832
2014   10       16    16  51    5.11   498.5    5.2      41.841
2014   10       16    16  57    5.11   498.6    5.2      41.851
2014   10       16    17   3    5.11   498.6    5.2      41.861
2014   10       16    17   9    5.11   498.6    5.2      41.870
2014   10       16    17  15    5.11   498.6    5.2      41.881
2014   10       16    17  21    5.11   498.6    5.2      41.892
2014   10       16    17  27    5.11   498.7    5.2      41.903
2014   10       16    17  33    5.11   498.7    5.2      41.914
2014   10       16    17  39    5.11   498.7    5.2      41.926
2014   10       16    17  45    5.11   498.7    5.2      41.938
2014   10       16    17  51    5.11   498.7    5.2      41.950
2014   10       16    17  57    5.11   498.7    5.2      41.963
2014   10       16    18   3    5.11   498.8    5.2      41.977
2014   10       16    18   9    5.11   498.8    5.2      41.991
2014   10       16    18  15    5.11   498.8    5.2      42.006
2014   10       16    18  21    5.11   498.8    5.2      42.021
2014   10       16    18  27    5.11   498.8    5.2      42.037
2014   10       16    18  33    5.11   498.8    5.2      42.054
2014   10       16    18  39    5.11   498.8    5.2      42.071
2014   10       16    18  45    5.11   498.8    5.2      42.090
2014   10       16    18  51    5.11   498.8    5.2      42.109
2014   10       16    18  58    5.11   498.9    5.2      42.129
2014   10       16    19   4    5.11   498.9    5.2      42.149
2014   10       16    19  10    5.11   498.9    5.2      42.170
2014   10       16    19  16    5.11   498.9    5.2      42.192
2014   10       16    19  22    5.11   498.9    5.2      42.214
2014   10       16    19  28    5.11   498.9    5.2      42.235
2014   10       16    19  34    5.11   498.9    5.2      42.256
2014   10       16    19  40    5.11   498.9    5.2      42.276
2014   10       16    19  46    5.11   499.0    5.2      42.296
2014   10       16    19  52    5.11   499.0    5.2      42.315
2014   10       16    19  58    5.11   499.0    5.2      42.333
2014   10       16    20   4    5.11   499.0    5.2      42.349
2014   10       16    20  10    5.11   499.0    5.2      42.365
2014   10       16    20  16    5.11   499.0    5.2      42.380
2014   10       16    20  21    5.11   499.1    5.2      42.394
2014   10       16    20  28    5.11   499.1    5.2      42.407
2014   10       16    20  33    5.11   499.1    5.2      42.419
2014   10       16    20  39    5.11   499.1    5.2      42.431
2014   10       16    20  45    5.11   499.1    5.2      42.441
2014   10       16    20  51    5.11   499.2    5.2      42.451
2014   10       16    20  57    5.11   499.2    5.2      42.461
2014   10       16    21   3    5.11   499.2    5.2      42.469
2014   10       16    21   9    5.10   499.2    5.2      42.477
2014   10       16    21  15    5.10   499.2    5.2      42.484
2014   10       16    21  21    5.10   499.3    5.2      42.491
2014   10       16    21  27    5.10   499.3    5.2      42.497
2014   10       16    21  33    5.10   499.3    5.2      42.503
2014   10       16    21  39    5.10   499.3    5.2      42.508
2014   10       16    21  45    5.10   499.3    5.2      42.513
2014   10       16    21  51    5.10   499.4    5.2      42.517
2014   10       16    21  57    5.10   499.4    5.2      42.521
2014   10       16    22   3    5.10   499.4    5.2      42.524
2014   10       16    22   9    5.10   499.4    5.2      42.527
2014   10       16    22  15    5.10   499.4    5.2      42.529
2014   10       16    22  21    5.10   499.4    5.2      42.532
2014   10       16    22  27    5.10   499.4    5.2      42.533
2014   10       16    22  33    5.10   499.5    5.2      42.535
2014   10       16    22  39    5.09   499.5    5.2      42.536
2014   10       16    22  45    5.09   499.5    5.2      42.537
2014   10       16    22  51    5.09   499.5    5.2      42.538
2014   10       16    22  57    5.09   499.5    5.2      42.538
2014   10       16    23   3    5.09   499.5    5.2      42.538
2014   10       16    23   9    5.09   499.5    5.2      42.538
2014   10       16    23  15    5.09   499.5    5.2      42.537
2014   10       16    23  21    5.09   499.6    5.2      42.536
2014   10       16    23  27    5.09   499.6    5.2      42.535
2014   10       16    23  33    5.09   499.6    5.2      42.534
2014   10       16    23  39    5.09   499.6    5.1      42.532
2014   10       16    23  45    5.08   499.6    5.1      42.531
2014   10       16    23  51    5.08   499.6    5.1      42.529
2014   10       16    23  57    5.08   499.6    5.1      42.527
2014   10       17     0   3    5.08   499.6    5.1      42.525
2014   10       17     0   9    5.08   499.6    5.1      42.523
2014   10       17     0  15    5.08   499.6    5.1      42.521
2014   10       17     0  21    5.08   499.6    5.1      42.519
2014   10       17     0  27    5.08   499.6    5.1      42.517
2014   10       17     0  33    5.07   499.6    5.1      42.515
2014   10       17     0  39    5.07   499.6    5.1      42.513
2014   10       17     0  45    5.07   499.6    5.1      42.512
2014   10       17     0  51    5.07   499.6    5.1      42.510
2014   10       17     0  57    5.07   499.6    5.1      42.509
2014   10       17     1   3    5.07   499.6    5.1      42.508
2014   10       17     1   9    5.07   499.6    5.1      42.508
2014   10       17     1  15    5.07   499.6    5.1      42.507
2014   10       17     1  21    5.07   499.6    5.1      42.507
2014   10       17     1  27    5.06   499.6    5.1      42.507
2014   10       17     1  33    5.06   499.6    5.1      42.508
2014   10       17     1  39    5.06   499.6    5.1      42.508
2014   10       17     1  45    5.06   499.5    5.1      42.510
2014   10       17     1  51    5.06   499.5    5.1      42.511
2014   10       17     1  58    5.06   499.5    5.1      42.513
2014   10       17     2   4    5.06   499.5    5.1      42.515
2014   10       17     2  10    5.06   499.5    5.1      42.518
2014   10       17     2  16    5.05   499.5    5.1      42.520
2014   10       17     2  22    5.05   499.4    5.1      42.524
2014   10       17     2  28    5.05   499.4    5.1      42.527
2014   10       17     2  34    5.05   499.4    5.1      42.531
2014   10       17     2  40    5.05   499.4    5.1      42.535
2014   10       17     2  46    5.05   499.4    5.1      42.539
2014   10       17     2  52    5.05   499.3    5.1      42.543
2014   10       17     2  58    5.05   499.3    5.1      42.548
2014   10       17     3   4    5.04   499.3    5.1      42.552
2014   10       17     3  10    5.04   499.3    5.1      42.557
2014   10       17     3  16    5.04   499.3    5.1      42.561
2014   10       17     3  22    5.04   499.2    5.1      42.564
2014   10       17     3  28    5.04   499.2    5.1      42.566
2014   10       17     3  34    5.04   499.2    5.1      42.569
2014   10       17     3  40    5.04   499.2    5.1      42.570
2014   10       17     3  46    5.04   499.2    5.1      42.571
2014   10       17     3  52    5.04   499.1    5.1      42.571
2014   10       17     3  57    5.03   499.1    5.1      42.570
2014   10       17     4   3    5.03   499.1    5.1      42.569
2014   10       17     4   9    5.03   499.1    5.1      42.567
2014   10       17     4  15    5.03   499.0    5.1      42.565
2014   10       17     4  21    5.03   499.0    5.1      42.562
2014   10       17     4  27    5.03   499.0    5.1      42.559
2014   10       17     4  33    5.03   499.0    5.1      42.555
2014   10       17     4  39    5.02   498.9    5.1      42.550
2014   10       17     4  45    5.02   498.9    5.1      42.546
2014   10       17     4  51    5.02   498.9    5.1      42.541
2014   10       17     4  57    5.02   498.9    5.1      42.535
2014   10       17     5   3    5.02   498.8    5.1      42.529
2014   10       17     5   9    5.02   498.8    5.1      42.523
2014   10       17     5  15    5.01   498.8    5.1      42.516
2014   10       17     5  21    5.01   498.8    5.1      42.509
2014   10       17     5  27    5.01   498.7    5.1      42.502
2014   10       17     5  33    5.01   498.7    5.1      42.494
2014   10       17     5  39    5.01   498.7    5.1      42.486
2014   10       17     5  45    5.01   498.6    5.1      42.478
2014   10       17     5  51    5.00   498.6    5.1      42.469
2014   10       17     5  57    5.00   498.6    5.0      42.461
2014   10       17     6   3    5.00   498.5    5.0      42.452
2014   10       17     6   9    5.00   498.5    5.0      42.443
2014   10       17     6  15    5.00   498.5    5.0      42.434
2014   10       17     6  21    5.00   498.4    5.0      42.424
2014   10       17     6  27    4.99   498.4    5.0      42.414
2014   10       17     6  33    4.99   498.4    5.0      42.405
2014   10       17     6  39    4.99   498.3    5.0      42.395
2014   10       17     6  45    4.99   498.3    5.0      42.384
2014   10       17     6  51    4.99   498.3    5.0      42.374
2014   10       17     6  57    4.99   498.2    5.0      42.363
2014   10       17     7   3    4.98   498.2    5.0      42.353
2014   10       17     7   9    4.98   498.1    5.0      42.342
2014   10       17     7  15    4.98   498.1    5.0      42.331
2014   10       17     7  21    4.98   498.1    5.0      42.320
2014   10       17     7  27    4.98   498.0    5.0      42.309
2014   10       17     7  33    4.97   498.0    5.0      42.298
2014   10       17     7  39    4.97   497.9    5.0      42.287
2014   10       17     7  45    4.97   497.9    5.0      42.276
2014   10       17     7  51    4.97   497.8    5.0      42.265
2014   10       17     7  57    4.97   497.8    5.0      42.254
2014   10       17     8   3    4.96   497.8    5.0      42.243
2014   10       17     8   9    4.96   497.7    5.0      42.232
2014   10       17     8  15    4.96   497.7    5.0      42.221
2014   10       17     8  21    4.96   497.6    5.0      42.211
2014   10       17     8  27    4.96   497.6    5.0      42.200
2014   10       17     8  33    4.96   497.5    5.0      42.189
2014   10       17     8  39    4.95   497.5    5.0      42.179
2014   10       17     8  45    4.95   497.4    5.0      42.168
2014   10       17     8  51    4.95   497.4    5.0      42.158
2014   10       17     8  57    4.95   497.3    5.0      42.148
2014   10       17     9   4    4.95   497.3    5.0      42.137
2014   10       17     9  10    4.94   497.2    5.0      42.127
2014   10       17     9  16    4.94   497.1    5.0      42.117
2014   10       17     9  22    4.94   497.1    5.0      42.107
2014   10       17     9  28    4.94   497.0    5.0      42.097
2014   10       17     9  34    4.94   497.0    5.0      42.087
2014   10       17     9  40    4.93   496.9    5.0      42.077
2014   10       17     9  46    4.93   496.8    5.0      42.067
2014   10       17     9  52    4.93   496.8    5.0      42.057
2014   10       17     9  58    4.93   496.7    5.0      42.047
2014   10       17    10   4    4.93   496.6    5.0      42.038
2014   10       17    10  10    4.92   496.6    5.0      42.028
2014   10       17    10  16    4.92   496.5    5.0      42.018
2014   10       17    10  22    4.92   496.4    5.0      42.008
2014   10       17    10  28    4.92   496.4    5.0      41.999
2014   10       17    10  34    4.92   496.3    5.0      41.989
2014   10       17    10  40    4.91   496.2    5.0      41.979
2014   10       17    10  46    4.91   496.1    5.0      41.969
2014   10       17    10  52    4.91   496.1    5.0      41.959
2014   10       17    10  58    4.91   496.0    5.0      41.949
2014   10       17    11   4    4.91   495.9    5.0      41.939
2014   10       17    11  10    4.91   495.9    5.0      41.928
2014   10       17    11  16    4.90   495.8    5.0      41.917
2014   10       17    11  21    4.90   495.7    5.0      41.907
2014   10       17    11  27    4.90   495.6    5.0      41.896
2014   10       17    11  33    4.90   495.5    5.0      41.885
2014   10       17    11  39    4.90   495.5    4.9      41.873
2014   10       17    11  45    4.89   495.4    4.9      41.861
2014   10       17    11  51    4.89   495.3    4.9      41.849
2014   10       17    11  57    4.89   495.2    4.9      41.837
2014   10       17    12   3    4.89   495.1    4.9      41.825
2014   10       17    12   9    4.89   495.1    4.9      41.813
2014   10       17    12  15    4.89   495.0    4.9      41.800
2014   10       17    12  21    4.88   494.9    4.9      41.786
2014   10       17    12  27    4.88   494.8    4.9      41.773
2014   10       17    12  33    4.88   494.7    4.9      41.759
2014   10       17    12  39    4.88   494.6    4.9      41.745
2014   10       17    12  45    4.88   494.6    4.9      41.730
2014   10       17    12  51    4.87   494.5    4.9      41.715
2014   10       17    12  57    4.87   494.4    4.9      41.700
2014   10       17    13   3    4.87   494.3    4.9      41.684
2014   10       17    13   9    4.87   494.2    4.9      41.668
2014   10       17    13  15    4.87   494.1    4.9      41.651
2014   10       17    13  21    4.87   494.0    4.9      41.635
2014   10       17    13  27    4.86   494.0    4.9      41.618
2014   10       17    13  33    4.86   493.9    4.9      41.601
2014   10       17    13  39    4.86   493.8    4.9      41.584
2014   10       17    13  45    4.86   493.7    4.9      41.566
2014   10       17    13  51    4.86   493.6    4.9      41.548
2014   10       17    13  57    4.86   493.5    4.9      41.530
2014   10       17    14   3    4.85   493.4    4.9      41.511
2014   10       17    14   9    4.85   493.3    4.9      41.493
2014   10       17    14  15    4.85   493.2    4.9      41.474
2014   10       17    14  21    4.85   493.1    4.9      41.455
2014   10       17    14  27    4.85   493.0    4.9      41.436
2014   10       17    14  33    4.84   492.9    4.9      41.416
2014   10       17    14  39    4.84   492.9    4.9      41.397
2014   10       17    14  45    4.84   492.8    4.9      41.377
2014   10       17    14  51    4.84   492.7    4.9      41.356
2014   10       17    14  57    4.84   492.6    4.9      41.336
2014   10       17    15   3    4.84   492.5    4.9      41.315
2014   10       17    15   9    4.83   492.4    4.9      41.294
2014   10       17    15  15    4.83   492.3    4.9      41.273
2014   10       17    15  21    4.83   492.2    4.9      41.252
2014   10       17    15  27    4.83   492.1    4.9      41.230
2014   10       17    15  33    4.83   492.0    4.9      41.208
2014   10       17    15  39    4.82   491.9    4.9      41.186
2014   10       17    15  45    4.82   491.8    4.9      41.164
2014   10       17    15  51    4.82   491.7    4.9      41.141
2014   10       17    15  57    4.82   491.6    4.9      41.119
2014   10       17    16   3    4.82   491.5    4.9      41.096
2014   10       17    16   9    4.82   491.4    4.9      41.073
2014   10       17    16  16    4.81   491.2    4.9      41.050
2014   10       17    16  22    4.81   491.1    4.9      41.028
2014   10       17    16  28    4.81   491.0    4.9      41.005
2014   10       17    16  34    4.81   490.9    4.9      40.982
2014   10       17    16  40    4.81   490.8    4.9      40.960
2014   10       17    16  46    4.81   490.7    4.9      40.937
2014   10       17    16  52    4.80   490.6    4.9      40.915
2014   10       17    16  58    4.80   490.5    4.9      40.893
2014   10       17    17   4    4.80   490.4    4.9      40.870
2014   10       17    17  10    4.80   490.3    4.9      40.848
2014   10       17    17  16    4.80   490.2    4.9      40.826
2014   10       17    17  22    4.79   490.1    4.9      40.804
2014   10       17    17  28    4.79   490.0    4.9      40.782
2014   10       17    17  34    4.79   489.9    4.9      40.760
2014   10       17    17  40    4.79   489.8    4.9      40.737
2014   10       17    17  46    4.79   489.6    4.9      40.716
2014   10       17    17  52    4.79   489.5    4.9      40.693
2014   10       17    17  58    4.78   489.4    4.9      40.671
2014   10       17    18   4    4.78   489.3    4.9      40.649
2014   10       17    18  10    4.78   489.2    4.9      40.627
2014   10       17    18  16    4.78   489.1    4.9      40.604
2014   10       17    18  22    4.78   489.0    4.9      40.582
2014   10       17    18  28    4.78   488.8    4.9      40.559
2014   10       17    18  34    4.77   488.7    4.9      40.537
2014   10       17    18  40    4.77   488.6    4.9      40.514
2014   10       17    18  45    4.77   488.5    4.9      40.492
2014   10       17    18  51    4.77   488.4    4.9      40.469
2014   10       17    18  57    4.77   488.2    4.9      40.446
2014   10       17    19   3    4.77   488.1    4.9      40.423
2014   10       17    19   9    4.76   488.0    4.8      40.401
2014   10       17    19  15    4.76   487.9    4.8      40.378
2014   10       17    19  21    4.76   487.7    4.8      40.355
2014   10       17    19  27    4.76   487.6    4.8      40.332
2014   10       17    19  33    4.76   487.5    4.8      40.310
2014   10       17    19  39    4.76   487.4    4.8      40.287
2014   10       17    19  45    4.76   487.2    4.8      40.264
2014   10       17    19  51    4.75   487.1    4.8      40.241
2014   10       17    19  57    4.75   487.0    4.8      40.218
2014   10       17    20   3    4.75   486.9    4.8      40.194
2014   10       17    20   9    4.75   486.7    4.8      40.171
2014   10       17    20  15    4.75   486.6    4.8      40.147
2014   10       17    20  21    4.75   486.5    4.8      40.124
2014   10       17    20  27    4.75   486.4    4.8      40.100
2014   10       17    20  33    4.75   486.2    4.8      40.077
2014   10       17    20  39    4.74   486.1    4.8      40.053
2014   10       17    20  45    4.74   486.0    4.8      40.029
2014   10       17    20  51    4.74   485.8    4.8      40.006
2014   10       17    20  57    4.74   485.7    4.8      39.983
2014   10       17    21   3    4.74   485.6    4.8      39.959
2014   10       17    21   9    4.74   485.5    4.8      39.937
2014   10       17    21  15    4.74   485.3    4.8      39.914
2014   10       17    21  21    4.74   485.2    4.8      39.891
2014   10       17    21  27    4.74   485.1    4.8      39.869
2014   10       17    21  33    4.73   484.9    4.8      39.846
2014   10       17    21  39    4.73   484.8    4.9      39.824
2014   10       17    21  45    4.73   484.7    4.9      39.803
2014   10       17    21  51    4.73   484.6    4.9      39.782
2014   10       17    21  57    4.73   484.4    4.9      39.761
2014   10       17    22   3    4.73   484.3    4.9      39.740
2014   10       17    22   9    4.73   484.2    4.9      39.720
2014   10       17    22  15    4.73   484.0    4.9      39.699
2014   10       17    22  21    4.72   483.9    4.9      39.677
2014   10       17    22  27    4.72   483.8    4.9      39.655
2014   10       17    22  33    4.72   483.6    4.9      39.632
2014   10       17    22  39    4.72   483.5    4.9      39.609
2014   10       17    22  45    4.72   483.4    4.9      39.586
2014   10       17    22  51    4.72   483.2    4.9      39.562
2014   10       17    22  57    4.72   483.1    4.9      39.538
2014   10       17    23   3    4.72   483.0    4.9      39.514
2014   10       17    23   9    4.71   482.9    4.9      39.489
2014   10       17    23  16    4.71   482.7    4.9      39.464
2014   10       17    23  22    4.71   482.6    4.9      39.438
2014   10       17    23  28    4.71   482.5    4.9      39.413
2014   10       17    23  34    4.71   482.3    4.9      39.387
2014   10       17    23  40    4.71   482.2    4.9      39.361
2014   10       17    23  46    4.71   482.1    4.8      39.335
2014   10       17    23  52    4.71   481.9    4.8      39.308
2014   10       17    23  58    4.71   481.8    4.8      39.282
2014   10       18     0   4    4.70   481.7    4.8      39.255
2014   10       18     0  10    4.70   481.5    4.8      39.228
2014   10       18     0  16    4.70   481.4    4.8      39.201
2014   10       18     0  22    4.70   481.3    4.8      39.173
2014   10       18     0  28    4.70   481.1    4.8      39.146
2014   10       18     0  34    4.70   481.0    4.8      39.118
2014   10       18     0  40    4.70   480.8    4.8      39.090
2014   10       18     0  46    4.70   480.7    4.8      39.061
2014   10       18     0  52    4.69   480.6    4.8      39.032
2014   10       18     0  58    4.69   480.4    4.8      39.004
2014   10       18     1   4    4.69   480.3    4.8      38.974
2014   10       18     1  10    4.69   480.2    4.8      38.945
2014   10       18     1  16    4.69   480.0    4.8      38.915
2014   10       18     1  22    4.69   479.9    4.8      38.885
2014   10       18     1  28    4.69   479.7    4.8      38.855
2014   10       18     1  34    4.69   479.6    4.8      38.825
2014   10       18     1  40    4.69   479.4    4.8      38.794
2014   10       18     1  46    4.68   479.3    4.8      38.763
2014   10       18     1  52    4.68   479.2    4.8      38.732
2014   10       18     1  58    4.68   479.0    4.8      38.701
2014   10       18     2   4    4.68   478.9    4.8      38.669
2014   10       18     2   9    4.68   478.7    4.8      38.638
2014   10       18     2  15    4.68   478.6    4.8      38.607
2014   10       18     2  21    4.68   478.4    4.8      38.575
2014   10       18     2  27    4.68   478.3    4.8      38.544
2014   10       18     2  33    4.68   478.1    4.8      38.512
2014   10       18     2  39    4.67   478.0    4.8      38.480
2014   10       18     2  45    4.67   477.8    4.8      38.449
2014   10       18     2  51    4.67   477.7    4.8      38.417
2014   10       18     2  57    4.67   477.5    4.8      38.386
2014   10       18     3   3    4.67   477.4    4.8      38.354
2014   10       18     3   9    4.67   477.2    4.8      38.323
2014   10       18     3  15    4.67   477.1    4.8      38.292
2014   10       18     3  21    4.67   476.9    4.8      38.261
2014   10       18     3  27    4.67   476.8    4.8      38.230
2014   10       18     3  33    4.67   476.6    4.8      38.199
2014   10       18     3  39    4.67   476.5    4.8      38.168
2014   10       18     3  45    4.67   476.3    4.8      38.138
2014   10       18     3  51    4.67   476.2    4.8      38.108
2014   10       18     3  57    4.67   476.0    4.8      38.078
2014   10       18     4   3    4.66   475.9    4.8      38.049
2014   10       18     4   9    4.66   475.7    4.8      38.020
2014   10       18     4  15    4.66   475.6    4.8      37.991
2014   10       18     4  21    4.66   475.4    4.8      37.963
2014   10       18     4  27    4.66   475.3    4.8      37.935
2014   10       18     4  33    4.66   475.1    4.8      37.908
2014   10       18     4  39    4.66   474.9    4.8      37.882
2014   10       18     4  45    4.66   474.8    4.8      37.856
2014   10       18     4  51    4.66   474.6    4.8      37.830
2014   10       18     4  57    4.66   474.5    4.8      37.806
2014   10       18     5   3    4.66   474.3    4.8      37.782
2014   10       18     5   9    4.66   474.2    4.8      37.759
2014   10       18     5  15    4.66   474.0    4.8      37.737
2014   10       18     5  21    4.66   473.9    4.8      37.715
2014   10       18     5  27    4.66   473.7    4.8      37.693
2014   10       18     5  33    4.66   473.6    4.8      37.672
2014   10       18     5  39    4.66   473.4    4.8      37.650
2014   10       18     5  45    4.65   473.3    4.9      37.628
2014   10       18     5  51    4.65   473.1    4.9      37.606
2014   10       18     5  57    4.65   473.0    4.9      37.584
2014   10       18     6   3    4.65   472.8    4.9      37.562
2014   10       18     6   9    4.65   472.6    4.9      37.539
2014   10       18     6  15    4.65   472.5    4.9      37.517
2014   10       18     6  22    4.65   472.3    4.9      37.494
2014   10       18     6  28    4.65   472.2    4.9      37.471
2014   10       18     6  34    4.65   472.0    4.9      37.448
2014   10       18     6  40    4.65   471.9    4.9      37.425
2014   10       18     6  46    4.65   471.7    4.9      37.401
2014   10       18     6  52    4.65   471.6    4.9      37.378
2014   10       18     6  58    4.65   471.4    4.9      37.354
2014   10       18     7   4    4.65   471.2    4.9      37.329
2014   10       18     7  10    4.64   471.1    4.9      37.305
2014   10       18     7  16    4.64   470.9    4.9      37.280
2014   10       18     7  22    4.64   470.8    4.9      37.255
2014   10       18     7  28    4.64   470.6    4.9      37.229
2014   10       18     7  34    4.64   470.4    4.9      37.204
2014   10       18     7  40    4.64   470.3    4.9      37.178
2014   10       18     7  46    4.64   470.1    4.9      37.152
2014   10       18     7  52    4.64   469.9    4.9      37.126
2014   10       18     7  58    4.64   469.8    4.9      37.100
2014   10       18     8   4    4.64   469.6    4.9      37.074
2014   10       18     8  10    4.64   469.4    4.9      37.047
2014   10       18     8  16    4.64   469.3    4.9      37.021
2014   10       18     8  22    4.64   469.1    4.9      36.994
2014   10       18     8  28    4.64   468.9    4.9      36.968
2014   10       18     8  34    4.64   468.8    4.9      36.941
2014   10       18     8  40    4.64   468.6    4.9      36.915
2014   10       18     8  46    4.64   468.4    4.9      36.888
2014   10       18     8  52    4.64   468.3    4.9      36.862
2014   10       18     8  58    4.63   468.1    4.9      36.836
2014   10       18     9   4    4.63   467.9    4.9      36.809
2014   10       18     9  10    4.63   467.8    4.9      36.783
2014   10       18     9  16    4.63   467.6    4.9      36.757
2014   10       18     9  22    4.63   467.4    4.9      36.731
2014   10       18     9  28    4.63   467.3    4.9      36.705
2014   10       18     9  33    4.63   467.1    4.9      36.679
2014   10       18     9  39    4.63   466.9    4.9      36.653
2014   10       18     9  45    4.63   466.8    4.9      36.628
2014   10       18     9  51    4.63   466.6    4.9      36.602
2014   10       18     9  57    4.63   466.4    4.9      36.576
2014   10       18    10   3    4.63   466.3    4.9      36.550
2014   10       18    10   9    4.63   466.1    4.9      36.525
2014   10       18    10  15    4.63   465.9    4.9      36.499
2014   10       18    10  21    4.63   465.7    4.9      36.473
2014   10       18    10  27    4.63   465.6    4.9      36.447
2014   10       18    10  33    4.63   465.4    4.9      36.420
2014   10       18    10  39    4.63   465.2    4.9      36.394
2014   10       18    10  45    4.63   465.0    4.9      36.367
2014   10       18    10  51    4.63   464.8    4.9      36.340
2014   10       18    10  57    4.63   464.7    4.9      36.312
2014   10       18    11   3    4.63   464.5    4.9      36.284
2014   10       18    11   9    4.63   464.3    4.9      36.255
2014   10       18    11  15    4.63   464.1    4.9      36.227
2014   10       18    11  21    4.63   463.9    4.9      36.198
2014   10       18    11  27    4.63   463.8    4.9      36.169
2014   10       18    11  33    4.63   463.6    4.9      36.140
2014   10       18    11  39    4.63   463.4    4.9      36.111
2014   10       18    11  45    4.63   463.2    4.9      36.081
2014   10       18    11  51    4.63   463.0    4.9      36.052
2014   10       18    11  57    4.63   462.8    4.9      36.023
2014   10       18    12   3    4.63   462.6    4.9      35.994
2014   10       18    12   9    4.63   462.5    4.9      35.965
2014   10       18    12  15    4.63   462.3    4.9      35.936
2014   10       18    12  21    4.63   462.1    4.9      35.907
2014   10       18    12  27    4.63   461.9    4.9      35.878
2014   10       18    12  33    4.63   461.7    4.9      35.850
2014   10       18    12  39    4.63   461.5    4.9      35.821
2014   10       18    12  45    4.63   461.3    4.9      35.793
2014   10       18    12  51    4.63   461.2    4.9      35.764
2014   10       18    12  57    4.63   461.0    4.9      35.736
2014   10       18    13   3    4.63   460.8    4.9      35.708
2014   10       18    13   9    4.63   460.6    4.9      35.679
2014   10       18    13  15    4.63   460.4    4.9      35.651
2014   10       18    13  21    4.63   460.2    5.0      35.622
2014   10       18    13  28    4.63   460.0    5.0      35.593
2014   10       18    13  34    4.63   459.8    5.0      35.565
2014   10       18    13  40    4.63   459.6    5.0      35.536
2014   10       18    13  46    4.63   459.4    5.0      35.507
2014   10       18    13  52    4.63   459.3    5.0      35.477
2014   10       18    13  58    4.63   459.1    5.0      35.448
2014   10       18    14   4    4.63   458.9    5.0      35.418
2014   10       18    14  10    4.63   458.7    5.0      35.389
2014   10       18    14  16    4.63   458.5    5.0      35.359
2014   10       18    14  22    4.63   458.3    5.0      35.329
2014   10       18    14  28    4.63   458.1    5.0      35.298
2014   10       18    14  34    4.63   457.9    5.0      35.268
2014   10       18    14  40    4.63   457.7    5.0      35.238
2014   10       18    14  46    4.63   457.5    5.0      35.208
2014   10       18    14  52    4.63   457.3    5.0      35.177
2014   10       18    14  58    4.63   457.1    5.0      35.147
2014   10       18    15   4    4.63   456.9    5.0      35.117
2014   10       18    15  10    4.63   456.7    5.0      35.087
2014   10       18    15  16    4.64   456.4    5.0      35.058
2014   10       18    15  22    4.64   456.2    5.0      35.029
2014   10       18    15  28    4.64   456.0    5.0      34.999
2014   10       18    15  34    4.64   455.8    5.0      34.971
2014   10       18    15  40    4.64   455.6    5.0      34.943
2014   10       18    15  46    4.64   455.4    5.0      34.915
2014   10       18    15  52    4.64   455.2    5.0      34.888
2014   10       18    15  58    4.64   455.0    5.0      34.861
2014   10       18    16   4    4.64   454.8    5.0      34.835
2014   10       18    16  10    4.64   454.6    5.0      34.810
2014   10       18    16  16    4.64   454.4    5.0      34.785
2014   10       18    16  22    4.64   454.2    5.0      34.761
2014   10       18    16  28    4.65   454.0    5.1      34.737
2014   10       18    16  34    4.65   453.8    5.1      34.714
2014   10       18    16  40    4.65   453.6    5.1      34.691
2014   10       18    16  46    4.65   453.4    5.1      34.670
2014   10       18    16  52    4.65   453.2    5.1      34.649
2014   10       18    16  57    4.65   453.0    5.1      34.629
2014   10       18    17   3    4.65   452.7    5.1      34.609
2014   10       18    17   9    4.65   452.5    5.1      34.590
2014   10       18    17  15    4.66   452.3    5.1      34.571
2014   10       18    17  21    4.66   452.1    5.1      34.554
2014   10       18    17  27    4.66   451.9    5.1      34.536
2014   10       18    17  33    4.66   451.7    5.1      34.519
2014   10       18    17  39    4.66   451.5    5.1      34.503
2014   10       18    17  45    4.66   451.3    5.1      34.487
2014   10       18    17  51    4.67   451.1    5.1      34.471
2014   10       18    17  57    4.67   450.9    5.1      34.456
2014   10       18    18   3    4.67   450.7    5.1      34.441
2014   10       18    18   9    4.67   450.5    5.1      34.425
2014   10       18    18  15    4.67   450.3    5.1      34.410
2014   10       18    18  21    4.67   450.1    5.2      34.395
2014   10       18    18  27    4.68   449.8    5.2      34.379
2014   10       18    18  33    4.68   449.6    5.2      34.364
2014   10       18    18  39    4.68   449.4    5.2      34.348
2014   10       18    18  45    4.68   449.2    5.2      34.333
2014   10       18    18  51    4.68   449.0    5.2      34.316
2014   10       18    18  57    4.68   448.8    5.2      34.300
2014   10       18    19   3    4.69   448.6    5.2      34.284
2014   10       18    19   9    4.69   448.4    5.2      34.267
2014   10       18    19  15    4.69   448.2    5.2      34.251
2014   10       18    19  21    4.69   448.0    5.2      34.233
2014   10       18    19  27    4.69   447.8    5.2      34.216
2014   10       18    19  33    4.70   447.6    5.2      34.199
2014   10       18    19  39    4.70   447.4    5.2      34.181
2014   10       18    19  45    4.70   447.1    5.2      34.162
2014   10       18    19  51    4.70   446.9    5.2      34.144
2014   10       18    19  57    4.70   446.7    5.2      34.125
2014   10       18    20   3    4.70   446.5    5.3      34.106
2014   10       18    20   9    4.71   446.3    5.3      34.087
2014   10       18    20  15    4.71   446.1    5.3      34.067
2014   10       18    20  21    4.71   445.9    5.3      34.047
2014   10       18    20  28    4.71   445.6    5.3      34.027
2014   10       18    20  34    4.71   445.4    5.3      34.007
2014   10       18    20  40    4.72   445.2    5.3      33.986
2014   10       18    20  46    4.72   445.0    5.3      33.965
2014   10       18    20  52    4.72   444.8    5.3      33.943
2014   10       18    20  58    4.72   444.6    5.3      33.922
2014   10       18    21   4    4.72   444.4    5.3      33.900
2014   10       18    21  10    4.73   444.1    5.3      33.878
2014   10       18    21  16    4.73   443.9    5.3      33.855
2014   10       18    21  22    4.73   443.7    5.3      33.833
2014   10       18    21  28    4.73   443.5    5.3      33.810
2014   10       18    21  34    4.74   443.3    5.3      33.787
2014   10       18    21  40    4.74   443.1    5.3      33.764
2014   10       18    21  46    4.74   442.8    5.3      33.741
2014   10       18    21  52    4.74   442.6    5.4      33.718
2014   10       18    21  58    4.75   442.4    5.4      33.695
2014   10       18    22   4    4.75   442.2    5.4      33.671
2014   10       18    22  10    4.75   442.0    5.4      33.648
2014   10       18    22  16    4.76   441.8    5.4      33.625
2014   10       18    22  22    4.76   441.5    5.4      33.602
2014   10       18    22  28    4.76   441.3    5.4      33.578
2014   10       18    22  34    4.76   441.1    5.4      33.556
2014   10       18    22  40    4.77   440.9    5.4      33.533
2014   10       18    22  46    4.77   440.7    5.4      33.510
2014   10       18    22  52    4.77   440.5    5.4      33.487
2014   10       18    22  58    4.78   440.3    5.4      33.465
2014   10       18    23   4    4.78   440.0    5.4      33.443
2014   10       18    23  10    4.78   439.8    5.4      33.422
2014   10       18    23  16    4.79   439.6    5.4      33.401
2014   10       18    23  22    4.79   439.4    5.4      33.380
2014   10       18    23  28    4.80   439.2    5.5      33.359
2014   10       18    23  34    4.80   439.0    5.5      33.339
2014   10       18    23  40    4.80   438.8    5.5      33.320
2014   10       18    23  46    4.81   438.6    5.5      33.301
2014   10       18    23  52    4.81   438.4    5.5      33.282
2014   10       18    23  58    4.81   438.2    5.5      33.264
2014   10       19     0   4    4.82   438.0    5.5      33.246
