year    month   day   hour  minute  B_enl V_enl   n_enl       T_enl
[year] [month] [day] [hour][minute] [nT]  [km/s]  [cm-3]      [kK]
2013    3        4     0   5    3.99   492.3    4.9      40.819
2013    3        4     0  12    3.99   492.2    4.9      40.797
2013    3        4     0  18    3.99   492.1    4.9      40.774
2013    3        4     0  24    3.99   492.0    4.9      40.752
2013    3        4     0  30    3.98   491.9    4.9      40.730
2013    3        4     0  37    3.98   491.8    4.9      40.707
2013    3        4     0  43    3.98   491.7    4.9      40.684
2013    3        4     0  49    3.98   491.6    4.9      40.662
2013    3        4     0  55    3.98   491.5    4.9      40.640
2013    3        4     1   2    3.98   491.3    4.9      40.617
2013    3        4     1   8    3.97   491.2    4.9      40.595
2013    3        4     1  14    3.97   491.1    4.9      40.574
2013    3        4     1  21    3.97   491.0    4.9      40.552
2013    3        4     1  27    3.97   490.9    4.9      40.531
2013    3        4     1  33    3.97   490.8    4.9      40.510
2013    3        4     1  39    3.97   490.7    4.9      40.490
2013    3        4     1  46    3.97   490.6    4.9      40.470
2013    3        4     1  52    3.97   490.5    4.9      40.450
2013    3        4     1  58    3.96   490.4    4.9      40.432
2013    3        4     2   4    3.96   490.3    4.9      40.413
2013    3        4     2  11    3.96   490.2    4.9      40.396
2013    3        4     2  17    3.96   490.1    4.9      40.378
2013    3        4     2  23    3.96   490.0    4.9      40.361
2013    3        4     2  29    3.96   489.9    4.9      40.344
2013    3        4     2  36    3.96   489.8    4.9      40.328
2013    3        4     2  42    3.96   489.7    4.9      40.311
2013    3        4     2  48    3.95   489.6    4.9      40.294
2013    3        4     2  55    3.95   489.5    4.9      40.277
2013    3        4     3   1    3.95   489.4    4.9      40.260
2013    3        4     3   7    3.95   489.3    4.9      40.243
2013    3        4     3  13    3.95   489.1    4.9      40.226
2013    3        4     3  20    3.95   489.0    4.9      40.208
2013    3        4     3  26    3.95   488.9    4.9      40.190
2013    3        4     3  32    3.95   488.8    4.9      40.172
2013    3        4     3  38    3.95   488.7    4.9      40.154
2013    3        4     3  45    3.94   488.6    4.9      40.136
2013    3        4     3  51    3.94   488.5    4.9      40.118
2013    3        4     3  57    3.94   488.4    4.9      40.099
2013    3        4     4   3    3.94   488.3    4.9      40.081
2013    3        4     4  10    3.94   488.2    4.9      40.063
2013    3        4     4  16    3.94   488.1    4.9      40.045
2013    3        4     4  22    3.94   488.0    4.9      40.026
2013    3        4     4  29    3.94   487.9    4.9      40.008
2013    3        4     4  35    3.93   487.8    4.9      39.989
2013    3        4     4  41    3.93   487.7    4.9      39.970
2013    3        4     4  47    3.93   487.6    4.9      39.951
2013    3        4     4  54    3.93   487.5    4.9      39.931
2013    3        4     5   0    3.93   487.3    4.9      39.911
2013    3        4     5   6    3.93   487.2    4.9      39.890
2013    3        4     5  12    3.93   487.1    4.9      39.869
2013    3        4     5  19    3.93   487.0    4.9      39.848
2013    3        4     5  25    3.92   486.9    4.9      39.826
2013    3        4     5  31    3.92   486.8    4.9      39.803
2013    3        4     5  37    3.92   486.7    4.9      39.780
2013    3        4     5  44    3.92   486.6    4.9      39.757
2013    3        4     5  50    3.92   486.5    4.9      39.733
2013    3        4     5  56    3.92   486.4    4.9      39.709
2013    3        4     6   3    3.91   486.3    4.9      39.684
2013    3        4     6   9    3.91   486.2    4.9      39.659
2013    3        4     6  15    3.91   486.1    4.9      39.634
2013    3        4     6  21    3.91   485.9    4.8      39.609
2013    3        4     6  28    3.91   485.8    4.8      39.583
2013    3        4     6  34    3.91   485.7    4.8      39.557
2013    3        4     6  40    3.91   485.6    4.8      39.530
2013    3        4     6  46    3.90   485.5    4.8      39.504
2013    3        4     6  53    3.90   485.4    4.8      39.477
2013    3        4     6  59    3.90   485.2    4.8      39.450
2013    3        4     7   5    3.90   485.1    4.8      39.424
2013    3        4     7  11    3.90   485.0    4.8      39.397
2013    3        4     7  18    3.90   484.9    4.8      39.370
2013    3        4     7  24    3.90   484.8    4.8      39.344
2013    3        4     7  30    3.89   484.7    4.8      39.318
2013    3        4     7  37    3.89   484.5    4.8      39.292
2013    3        4     7  43    3.89   484.4    4.8      39.266
2013    3        4     7  49    3.89   484.3    4.8      39.241
2013    3        4     7  55    3.89   484.2    4.8      39.217
2013    3        4     8   2    3.89   484.1    4.8      39.193
2013    3        4     8   8    3.89   484.0    4.8      39.170
2013    3        4     8  14    3.88   483.8    4.8      39.148
2013    3        4     8  20    3.88   483.7    4.8      39.126
2013    3        4     8  27    3.88   483.6    4.8      39.105
2013    3        4     8  33    3.88   483.5    4.8      39.085
2013    3        4     8  39    3.88   483.4    4.8      39.066
2013    3        4     8  46    3.88   483.3    4.8      39.048
2013    3        4     8  52    3.88   483.2    4.8      39.031
2013    3        4     8  58    3.88   483.1    4.8      39.015
2013    3        4     9   4    3.88   483.0    4.8      38.999
2013    3        4     9  11    3.87   482.9    4.8      38.984
2013    3        4     9  17    3.87   482.8    4.8      38.970
2013    3        4     9  23    3.87   482.7    4.8      38.957
2013    3        4     9  29    3.87   482.6    4.9      38.944
2013    3        4     9  36    3.87   482.5    4.9      38.932
2013    3        4     9  42    3.87   482.4    4.9      38.920
2013    3        4     9  48    3.87   482.3    4.9      38.907
2013    3        4     9  54    3.87   482.2    4.9      38.895
2013    3        4    10   1    3.87   482.1    4.9      38.881
2013    3        4    10   7    3.86   482.0    4.9      38.868
2013    3        4    10  13    3.86   481.9    4.9      38.853
2013    3        4    10  20    3.86   481.8    4.9      38.839
2013    3        4    10  26    3.86   481.7    4.9      38.823
2013    3        4    10  32    3.86   481.6    4.9      38.807
2013    3        4    10  38    3.86   481.5    4.9      38.790
2013    3        4    10  45    3.86   481.4    4.9      38.772
2013    3        4    10  51    3.85   481.2    4.9      38.753
2013    3        4    10  57    3.85   481.1    4.9      38.733
2013    3        4    11   3    3.85   481.0    4.9      38.713
2013    3        4    11  10    3.85   480.9    4.9      38.692
2013    3        4    11  16    3.85   480.8    4.9      38.671
2013    3        4    11  22    3.85   480.6    4.9      38.649
2013    3        4    11  28    3.84   480.5    4.9      38.626
2013    3        4    11  35    3.84   480.4    4.9      38.603
2013    3        4    11  41    3.84   480.3    4.9      38.579
2013    3        4    11  47    3.84   480.1    4.9      38.556
2013    3        4    11  54    3.84   480.0    4.9      38.531
2013    3        4    12   0    3.84   479.9    4.9      38.507
2013    3        4    12   6    3.84   479.8    4.9      38.483
2013    3        4    12  12    3.83   479.6    4.9      38.459
2013    3        4    12  19    3.83   479.5    4.9      38.434
2013    3        4    12  25    3.83   479.4    4.9      38.410
2013    3        4    12  31    3.83   479.2    4.9      38.386
2013    3        4    12  37    3.83   479.1    4.9      38.362
2013    3        4    12  44    3.83   479.0    4.9      38.339
2013    3        4    12  50    3.82   478.8    4.9      38.316
2013    3        4    12  56    3.82   478.7    4.9      38.294
2013    3        4    13   2    3.82   478.5    4.9      38.273
2013    3        4    13   9    3.82   478.4    4.9      38.252
2013    3        4    13  15    3.82   478.3    4.9      38.232
2013    3        4    13  21    3.82   478.1    4.9      38.213
2013    3        4    13  27    3.82   478.0    4.9      38.195
2013    3        4    13  34    3.82   477.9    4.9      38.177
2013    3        4    13  40    3.82   477.8    4.9      38.159
2013    3        4    13  46    3.81   477.6    4.9      38.142
2013    3        4    13  53    3.81   477.5    4.9      38.125
2013    3        4    13  59    3.81   477.4    4.9      38.107
2013    3        4    14   5    3.81   477.2    4.9      38.089
2013    3        4    14  11    3.81   477.1    4.9      38.071
2013    3        4    14  18    3.81   477.0    4.9      38.053
2013    3        4    14  24    3.81   476.9    4.9      38.035
2013    3        4    14  30    3.81   476.7    4.9      38.015
2013    3        4    14  36    3.81   476.6    4.9      37.995
2013    3        4    14  43    3.81   476.5    4.9      37.975
2013    3        4    14  49    3.80   476.4    4.9      37.954
2013    3        4    14  55    3.80   476.2    4.9      37.932
2013    3        4    15   2    3.80   476.1    4.9      37.910
2013    3        4    15   8    3.80   476.0    4.9      37.888
2013    3        4    15  14    3.80   475.9    4.9      37.866
2013    3        4    15  20    3.80   475.7    4.9      37.843
2013    3        4    15  27    3.80   475.6    4.9      37.820
2013    3        4    15  33    3.80   475.5    4.9      37.798
2013    3        4    15  39    3.80   475.4    4.9      37.775
2013    3        4    15  45    3.79   475.3    4.9      37.752
2013    3        4    15  52    3.79   475.1    4.9      37.729
2013    3        4    15  58    3.79   475.0    4.9      37.706
2013    3        4    16   4    3.79   474.9    4.9      37.684
2013    3        4    16  11    3.79   474.8    4.9      37.661
2013    3        4    16  17    3.79   474.7    4.9      37.638
2013    3        4    16  23    3.79   474.5    4.9      37.616
2013    3        4    16  29    3.79   474.4    4.9      37.593
2013    3        4    16  36    3.78   474.3    4.9      37.570
2013    3        4    16  42    3.78   474.2    4.9      37.547
2013    3        4    16  48    3.78   474.1    4.9      37.523
2013    3        4    16  54    3.78   474.0    4.9      37.500
2013    3        4    17   1    3.78   473.8    4.9      37.476
2013    3        4    17   7    3.78   473.7    4.9      37.452
2013    3        4    17  13    3.78   473.6    4.9      37.428
2013    3        4    17  19    3.78   473.5    4.9      37.403
2013    3        4    17  26    3.77   473.3    4.9      37.378
2013    3        4    17  32    3.77   473.2    4.9      37.352
2013    3        4    17  38    3.77   473.1    4.9      37.326
2013    3        4    17  45    3.77   473.0    4.9      37.300
2013    3        4    17  51    3.77   472.8    4.9      37.274
2013    3        4    17  57    3.77   472.7    4.9      37.247
2013    3        4    18   3    3.76   472.6    4.9      37.220
2013    3        4    18  10    3.76   472.5    4.9      37.193
2013    3        4    18  16    3.76   472.3    4.9      37.165
2013    3        4    18  22    3.76   472.2    4.9      37.137
2013    3        4    18  28    3.76   472.1    4.9      37.109
2013    3        4    18  35    3.76   471.9    4.9      37.081
2013    3        4    18  41    3.76   471.8    4.9      37.053
2013    3        4    18  47    3.75   471.7    4.9      37.024
2013    3        4    18  53    3.75   471.5    4.9      36.996
2013    3        4    19   0    3.75   471.4    4.9      36.967
2013    3        4    19   6    3.75   471.2    4.9      36.939
2013    3        4    19  12    3.75   471.1    4.9      36.911
2013    3        4    19  18    3.75   471.0    4.9      36.883
2013    3        4    19  25    3.75   470.8    4.9      36.855
2013    3        4    19  31    3.74   470.7    4.9      36.828
2013    3        4    19  37    3.74   470.5    4.9      36.801
2013    3        4    19  44    3.74   470.4    4.9      36.776
2013    3        4    19  50    3.74   470.2    4.9      36.750
2013    3        4    19  56    3.74   470.1    4.9      36.726
2013    3        4    20   2    3.74   469.9    4.9      36.703
2013    3        4    20   9    3.74   469.8    4.9      36.681
2013    3        4    20  15    3.74   469.7    4.9      36.660
2013    3        4    20  21    3.73   469.5    4.9      36.641
2013    3        4    20  27    3.73   469.4    4.9      36.622
2013    3        4    20  34    3.73   469.2    4.9      36.606
2013    3        4    20  40    3.73   469.1    4.9      36.590
2013    3        4    20  46    3.73   469.0    4.9      36.575
2013    3        4    20  53    3.73   468.8    4.9      36.562
2013    3        4    20  59    3.73   468.7    4.9      36.549
2013    3        4    21   5    3.73   468.6    4.9      36.536
2013    3        4    21  11    3.73   468.5    4.9      36.524
2013    3        4    21  18    3.73   468.3    4.9      36.511
2013    3        4    21  24    3.73   468.2    4.9      36.499
2013    3        4    21  30    3.73   468.1    4.9      36.486
2013    3        4    21  36    3.72   468.0    4.9      36.473
2013    3        4    21  43    3.72   467.8    4.9      36.459
2013    3        4    21  49    3.72   467.7    4.9      36.445
2013    3        4    21  55    3.72   467.6    4.9      36.429
2013    3        4    22   1    3.72   467.4    4.9      36.413
2013    3        4    22   8    3.72   467.3    4.9      36.396
2013    3        4    22  14    3.72   467.2    4.9      36.379
2013    3        4    22  20    3.72   467.0    4.9      36.360
2013    3        4    22  27    3.72   466.9    4.9      36.341
2013    3        4    22  33    3.71   466.8    4.9      36.321
2013    3        4    22  39    3.71   466.6    4.9      36.300
2013    3        4    22  45    3.71   466.5    4.9      36.279
2013    3        4    22  52    3.71   466.3    4.9      36.258
2013    3        4    22  58    3.71   466.2    4.9      36.235
2013    3        4    23   4    3.71   466.0    4.9      36.213
2013    3        4    23  10    3.71   465.9    4.9      36.190
2013    3        4    23  17    3.71   465.7    4.9      36.166
2013    3        4    23  23    3.70   465.6    4.9      36.143
2013    3        4    23  29    3.70   465.4    4.9      36.119
2013    3        4    23  36    3.70   465.3    4.9      36.096
2013    3        4    23  42    3.70   465.1    4.9      36.072
2013    3        4    23  48    3.70   465.0    4.9      36.048
2013    3        4    23  54    3.70   464.8    4.9      36.025
2013    3        5     0   1    3.70   464.6    4.9      36.002
2013    3        5     0   7    3.70   464.5    4.9      35.979
2013    3        5     0  13    3.69   464.3    4.9      35.956
2013    3        5     0  19    3.69   464.2    4.9      35.934
2013    3        5     0  26    3.69   464.0    4.9      35.912
2013    3        5     0  32    3.69   463.9    4.9      35.890
2013    3        5     0  38    3.69   463.7    4.9      35.868
2013    3        5     0  44    3.69   463.6    4.9      35.846
2013    3        5     0  51    3.69   463.4    4.9      35.824
2013    3        5     0  57    3.69   463.3    4.9      35.803
2013    3        5     1   3    3.69   463.1    4.9      35.780
2013    3        5     1   9    3.69   463.0    4.9      35.758
2013    3        5     1  16    3.68   462.8    4.9      35.735
2013    3        5     1  22    3.68   462.7    4.9      35.712
2013    3        5     1  28    3.68   462.5    4.9      35.689
2013    3        5     1  35    3.68   462.4    4.9      35.664
2013    3        5     1  41    3.68   462.2    4.9      35.640
2013    3        5     1  47    3.68   462.1    4.9      35.615
2013    3        5     1  53    3.68   462.0    4.9      35.589
2013    3        5     2   0    3.68   461.8    4.9      35.563
2013    3        5     2   6    3.68   461.7    4.9      35.537
2013    3        5     2  12    3.67   461.5    4.9      35.510
2013    3        5     2  18    3.67   461.4    4.9      35.483
2013    3        5     2  25    3.67   461.2    4.9      35.456
2013    3        5     2  31    3.67   461.1    4.9      35.428
2013    3        5     2  37    3.67   460.9    4.9      35.400
2013    3        5     2  43    3.67   460.8    4.9      35.373
2013    3        5     2  50    3.67   460.7    4.9      35.345
2013    3        5     2  56    3.67   460.5    4.9      35.317
2013    3        5     3   2    3.67   460.4    4.9      35.289
2013    3        5     3   9    3.66   460.2    4.9      35.261
2013    3        5     3  15    3.66   460.1    4.9      35.233
2013    3        5     3  21    3.66   459.9    4.9      35.205
2013    3        5     3  27    3.66   459.8    4.9      35.178
2013    3        5     3  34    3.66   459.6    4.9      35.150
2013    3        5     3  40    3.66   459.5    4.9      35.123
2013    3        5     3  46    3.66   459.3    4.9      35.096
2013    3        5     3  52    3.66   459.2    4.9      35.069
2013    3        5     3  59    3.66   459.0    4.9      35.042
2013    3        5     4   5    3.65   458.9    4.9      35.016
2013    3        5     4  11    3.65   458.8    4.9      34.990
2013    3        5     4  17    3.65   458.6    4.9      34.964
2013    3        5     4  24    3.65   458.5    4.9      34.938
2013    3        5     4  30    3.65   458.3    4.9      34.912
2013    3        5     4  36    3.65   458.2    4.9      34.886
2013    3        5     4  43    3.65   458.0    4.9      34.861
2013    3        5     4  49    3.65   457.9    4.9      34.835
2013    3        5     4  55    3.65   457.7    4.9      34.810
2013    3        5     5   1    3.64   457.6    4.9      34.784
2013    3        5     5   8    3.64   457.4    4.9      34.758
2013    3        5     5  14    3.64   457.3    4.9      34.732
2013    3        5     5  20    3.64   457.1    4.9      34.707
2013    3        5     5  26    3.64   457.0    4.9      34.680
2013    3        5     5  33    3.64   456.8    4.9      34.654
2013    3        5     5  39    3.64   456.7    4.9      34.628
2013    3        5     5  45    3.64   456.5    4.9      34.601
2013    3        5     5  52    3.63   456.3    4.9      34.574
2013    3        5     5  58    3.63   456.2    4.9      34.548
2013    3        5     6   4    3.63   456.0    4.9      34.521
2013    3        5     6  10    3.63   455.8    4.9      34.494
2013    3        5     6  17    3.63   455.7    4.9      34.467
2013    3        5     6  21    3.63   455.6    4.9      34.452
2013    3        5     6  25    3.63   455.5    4.9      34.442
2013    3        5     6  28    3.63   455.4    4.9      34.432
2013    3        5     6  32    3.63   455.3    4.9      34.422
2013    3        5     6  35    3.63   455.2    4.9      34.413
2013    3        5     6  39    3.63   455.1    4.9      34.404
2013    3        5     6  43    3.62   455.0    4.9      34.395
2013    3        5     6  46    3.62   454.9    4.9      34.386
2013    3        5     6  49    3.62   454.8    4.9      34.378
2013    3        5     6  53    3.62   454.7    4.9      34.370
2013    3        5     6  56    3.62   454.6    4.9      34.362
2013    3        5     7   0    3.62   454.5    4.9      34.354
2013    3        5     7   3    3.62   454.4    4.9      34.346
2013    3        5     7   7    3.62   454.3    4.9      34.339
2013    3        5     7  10    3.62   454.2    4.9      34.332
2013    3        5     7  14    3.62   454.1    5.0      34.326
2013    3        5     7  17    3.62   454.0    5.0      34.320
2013    3        5     7  20    3.62   453.9    5.0      34.314
2013    3        5     7  24    3.62   453.8    5.0      34.308
2013    3        5     7  27    3.62   453.7    5.0      34.303
2013    3        5     7  31    3.62   453.6    5.0      34.297
2013    3        5     7  34    3.62   453.5    5.0      34.292
2013    3        5     7  37    3.62   453.4    5.0      34.288
2013    3        5     7  41    3.62   453.3    5.0      34.283
2013    3        5     7  44    3.62   453.2    5.0      34.279
2013    3        5     7  48    3.62   453.1    5.0      34.275
2013    3        5     7  51    3.61   453.0    5.0      34.271
2013    3        5     7  54    3.61   453.0    5.0      34.268
2013    3        5     7  58    3.61   452.9    5.0      34.264
2013    3        5     8   1    3.61   452.8    5.0      34.261
2013    3        5     8   5    3.61   452.7    5.0      34.257
2013    3        5     8   8    3.61   452.6    5.0      34.254
2013    3        5     8  11    3.61   452.5    5.0      34.251
2013    3        5     8  15    3.61   452.4    5.0      34.248
2013    3        5     8  18    3.61   452.3    5.0      34.246
2013    3        5     8  22    3.61   452.2    5.0      34.243
2013    3        5     8  25    3.61   452.2    5.0      34.240
2013    3        5     8  28    3.61   452.1    5.0      34.237
2013    3        5     8  32    3.61   452.0    5.0      34.235
2013    3        5     8  35    3.61   451.9    5.0      34.232
2013    3        5     8  38    3.61   451.8    5.0      34.229
2013    3        5     8  42    3.61   451.7    5.0      34.226
2013    3        5     8  45    3.61   451.6    5.0      34.223
2013    3        5     8  49    3.61   451.6    5.0      34.220
2013    3        5     8  52    3.61   451.5    5.0      34.217
2013    3        5     8  55    3.61   451.4    5.0      34.213
2013    3        5     8  59    3.61   451.3    5.0      34.210
2013    3        5     9   2    3.61   451.2    5.0      34.207
2013    3        5     9   5    3.61   451.1    5.0      34.203
2013    3        5     9   9    3.61   451.0    5.0      34.199
2013    3        5     9  12    3.61   451.0    5.0      34.195
2013    3        5     9  16    3.61   450.9    5.0      34.191
2013    3        5     9  19    3.60   450.8    5.0      34.187
2013    3        5     9  22    3.60   450.7    5.0      34.183
2013    3        5     9  26    3.60   450.6    5.0      34.179
2013    3        5     9  29    3.60   450.5    5.0      34.174
2013    3        5     9  33    3.60   450.4    5.0      34.170
2013    3        5     9  36    3.60   450.3    5.0      34.165
2013    3        5     9  39    3.60   450.2    5.0      34.160
2013    3        5     9  43    3.60   450.2    5.0      34.155
2013    3        5     9  46    3.60   450.1    5.0      34.150
2013    3        5     9  50    3.60   450.0    5.0      34.145
2013    3        5     9  53    3.60   449.9    5.0      34.139
2013    3        5     9  56    3.60   449.8    5.0      34.134
2013    3        5    10   0    3.60   449.7    5.0      34.129
2013    3        5    10   3    3.60   449.6    5.0      34.123
2013    3        5    10   7    3.60   449.5    5.0      34.117
2013    3        5    10  10    3.60   449.4    5.0      34.112
2013    3        5    10  13    3.60   449.3    5.0      34.106
2013    3        5    10  17    3.60   449.2    5.0      34.100
2013    3        5    10  20    3.60   449.1    5.0      34.094
2013    3        5    10  24    3.60   449.1    5.0      34.088
2013    3        5    10  27    3.60   449.0    5.0      34.082
2013    3        5    10  31    3.59   448.9    5.0      34.076
2013    3        5    10  34    3.59   448.8    5.0      34.069
2013    3        5    10  37    3.59   448.7    5.0      34.063
2013    3        5    10  41    3.59   448.6    5.0      34.057
2013    3        5    10  44    3.59   448.5    5.0      34.050
2013    3        5    10  48    3.59   448.4    5.0      34.044
2013    3        5    10  51    3.59   448.3    5.0      34.037
2013    3        5    10  55    3.59   448.2    5.0      34.031
2013    3        5    10  58    3.59   448.1    5.0      34.024
2013    3        5    11   1    3.59   448.0    5.0      34.017
2013    3        5    11   5    3.59   447.9    5.0      34.010
2013    3        5    11   8    3.59   447.8    5.0      34.003
2013    3        5    11  12    3.59   447.8    5.0      33.997
2013    3        5    11  15    3.59   447.7    5.0      33.989
2013    3        5    11  19    3.59   447.6    5.0      33.982
2013    3        5    11  22    3.59   447.5    5.0      33.975
2013    3        5    11  26    3.59   447.4    5.0      33.968
2013    3        5    11  29    3.59   447.3    5.0      33.960
2013    3        5    11  33    3.59   447.2    5.0      33.952
2013    3        5    11  36    3.59   447.1    5.0      33.945
2013    3        5    11  40    3.58   447.0    5.0      33.937
2013    3        5    11  43    3.58   446.9    5.0      33.928
2013    3        5    11  47    3.58   446.8    5.0      33.920
2013    3        5    11  50    3.58   446.7    5.0      33.912
2013    3        5    11  54    3.58   446.6    5.0      33.903
2013    3        5    11  57    3.58   446.5    5.0      33.894
2013    3        5    12   1    3.58   446.4    5.0      33.886
2013    3        5    12   4    3.58   446.3    5.0      33.877
2013    3        5    12   8    3.58   446.2    5.0      33.868
2013    3        5    12  12    3.58   446.1    5.0      33.858
2013    3        5    12  15    3.58   446.1    5.0      33.849
2013    3        5    12  19    3.58   446.0    5.0      33.840
2013    3        5    12  22    3.58   445.9    5.0      33.830
2013    3        5    12  26    3.58   445.8    5.0      33.820
2013    3        5    12  29    3.58   445.7    5.0      33.811
2013    3        5    12  33    3.58   445.6    5.0      33.801
2013    3        5    12  37    3.58   445.5    5.0      33.791
2013    3        5    12  40    3.58   445.4    5.0      33.781
2013    3        5    12  44    3.58   445.3    5.0      33.771
2013    3        5    12  48    3.57   445.2    5.0      33.760
2013    3        5    12  51    3.57   445.1    5.0      33.750
2013    3        5    12  55    3.57   445.0    5.0      33.740
2013    3        5    12  58    3.57   444.9    5.0      33.729
2013    3        5    13   2    3.57   444.8    5.0      33.719
2013    3        5    13   6    3.57   444.7    5.0      33.708
2013    3        5    13   9    3.57   444.6    5.0      33.697
2013    3        5    13  13    3.57   444.5    5.0      33.686
2013    3        5    13  17    3.57   444.4    5.0      33.675
2013    3        5    13  20    3.57   444.3    5.0      33.664
2013    3        5    13  24    3.57   444.2    5.0      33.653
2013    3        5    13  27    3.57   444.1    5.0      33.642
2013    3        5    13  31    3.57   444.0    5.0      33.631
2013    3        5    13  35    3.57   443.9    5.0      33.620
2013    3        5    13  38    3.57   443.8    5.0      33.608
2013    3        5    13  42    3.57   443.7    5.0      33.597
2013    3        5    13  46    3.57   443.6    5.1      33.586
2013    3        5    13  49    3.57   443.4    5.1      33.575
2013    3        5    13  53    3.56   443.3    5.1      33.564
2013    3        5    13  57    3.56   443.2    5.1      33.552
2013    3        5    14   0    3.56   443.1    5.1      33.541
2013    3        5    14   4    3.56   443.0    5.1      33.530
2013    3        5    14   8    3.56   442.9    5.1      33.519
2013    3        5    14  11    3.56   442.8    5.1      33.508
2013    3        5    14  15    3.56   442.7    5.1      33.497
2013    3        5    14  19    3.56   442.6    5.1      33.486
2013    3        5    14  22    3.56   442.5    5.1      33.475
2013    3        5    14  26    3.56   442.4    5.1      33.465
2013    3        5    14  30    3.56   442.3    5.1      33.454
2013    3        5    14  33    3.56   442.2    5.1      33.443
2013    3        5    14  37    3.56   442.1    5.1      33.433
2013    3        5    14  41    3.56   442.0    5.1      33.423
2013    3        5    14  44    3.56   441.9    5.1      33.413
2013    3        5    14  48    3.56   441.8    5.1      33.402
2013    3        5    14  52    3.56   441.7    5.1      33.392
2013    3        5    14  55    3.56   441.6    5.1      33.383
2013    3        5    14  59    3.56   441.5    5.1      33.373
2013    3        5    15   3    3.56   441.4    5.1      33.363
2013    3        5    15   6    3.55   441.3    5.1      33.354
2013    3        5    15  10    3.55   441.2    5.1      33.344
2013    3        5    15  14    3.55   441.1    5.1      33.335
2013    3        5    15  17    3.55   441.0    5.1      33.326
2013    3        5    15  21    3.55   440.9    5.1      33.316
2013    3        5    15  25    3.55   440.7    5.1      33.307
2013    3        5    15  28    3.55   440.6    5.1      33.298
2013    3        5    15  32    3.55   440.5    5.1      33.289
2013    3        5    15  36    3.55   440.4    5.1      33.280
2013    3        5    15  40    3.55   440.3    5.1      33.272
2013    3        5    15  43    3.55   440.2    5.1      33.263
2013    3        5    15  47    3.55   440.1    5.1      33.254
2013    3        5    15  51    3.55   440.0    5.1      33.246
2013    3        5    15  54    3.55   439.9    5.1      33.237
2013    3        5    15  58    3.55   439.8    5.1      33.228
2013    3        5    16   2    3.55   439.7    5.1      33.220
2013    3        5    16   6    3.55   439.6    5.1      33.211
2013    3        5    16   9    3.55   439.5    5.1      33.203
2013    3        5    16  13    3.55   439.4    5.1      33.194
2013    3        5    16  17    3.55   439.3    5.1      33.186
2013    3        5    16  20    3.55   439.2    5.1      33.177
2013    3        5    16  24    3.55   439.1    5.1      33.169
2013    3        5    16  28    3.55   438.9    5.1      33.160
2013    3        5    16  32    3.54   438.8    5.1      33.151
2013    3        5    16  35    3.54   438.7    5.1      33.143
2013    3        5    16  39    3.54   438.6    5.1      33.134
2013    3        5    16  43    3.54   438.5    5.1      33.126
2013    3        5    16  46    3.54   438.4    5.1      33.117
2013    3        5    16  50    3.54   438.3    5.1      33.109
2013    3        5    16  54    3.54   438.2    5.1      33.101
2013    3        5    16  58    3.54   438.0    5.1      33.092
2013    3        5    17   1    3.54   437.9    5.1      33.084
2013    3        5    17   5    3.54   437.8    5.1      33.075
2013    3        5    17   9    3.54   437.7    5.1      33.067
2013    3        5    17  13    3.54   437.6    5.1      33.059
2013    3        5    17  16    3.54   437.5    5.1      33.051
2013    3        5    17  20    3.54   437.3    5.1      33.043
2013    3        5    17  24    3.54   437.2    5.1      33.035
2013    3        5    17  28    3.54   437.1    5.1      33.027
2013    3        5    17  31    3.54   437.0    5.1      33.020
2013    3        5    17  35    3.54   436.9    5.1      33.012
2013    3        5    17  39    3.54   436.8    5.1      33.005
2013    3        5    17  43    3.54   436.6    5.1      32.997
2013    3        5    17  47    3.54   436.5    5.1      32.990
2013    3        5    17  50    3.54   436.4    5.1      32.983
2013    3        5    17  54    3.54   436.3    5.1      32.976
2013    3        5    17  58    3.54   436.2    5.1      32.969
2013    3        5    18   2    3.53   436.1    5.1      32.962
2013    3        5    18   5    3.53   435.9    5.1      32.956
2013    3        5    18   9    3.53   435.8    5.1      32.949
2013    3        5    18  13    3.53   435.7    5.1      32.943
2013    3        5    18  17    3.53   435.6    5.1      32.936
2013    3        5    18  21    3.53   435.5    5.1      32.930
2013    3        5    18  24    3.53   435.4    5.1      32.924
2013    3        5    18  28    3.53   435.3    5.1      32.918
2013    3        5    18  32    3.53   435.1    5.1      32.912
2013    3        5    18  36    3.53   435.0    5.1      32.906
2013    3        5    18  39    3.53   434.9    5.1      32.900
2013    3        5    18  43    3.53   434.8    5.1      32.894
2013    3        5    18  47    3.53   434.7    5.2      32.888
2013    3        5    18  51    3.53   434.6    5.2      32.883
2013    3        5    18  55    3.53   434.5    5.2      32.877
2013    3        5    18  58    3.53   434.3    5.2      32.871
2013    3        5    19   2    3.53   434.2    5.2      32.866
2013    3        5    19   6    3.53   434.1    5.2      32.860
2013    3        5    19  10    3.53   434.0    5.2      32.854
2013    3        5    19  14    3.53   433.9    5.2      32.848
2013    3        5    19  17    3.53   433.8    5.2      32.843
2013    3        5    19  21    3.53   433.7    5.2      32.837
2013    3        5    19  25    3.53   433.5    5.2      32.831
2013    3        5    19  29    3.53   433.4    5.2      32.826
2013    3        5    19  33    3.53   433.3    5.2      32.820
2013    3        5    19  36    3.53   433.2    5.2      32.814
2013    3        5    19  40    3.53   433.1    5.2      32.808
2013    3        5    19  44    3.53   433.0    5.2      32.802
2013    3        5    19  48    3.53   432.8    5.2      32.796
2013    3        5    19  52    3.53   432.7    5.2      32.790
2013    3        5    19  56    3.53   432.6    5.2      32.784
2013    3        5    19  59    3.53   432.5    5.2      32.778
2013    3        5    20   3    3.53   432.4    5.2      32.772
2013    3        5    20   7    3.53   432.3    5.2      32.766
2013    3        5    20  11    3.53   432.2    5.2      32.759
2013    3        5    20  15    3.53   432.0    5.2      32.753
2013    3        5    20  18    3.53   431.9    5.2      32.746
2013    3        5    20  22    3.53   431.8    5.2      32.740
2013    3        5    20  26    3.53   431.7    5.2      32.733
2013    3        5    20  30    3.52   431.6    5.2      32.726
2013    3        5    20  34    3.52   431.5    5.2      32.720
2013    3        5    20  38    3.52   431.3    5.2      32.713
2013    3        5    20  41    3.52   431.2    5.2      32.706
2013    3        5    20  45    3.52   431.1    5.2      32.698
2013    3        5    20  49    3.52   431.0    5.2      32.691
2013    3        5    20  53    3.52   430.9    5.2      32.684
2013    3        5    20  57    3.52   430.8    5.2      32.677
2013    3        5    21   1    3.52   430.7    5.2      32.669
2013    3        5    21   4    3.52   430.5    5.2      32.662
2013    3        5    21   8    3.52   430.4    5.2      32.654
2013    3        5    21  12    3.52   430.3    5.2      32.646
2013    3        5    21  16    3.52   430.2    5.2      32.638
2013    3        5    21  20    3.52   430.1    5.2      32.630
2013    3        5    21  24    3.52   430.0    5.2      32.622
2013    3        5    21  27    3.52   429.8    5.2      32.614
2013    3        5    21  31    3.52   429.7    5.2      32.606
2013    3        5    21  35    3.52   429.6    5.2      32.597
2013    3        5    21  39    3.52   429.5    5.2      32.589
2013    3        5    21  43    3.52   429.4    5.2      32.580
2013    3        5    21  47    3.52   429.3    5.2      32.572
2013    3        5    21  51    3.52   429.2    5.2      32.563
2013    3        5    21  55    3.52   429.0    5.2      32.554
2013    3        5    21  58    3.52   428.9    5.2      32.545
2013    3        5    22   2    3.52   428.8    5.2      32.536
2013    3        5    22   6    3.52   428.7    5.2      32.527
2013    3        5    22  10    3.52   428.6    5.2      32.518
2013    3        5    22  14    3.52   428.5    5.2      32.508
2013    3        5    22  18    3.52   428.3    5.2      32.499
2013    3        5    22  22    3.52   428.2    5.2      32.489
2013    3        5    22  26    3.52   428.1    5.2      32.479
2013    3        5    22  30    3.52   428.0    5.2      32.469
2013    3        5    22  34    3.52   427.9    5.2      32.459
2013    3        5    22  38    3.52   427.8    5.3      32.449
2013    3        5    22  42    3.52   427.6    5.3      32.439
2013    3        5    22  46    3.52   427.5    5.3      32.429
2013    3        5    22  50    3.52   427.4    5.3      32.418
2013    3        5    22  54    3.51   427.3    5.3      32.408
2013    3        5    22  58    3.51   427.2    5.3      32.397
2013    3        5    23   2    3.51   427.0    5.3      32.386
2013    3        5    23   6    3.51   426.9    5.3      32.375
2013    3        5    23  10    3.51   426.8    5.3      32.364
2013    3        5    23  14    3.51   426.7    5.3      32.353
2013    3        5    23  18    3.51   426.5    5.3      32.341
2013    3        5    23  22    3.51   426.4    5.3      32.330
2013    3        5    23  26    3.51   426.3    5.3      32.318
2013    3        5    23  30    3.51   426.2    5.3      32.307
2013    3        5    23  34    3.51   426.1    5.3      32.295
2013    3        5    23  38    3.51   425.9    5.3      32.283
2013    3        5    23  42    3.51   425.8    5.3      32.271
2013    3        5    23  46    3.51   425.7    5.3      32.259
2013    3        5    23  50    3.51   425.5    5.3      32.247
2013    3        5    23  54    3.51   425.4    5.3      32.235
2013    3        5    23  58    3.51   425.3    5.3      32.223
2013    3        6     0   3    3.51   425.2    5.3      32.211
2013    3        6     0   7    3.51   425.0    5.3      32.199
2013    3        6     0  11    3.51   424.9    5.3      32.187
2013    3        6     0  15    3.51   424.8    5.3      32.174
2013    3        6     0  19    3.51   424.6    5.3      32.162
2013    3        6     0  23    3.51   424.5    5.3      32.150
2013    3        6     0  27    3.51   424.4    5.3      32.138
2013    3        6     0  32    3.51   424.2    5.3      32.126
2013    3        6     0  36    3.51   424.1    5.3      32.114
2013    3        6     0  40    3.51   424.0    5.3      32.102
2013    3        6     0  44    3.51   423.9    5.3      32.091
2013    3        6     0  48    3.51   423.7    5.3      32.079
2013    3        6     0  53    3.51   423.6    5.3      32.068
2013    3        6     0  57    3.51   423.5    5.3      32.056
2013    3        6     1   1    3.51   423.3    5.3      32.045
2013    3        6     1   5    3.51   423.2    5.3      32.034
2013    3        6     1   9    3.51   423.1    5.3      32.023
2013    3        6     1  14    3.51   422.9    5.3      32.012
2013    3        6     1  18    3.51   422.8    5.3      32.001
2013    3        6     1  22    3.51   422.7    5.3      31.991
2013    3        6     1  26    3.51   422.5    5.3      31.981
2013    3        6     1  31    3.51   422.4    5.3      31.970
2013    3        6     1  35    3.51   422.3    5.3      31.960
2013    3        6     1  39    3.51   422.1    5.3      31.950
2013    3        6     1  43    3.51   422.0    5.3      31.941
2013    3        6     1  48    3.51   421.8    5.3      31.931
2013    3        6     1  52    3.51   421.7    5.3      31.922
2013    3        6     1  56    3.51   421.6    5.3      31.912
2013    3        6     2   1    3.51   421.4    5.3      31.903
2013    3        6     2   5    3.51   421.3    5.3      31.894
2013    3        6     2   9    3.51   421.2    5.3      31.885
2013    3        6     2  13    3.51   421.0    5.3      31.876
2013    3        6     2  18    3.51   420.9    5.3      31.868
2013    3        6     2  22    3.51   420.8    5.3      31.859
2013    3        6     2  26    3.51   420.6    5.3      31.851
2013    3        6     2  31    3.51   420.5    5.4      31.843
2013    3        6     2  35    3.51   420.4    5.4      31.834
2013    3        6     2  39    3.51   420.2    5.4      31.826
2013    3        6     2  44    3.51   420.1    5.4      31.818
2013    3        6     2  48    3.51   419.9    5.4      31.810
2013    3        6     2  53    3.51   419.8    5.4      31.802
2013    3        6     2  57    3.51   419.7    5.4      31.794
2013    3        6     3   1    3.51   419.5    5.4      31.786
2013    3        6     3   6    3.51   419.4    5.4      31.779
2013    3        6     3  10    3.51   419.2    5.4      31.771
2013    3        6     3  14    3.51   419.1    5.4      31.763
2013    3        6     3  19    3.51   419.0    5.4      31.756
2013    3        6     3  23    3.51   418.8    5.4      31.748
2013    3        6     3  28    3.51   418.7    5.4      31.740
2013    3        6     3  32    3.51   418.5    5.4      31.733
2013    3        6     3  36    3.51   418.4    5.4      31.725
2013    3        6     3  41    3.51   418.2    5.4      31.718
2013    3        6     3  45    3.51   418.1    5.4      31.710
2013    3        6     3  50    3.51   418.0    5.4      31.703
2013    3        6     3  54    3.51   417.8    5.4      31.695
2013    3        6     3  58    3.51   417.7    5.4      31.688
2013    3        6     4   3    3.51   417.5    5.4      31.680
2013    3        6     4   7    3.51   417.4    5.4      31.673
2013    3        6     4  12    3.51   417.3    5.4      31.666
2013    3        6     4  16    3.51   417.1    5.4      31.658
2013    3        6     4  20    3.51   417.0    5.4      31.651
2013    3        6     4  25    3.51   416.8    5.4      31.643
2013    3        6     4  29    3.51   416.7    5.4      31.636
2013    3        6     4  34    3.51   416.6    5.4      31.629
2013    3        6     4  38    3.51   416.4    5.4      31.621
2013    3        6     4  42    3.51   416.3    5.5      31.614
2013    3        6     4  47    3.51   416.1    5.5      31.606
2013    3        6     4  51    3.51   416.0    5.5      31.599
2013    3        6     4  55    3.51   415.9    5.5      31.591
2013    3        6     5   0    3.51   415.7    5.5      31.584
2013    3        6     5   4    3.51   415.6    5.5      31.576
2013    3        6     5   9    3.51   415.5    5.5      31.568
2013    3        6     5  13    3.51   415.3    5.5      31.561
2013    3        6     5  17    3.52   415.2    5.5      31.553
2013    3        6     5  22    3.52   415.1    5.5      31.546
2013    3        6     5  26    3.52   414.9    5.5      31.538
2013    3        6     5  31    3.52   414.8    5.5      31.530
2013    3        6     5  35    3.52   414.6    5.5      31.522
2013    3        6     5  39    3.52   414.5    5.5      31.515
2013    3        6     5  44    3.52   414.4    5.5      31.507
2013    3        6     5  48    3.52   414.2    5.5      31.499
2013    3        6     5  53    3.52   414.1    5.5      31.491
2013    3        6     5  57    3.52   414.0    5.5      31.483
2013    3        6     6   1    3.52   413.8    5.5      31.475
2013    3        6     6   6    3.52   413.7    5.5      31.467
2013    3        6     6  10    3.52   413.6    5.5      31.459
2013    3        6     6  15    3.52   413.4    5.5      31.451
2013    3        6     6  19    3.52   413.3    5.5      31.443
2013    3        6     6  23    3.52   413.2    5.5      31.435
2013    3        6     6  28    3.52   413.0    5.5      31.427
2013    3        6     6  32    3.52   412.9    5.5      31.419
2013    3        6     6  37    3.52   412.7    5.5      31.410
2013    3        6     6  41    3.52   412.6    5.5      31.402
2013    3        6     6  45    3.52   412.5    5.5      31.394
2013    3        6     6  50    3.52   412.3    5.5      31.386
2013    3        6     6  54    3.52   412.2    5.5      31.377
2013    3        6     6  59    3.52   412.1    5.5      31.369
2013    3        6     7   3    3.52   411.9    5.6      31.360
2013    3        6     7   7    3.52   411.8    5.6      31.352
2013    3        6     7  12    3.52   411.7    5.6      31.343
2013    3        6     7  16    3.52   411.5    5.6      31.335
2013    3        6     7  21    3.52   411.4    5.6      31.326
2013    3        6     7  25    3.52   411.3    5.6      31.318
2013    3        6     7  29    3.52   411.1    5.6      31.309
2013    3        6     7  34    3.52   411.0    5.6      31.301
2013    3        6     7  38    3.53   410.9    5.6      31.292
2013    3        6     7  43    3.53   410.7    5.6      31.283
2013    3        6     7  47    3.53   410.6    5.6      31.275
2013    3        6     7  52    3.53   410.5    5.6      31.266
2013    3        6     7  56    3.53   410.3    5.6      31.257
2013    3        6     8   0    3.53   410.2    5.6      31.248
2013    3        6     8   5    3.53   410.1    5.6      31.240
2013    3        6     8   9    3.53   409.9    5.6      31.231
2013    3        6     8  14    3.53   409.8    5.6      31.222
2013    3        6     8  18    3.53   409.6    5.6      31.213
2013    3        6     8  22    3.53   409.5    5.6      31.205
2013    3        6     8  27    3.53   409.4    5.6      31.196
2013    3        6     8  31    3.53   409.2    5.6      31.187
2013    3        6     8  36    3.53   409.1    5.6      31.178
2013    3        6     8  40    3.53   409.0    5.6      31.170
2013    3        6     8  45    3.53   408.8    5.6      31.161
2013    3        6     8  49    3.53   408.7    5.6      31.152
2013    3        6     8  54    3.53   408.5    5.6      31.144
2013    3        6     8  58    3.53   408.4    5.6      31.135
2013    3        6     9   2    3.53   408.3    5.6      31.127
2013    3        6     9   7    3.53   408.1    5.6      31.118
2013    3        6     9  11    3.53   408.0    5.6      31.110
2013    3        6     9  16    3.53   407.9    5.6      31.101
2013    3        6     9  20    3.53   407.7    5.6      31.093
2013    3        6     9  25    3.54   407.6    5.7      31.085
2013    3        6     9  29    3.54   407.4    5.7      31.077
2013    3        6     9  34    3.54   407.3    5.7      31.069
2013    3        6     9  38    3.54   407.2    5.7      31.061
2013    3        6     9  43    3.54   407.0    5.7      31.053
2013    3        6     9  47    3.54   406.9    5.7      31.045
2013    3        6     9  51    3.54   406.7    5.7      31.037
2013    3        6     9  56    3.54   406.6    5.7      31.029
2013    3        6    10   0    3.54   406.5    5.7      31.022
2013    3        6    10   5    3.54   406.3    5.7      31.014
2013    3        6    10   9    3.54   406.2    5.7      31.007
2013    3        6    10  14    3.54   406.1    5.7      31.000
2013    3        6    10  18    3.54   405.9    5.7      30.992
2013    3        6    10  23    3.54   405.8    5.7      30.985
2013    3        6    10  27    3.54   405.6    5.7      30.978
2013    3        6    10  32    3.54   405.5    5.7      30.971
2013    3        6    10  36    3.55   405.4    5.7      30.964
2013    3        6    10  41    3.55   405.2    5.7      30.958
2013    3        6    10  45    3.55   405.1    5.7      30.951
2013    3        6    10  50    3.55   404.9    5.7      30.944
2013    3        6    10  54    3.55   404.8    5.7      30.938
2013    3        6    10  59    3.55   404.7    5.7      30.932
2013    3        6    11   3    3.55   404.5    5.7      30.925
2013    3        6    11   8    3.55   404.4    5.7      30.919
2013    3        6    11  12    3.55   404.3    5.7      30.913
2013    3        6    11  17    3.55   404.1    5.7      30.907
2013    3        6    11  21    3.55   404.0    5.8      30.901
2013    3        6    11  26    3.55   403.8    5.8      30.895
2013    3        6    11  30    3.55   403.7    5.8      30.889
2013    3        6    11  35    3.56   403.6    5.8      30.884
2013    3        6    11  39    3.56   403.4    5.8      30.878
2013    3        6    11  44    3.56   403.3    5.8      30.872
2013    3        6    11  49    3.56   403.1    5.8      30.867
2013    3        6    11  53    3.56   403.0    5.8      30.861
2013    3        6    11  58    3.56   402.9    5.8      30.856
2013    3        6    12   2    3.56   402.7    5.8      30.851
2013    3        6    12   7    3.56   402.6    5.8      30.846
2013    3        6    12  11    3.56   402.5    5.8      30.841
2013    3        6    12  16    3.56   402.3    5.8      30.836
2013    3        6    12  20    3.56   402.2    5.8      30.831
2013    3        6    12  25    3.57   402.0    5.8      30.826
2013    3        6    12  29    3.57   401.9    5.8      30.821
2013    3        6    12  34    3.57   401.8    5.8      30.816
2013    3        6    12  39    3.57   401.6    5.8      30.812
2013    3        6    12  43    3.57   401.5    5.8      30.807
2013    3        6    12  48    3.57   401.4    5.8      30.803
2013    3        6    12  52    3.57   401.2    5.8      30.798
2013    3        6    12  57    3.57   401.1    5.8      30.794
2013    3        6    13   1    3.57   401.0    5.9      30.790
2013    3        6    13   6    3.57   400.8    5.9      30.785
2013    3        6    13  11    3.58   400.7    5.9      30.781
2013    3        6    13  15    3.58   400.5    5.9      30.777
2013    3        6    13  20    3.58   400.4    5.9      30.773
2013    3        6    13  24    3.58   400.3    5.9      30.770
2013    3        6    13  29    3.58   400.1    5.9      30.766
2013    3        6    13  34    3.58   400.0    5.9      30.762
2013    3        6    13  38    3.58   399.9    5.9      30.758
2013    3        6    13  43    3.58   399.7    5.9      30.755
2013    3        6    13  47    3.58   399.6    5.9      30.751
2013    3        6    13  52    3.59   399.5    5.9      30.748
2013    3        6    13  57    3.59   399.3    5.9      30.745
2013    3        6    14   1    3.59   399.2    5.9      30.741
2013    3        6    14   6    3.59   399.1    5.9      30.738
2013    3        6    14  11    3.59   398.9    5.9      30.735
2013    3        6    14  15    3.59   398.8    5.9      30.732
2013    3        6    14  20    3.59   398.7    5.9      30.729
2013    3        6    14  24    3.59   398.5    5.9      30.726
2013    3        6    14  29    3.59   398.4    6.0      30.723
2013    3        6    14  34    3.60   398.3    6.0      30.721
2013    3        6    14  38    3.60   398.1    6.0      30.718
2013    3        6    14  43    3.60   398.0    6.0      30.715
2013    3        6    14  48    3.60   397.9    6.0      30.712
2013    3        6    14  52    3.60   397.7    6.0      30.710
2013    3        6    14  57    3.60   397.6    6.0      30.707
2013    3        6    15   2    3.60   397.5    6.0      30.705
2013    3        6    15   6    3.60   397.3    6.0      30.702
2013    3        6    15  11    3.61   397.2    6.0      30.700
2013    3        6    15  16    3.61   397.1    6.0      30.697
2013    3        6    15  20    3.61   396.9    6.0      30.695
2013    3        6    15  25    3.61   396.8    6.0      30.693
2013    3        6    15  30    3.61   396.7    6.0      30.690
2013    3        6    15  34    3.61   396.5    6.0      30.688
2013    3        6    15  39    3.61   396.4    6.0      30.686
2013    3        6    15  44    3.61   396.3    6.0      30.684
2013    3        6    15  48    3.61   396.1    6.0      30.682
2013    3        6    15  53    3.62   396.0    6.1      30.679
2013    3        6    15  58    3.62   395.9    6.1      30.677
2013    3        6    16   2    3.62   395.7    6.1      30.675
2013    3        6    16   7    3.62   395.6    6.1      30.673
2013    3        6    16  12    3.62   395.5    6.1      30.671
2013    3        6    16  17    3.62   395.3    6.1      30.669
2013    3        6    16  21    3.62   395.2    6.1      30.667
2013    3        6    16  26    3.62   395.1    6.1      30.665
2013    3        6    16  31    3.63   394.9    6.1      30.664
2013    3        6    16  35    3.63   394.8    6.1      30.662
2013    3        6    16  40    3.63   394.7    6.1      30.660
2013    3        6    16  45    3.63   394.5    6.1      30.658
2013    3        6    16  50    3.63   394.4    6.1      30.656
2013    3        6    16  54    3.63   394.3    6.1      30.654
2013    3        6    16  59    3.63   394.2    6.1      30.652
2013    3        6    17   4    3.64   394.0    6.1      30.651
2013    3        6    17   9    3.64   393.9    6.1      30.649
2013    3        6    17  13    3.64   393.8    6.1      30.647
2013    3        6    17  18    3.64   393.6    6.1      30.645
2013    3        6    17  23    3.64   393.5    6.2      30.644
2013    3        6    17  28    3.64   393.4    6.2      30.642
2013    3        6    17  32    3.64   393.2    6.2      30.640
2013    3        6    17  37    3.64   393.1    6.2      30.638
2013    3        6    17  42    3.65   393.0    6.2      30.637
2013    3        6    17  47    3.65   392.9    6.2      30.635
2013    3        6    17  51    3.65   392.7    6.2      30.634
2013    3        6    17  56    3.65   392.6    6.2      30.632
2013    3        6    18   1    3.65   392.5    6.2      30.631
2013    3        6    18   6    3.65   392.3    6.2      30.629
2013    3        6    18  11    3.66   392.2    6.2      30.628
2013    3        6    18  15    3.66   392.1    6.2      30.627
2013    3        6    18  20    3.66   392.0    6.2      30.625
2013    3        6    18  25    3.66   391.8    6.2      30.624
2013    3        6    18  30    3.66   391.7    6.2      30.623
2013    3        6    18  35    3.66   391.6    6.2      30.622
2013    3        6    18  39    3.66   391.4    6.2      30.621
2013    3        6    18  44    3.67   391.3    6.3      30.621
2013    3        6    18  49    3.67   391.2    6.3      30.620
2013    3        6    18  54    3.67   391.1    6.3      30.620
2013    3        6    18  59    3.67   390.9    6.3      30.619
2013    3        6    19   4    3.67   390.8    6.3      30.619
2013    3        6    19   8    3.67   390.7    6.3      30.619
2013    3        6    19  13    3.68   390.5    6.3      30.619
2013    3        6    19  18    3.68   390.4    6.3      30.619
2013    3        6    19  23    3.68   390.3    6.3      30.620
2013    3        6    19  28    3.68   390.2    6.3      30.620
2013    3        6    19  33    3.68   390.0    6.3      30.621
2013    3        6    19  37    3.68   389.9    6.3      30.622
2013    3        6    19  42    3.69   389.8    6.3      30.624
2013    3        6    19  47    3.69   389.7    6.3      30.625
2013    3        6    19  52    3.69   389.5    6.3      30.627
2013    3        6    19  57    3.69   389.4    6.3      30.629
2013    3        6    20   2    3.69   389.3    6.4      30.631
2013    3        6    20   7    3.70   389.2    6.4      30.633
2013    3        6    20  12    3.70   389.0    6.4      30.636
2013    3        6    20  16    3.70   388.9    6.4      30.639
2013    3        6    20  21    3.70   388.8    6.4      30.642
2013    3        6    20  26    3.70   388.7    6.4      30.645
2013    3        6    20  31    3.71   388.6    6.4      30.649
2013    3        6    20  36    3.71   388.4    6.4      30.653
2013    3        6    20  41    3.71   388.3    6.4      30.657
2013    3        6    20  46    3.71   388.2    6.4      30.661
2013    3        6    20  51    3.71   388.1    6.4      30.666
2013    3        6    20  56    3.72   388.0    6.4      30.671
2013    3        6    21   1    3.72   387.8    6.4      30.676
2013    3        6    21   6    3.72   387.7    6.5      30.681
2013    3        6    21  11    3.72   387.6    6.5      30.687
2013    3        6    21  15    3.72   387.5    6.5      30.692
2013    3        6    21  20    3.73   387.4    6.5      30.698
2013    3        6    21  25    3.73   387.2    6.5      30.704
2013    3        6    21  30    3.73   387.1    6.5      30.711
2013    3        6    21  35    3.73   387.0    6.5      30.717
2013    3        6    21  40    3.73   386.9    6.5      30.724
2013    3        6    21  45    3.74   386.8    6.5      30.731
2013    3        6    21  50    3.74   386.7    6.5      30.738
2013    3        6    21  55    3.74   386.6    6.5      30.745
2013    3        6    22   0    3.74   386.4    6.5      30.752
2013    3        6    22   5    3.75   386.3    6.6      30.759
2013    3        6    22  10    3.75   386.2    6.6      30.767
2013    3        6    22  15    3.75   386.1    6.6      30.774
2013    3        6    22  20    3.75   386.0    6.6      30.782
2013    3        6    22  25    3.75   385.9    6.6      30.790
2013    3        6    22  30    3.76   385.8    6.6      30.798
2013    3        6    22  35    3.76   385.7    6.6      30.806
2013    3        6    22  40    3.76   385.6    6.6      30.814
2013    3        6    22  45    3.76   385.5    6.6      30.822
2013    3        6    22  50    3.77   385.3    6.6      30.831
2013    3        6    22  55    3.77   385.2    6.6      30.839
2013    3        6    23   0    3.77   385.1    6.6      30.847
2013    3        6    23   5    3.77   385.0    6.7      30.856
2013    3        6    23  10    3.77   384.9    6.7      30.865
2013    3        6    23  15    3.78   384.8    6.7      30.873
2013    3        6    23  20    3.78   384.7    6.7      30.882
2013    3        6    23  25    3.78   384.6    6.7      30.891
2013    3        6    23  30    3.78   384.5    6.7      30.899
2013    3        6    23  35    3.79   384.4    6.7      30.908
2013    3        6    23  40    3.79   384.3    6.7      30.917
2013    3        6    23  45    3.79   384.2    6.7      30.926
2013    3        6    23  50    3.79   384.1    6.7      30.936
2013    3        6    23  55    3.80   384.0    6.7      30.945
2013    3        7     0   0    3.80   383.9    6.7      30.954
2013    3        7     0   5    3.80   383.8    6.8      30.964
2013    3        7     0  10    3.80   383.7    6.8      30.973
2013    3        7     0  16    3.80   383.6    6.8      30.983
2013    3        7     0  21    3.81   383.5    6.8      30.992
2013    3        7     0  26    3.81   383.4    6.8      31.002
2013    3        7     0  31    3.81   383.3    6.8      31.012
2013    3        7     0  36    3.81   383.2    6.8      31.021
2013    3        7     0  41    3.82   383.1    6.8      31.031
2013    3        7     0  46    3.82   383.0    6.8      31.041
2013    3        7     0  51    3.82   382.9    6.8      31.051
2013    3        7     0  56    3.82   382.8    6.8      31.061
2013    3        7     1   1    3.83   382.7    6.8      31.071
2013    3        7     1   6    3.83   382.6    6.9      31.081
2013    3        7     1  12    3.83   382.5    6.9      31.091
2013    3        7     1  17    3.83   382.4    6.9      31.102
2013    3        7     1  22    3.84   382.3    6.9      31.112
2013    3        7     1  27    3.84   382.2    6.9      31.122
2013    3        7     1  32    3.84   382.1    6.9      31.132
2013    3        7     1  37    3.84   382.0    6.9      31.143
2013    3        7     1  42    3.85   381.9    6.9      31.153
2013    3        7     1  47    3.85   381.8    6.9      31.163
2013    3        7     1  53    3.85   381.7    6.9      31.173
2013    3        7     1  58    3.85   381.6    6.9      31.184
2013    3        7     2   3    3.85   381.5    6.9      31.194
2013    3        7     2   8    3.86   381.5    7.0      31.205
2013    3        7     2  13    3.86   381.4    7.0      31.215
2013    3        7     2  18    3.86   381.3    7.0      31.226
2013    3        7     2  23    3.86   381.2    7.0      31.237
2013    3        7     2  29    3.87   381.1    7.0      31.248
2013    3        7     2  34    3.87   381.0    7.0      31.258
2013    3        7     2  39    3.87   380.9    7.0      31.269
2013    3        7     2  44    3.88   380.8    7.0      31.280
2013    3        7     2  49    3.88   380.7    7.0      31.291
2013    3        7     2  54    3.88   380.6    7.0      31.303
2013    3        7     3   0    3.88   380.6    7.0      31.314
2013    3        7     3   5    3.89   380.5    7.0      31.325
2013    3        7     3  10    3.89   380.4    7.1      31.337
2013    3        7     3  15    3.89   380.3    7.1      31.349
2013    3        7     3  20    3.89   380.2    7.1      31.360
2013    3        7     3  26    3.90   380.1    7.1      31.372
2013    3        7     3  31    3.90   380.0    7.1      31.384
2013    3        7     3  36    3.90   380.0    7.1      31.396
2013    3        7     3  41    3.90   379.9    7.1      31.409
2013    3        7     3  46    3.91   379.8    7.1      31.421
2013    3        7     3  52    3.91   379.7    7.1      31.433
2013    3        7     3  57    3.91   379.6    7.1      31.446
2013    3        7     4   2    3.92   379.6    7.1      31.459
2013    3        7     4   7    3.92   379.5    7.2      31.471
2013    3        7     4  13    3.92   379.4    7.2      31.484
2013    3        7     4  18    3.92   379.3    7.2      31.498
2013    3        7     4  23    3.93   379.2    7.2      31.511
2013    3        7     4  28    3.93   379.2    7.2      31.524
2013    3        7     4  34    3.93   379.1    7.2      31.538
2013    3        7     4  39    3.93   379.0    7.2      31.551
2013    3        7     4  44    3.94   378.9    7.2      31.565
2013    3        7     4  49    3.94   378.9    7.2      31.579
2013    3        7     4  55    3.94   378.8    7.2      31.593
2013    3        7     5   0    3.95   378.7    7.2      31.607
2013    3        7     5   5    3.95   378.6    7.3      31.621
2013    3        7     5  10    3.95   378.6    7.3      31.636
2013    3        7     5  16    3.95   378.5    7.3      31.650
2013    3        7     5  21    3.96   378.4    7.3      31.665
2013    3        7     5  26    3.96   378.3    7.3      31.680
2013    3        7     5  32    3.96   378.3    7.3      31.695
2013    3        7     5  37    3.97   378.2    7.3      31.710
2013    3        7     5  42    3.97   378.1    7.3      31.725
2013    3        7     5  47    3.97   378.0    7.3      31.740
2013    3        7     5  53    3.98   378.0    7.3      31.756
2013    3        7     5  58    3.98   377.9    7.3      31.772
2013    3        7     6   3    3.98   377.8    7.4      31.787
2013    3        7     6   9    3.98   377.8    7.4      31.803
2013    3        7     6  14    3.99   377.7    7.4      31.820
2013    3        7     6  19    3.99   377.6    7.4      31.836
2013    3        7     6  25    3.99   377.6    7.4      31.853
2013    3        7     6  30    4.00   377.5    7.4      31.869
2013    3        7     6  35    4.00   377.4    7.4      31.886
2013    3        7     6  41    4.00   377.4    7.4      31.903
2013    3        7     6  46    4.01   377.3    7.4      31.921
2013    3        7     6  51    4.01   377.2    7.4      31.938
2013    3        7     6  57    4.01   377.2    7.5      31.956
2013    3        7     7   2    4.01   377.1    7.5      31.974
2013    3        7     7   7    4.02   377.0    7.5      31.993
2013    3        7     7  13    4.02   377.0    7.5      32.011
2013    3        7     7  18    4.02   376.9    7.5      32.030
2013    3        7     7  24    4.03   376.9    7.5      32.049
2013    3        7     7  29    4.03   376.8    7.5      32.068
2013    3        7     7  34    4.03   376.7    7.5      32.088
2013    3        7     7  40    4.04   376.7    7.5      32.107
2013    3        7     7  45    4.04   376.6    7.5      32.127
2013    3        7     7  50    4.04   376.6    7.6      32.147
2013    3        7     7  56    4.04   376.5    7.6      32.167
2013    3        7     8   1    4.05   376.5    7.6      32.187
2013    3        7     8   7    4.05   376.4    7.6      32.208
2013    3        7     8  12    4.05   376.4    7.6      32.228
2013    3        7     8  17    4.06   376.3    7.6      32.249
2013    3        7     8  23    4.06   376.2    7.6      32.269
2013    3        7     8  28    4.06   376.2    7.6      32.290
2013    3        7     8  34    4.07   376.1    7.6      32.311
2013    3        7     8  39    4.07   376.1    7.6      32.332
2013    3        7     8  44    4.07   376.0    7.6      32.353
2013    3        7     8  50    4.08   376.0    7.7      32.373
2013    3        7     8  55    4.08   375.9    7.7      32.394
2013    3        7     9   1    4.08   375.9    7.7      32.415
2013    3        7     9   6    4.08   375.8    7.7      32.435
2013    3        7     9  11    4.09   375.8    7.7      32.456
2013    3        7     9  17    4.09   375.7    7.7      32.476
2013    3        7     9  22    4.09   375.7    7.7      32.497
2013    3        7     9  28    4.10   375.6    7.7      32.517
2013    3        7     9  33    4.10   375.6    7.7      32.537
2013    3        7     9  39    4.10   375.6    7.7      32.557
2013    3        7     9  44    4.11   375.5    7.7      32.577
2013    3        7     9  50    4.11   375.5    7.8      32.597
2013    3        7     9  55    4.11   375.4    7.8      32.617
2013    3        7    10   1    4.11   375.4    7.8      32.636
2013    3        7    10   6    4.12   375.3    7.8      32.655
2013    3        7    10  12    4.12   375.3    7.8      32.675
2013    3        7    10  17    4.12   375.2    7.8      32.694
2013    3        7    10  23    4.13   375.2    7.8      32.713
2013    3        7    10  28    4.13   375.1    7.8      32.732
2013    3        7    10  33    4.13   375.1    7.8      32.750
2013    3        7    10  39    4.14   375.1    7.8      32.769
2013    3        7    10  44    4.14   375.0    7.8      32.787
2013    3        7    10  50    4.14   375.0    7.9      32.806
2013    3        7    10  55    4.14   374.9    7.9      32.824
2013    3        7    11   1    4.15   374.9    7.9      32.842
2013    3        7    11   6    4.15   374.9    7.9      32.861
2013    3        7    11  12    4.15   374.8    7.9      32.879
2013    3        7    11  18    4.16   374.8    7.9      32.897
2013    3        7    11  23    4.16   374.7    7.9      32.915
2013    3        7    11  29    4.16   374.7    7.9      32.933
2013    3        7    11  34    4.17   374.7    7.9      32.950
2013    3        7    11  40    4.17   374.6    7.9      32.968
2013    3        7    11  45    4.17   374.6    7.9      32.986
2013    3        7    11  51    4.17   374.5    7.9      33.004
2013    3        7    11  56    4.18   374.5    8.0      33.021
2013    3        7    12   2    4.18   374.5    8.0      33.039
2013    3        7    12   7    4.18   374.4    8.0      33.057
2013    3        7    12  13    4.19   374.4    8.0      33.075
2013    3        7    12  18    4.19   374.4    8.0      33.092
2013    3        7    12  24    4.19   374.3    8.0      33.110
2013    3        7    12  30    4.20   374.3    8.0      33.128
2013    3        7    12  35    4.20   374.3    8.0      33.146
2013    3        7    12  41    4.20   374.2    8.0      33.164
2013    3        7    12  46    4.20   374.2    8.0      33.182
2013    3        7    12  52    4.21   374.2    8.0      33.200
2013    3        7    12  57    4.21   374.1    8.0      33.219
2013    3        7    13   3    4.21   374.1    8.1      33.237
2013    3        7    13   9    4.22   374.1    8.1      33.256
2013    3        7    13  14    4.22   374.0    8.1      33.274
2013    3        7    13  20    4.22   374.0    8.1      33.293
2013    3        7    13  25    4.23   374.0    8.1      33.312
2013    3        7    13  31    4.23   373.9    8.1      33.331
2013    3        7    13  36    4.23   373.9    8.1      33.350
2013    3        7    13  42    4.23   373.9    8.1      33.369
2013    3        7    13  47    4.24   373.8    8.1      33.389
2013    3        7    13  53    4.24   373.8    8.1      33.408
2013    3        7    13  58    4.24   373.8    8.1      33.428
2013    3        7    14   4    4.25   373.8    8.1      33.449
2013    3        7    14   9    4.25   373.7    8.2      33.469
2013    3        7    14  15    4.25   373.7    8.2      33.490
2013    3        7    14  20    4.26   373.7    8.2      33.510
2013    3        7    14  26    4.26   373.6    8.2      33.532
2013    3        7    14  32    4.26   373.6    8.2      33.553
2013    3        7    14  37    4.27   373.6    8.2      33.574
2013    3        7    14  43    4.27   373.6    8.2      33.596
2013    3        7    14  48    4.27   373.5    8.2      33.618
2013    3        7    14  54    4.27   373.5    8.2      33.640
2013    3        7    14  59    4.28   373.5    8.2      33.662
2013    3        7    15   5    4.28   373.5    8.2      33.685
2013    3        7    15  11    4.28   373.4    8.2      33.708
2013    3        7    15  16    4.29   373.4    8.3      33.731
2013    3        7    15  22    4.29   373.4    8.3      33.754
2013    3        7    15  27    4.29   373.4    8.3      33.777
2013    3        7    15  33    4.30   373.4    8.3      33.800
2013    3        7    15  39    4.30   373.3    8.3      33.824
2013    3        7    15  44    4.30   373.3    8.3      33.847
2013    3        7    15  50    4.31   373.3    8.3      33.871
2013    3        7    15  55    4.31   373.3    8.3      33.895
2013    3        7    16   1    4.31   373.3    8.3      33.919
2013    3        7    16   7    4.31   373.2    8.3      33.943
2013    3        7    16  12    4.32   373.2    8.3      33.967
2013    3        7    16  18    4.32   373.2    8.3      33.992
2013    3        7    16  24    4.32   373.2    8.4      34.016
2013    3        7    16  29    4.33   373.2    8.4      34.040
2013    3        7    16  35    4.33   373.1    8.4      34.065
2013    3        7    16  41    4.33   373.1    8.4      34.089
2013    3        7    16  46    4.34   373.1    8.4      34.113
2013    3        7    16  52    4.34   373.1    8.4      34.137
2013    3        7    16  58    4.34   373.1    8.4      34.162
2013    3        7    17   3    4.35   373.1    8.4      34.186
2013    3        7    17   9    4.35   373.1    8.4      34.210
2013    3        7    17  15    4.35   373.0    8.4      34.234
2013    3        7    17  20    4.36   373.0    8.4      34.258
2013    3        7    17  26    4.36   373.0    8.4      34.282
2013    3        7    17  32    4.36   373.0    8.5      34.306
2013    3        7    17  37    4.36   373.0    8.5      34.330
2013    3        7    17  43    4.37   373.0    8.5      34.353
2013    3        7    17  49    4.37   373.0    8.5      34.377
2013    3        7    17  54    4.37   373.0    8.5      34.401
2013    3        7    18   0    4.38   373.0    8.5      34.425
2013    3        7    18   6    4.38   372.9    8.5      34.448
2013    3        7    18  11    4.38   372.9    8.5      34.472
2013    3        7    18  17    4.39   372.9    8.5      34.496
2013    3        7    18  23    4.39   372.9    8.5      34.520
2013    3        7    18  29    4.39   372.9    8.5      34.545
2013    3        7    18  34    4.40   372.9    8.5      34.569
2013    3        7    18  40    4.40   372.9    8.5      34.593
2013    3        7    18  46    4.40   372.9    8.6      34.618
2013    3        7    18  52    4.40   372.9    8.6      34.642
2013    3        7    18  57    4.41   372.9    8.6      34.667
2013    3        7    19   3    4.41   372.9    8.6      34.692
2013    3        7    19   9    4.41   372.9    8.6      34.717
2013    3        7    19  14    4.42   372.9    8.6      34.741
2013    3        7    19  20    4.42   372.9    8.6      34.766
2013    3        7    19  26    4.42   372.9    8.6      34.791
2013    3        7    19  31    4.42   372.9    8.6      34.816
2013    3        7    19  37    4.43   372.9    8.6      34.841
2013    3        7    19  43    4.43   372.9    8.6      34.866
2013    3        7    19  48    4.43   372.9    8.6      34.891
2013    3        7    19  54    4.44   372.9    8.6      34.916
2013    3        7    20   0    4.44   372.9    8.7      34.941
2013    3        7    20   5    4.44   372.9    8.7      34.966
2013    3        7    20  11    4.44   372.9    8.7      34.991
2013    3        7    20  17    4.45   372.9    8.7      35.015
2013    3        7    20  22    4.45   372.9    8.7      35.040
2013    3        7    20  28    4.45   372.9    8.7      35.065
2013    3        7    20  34    4.46   372.9    8.7      35.089
2013    3        7    20  39    4.46   372.9    8.7      35.113
2013    3        7    20  45    4.46   372.9    8.7      35.138
2013    3        7    20  51    4.46   372.9    8.7      35.162
2013    3        7    20  57    4.47   372.9    8.7      35.186
2013    3        7    21   2    4.47   372.9    8.7      35.210
2013    3        7    21   8    4.47   372.9    8.7      35.234
2013    3        7    21  14    4.47   372.9    8.7      35.258
2013    3        7    21  19    4.48   372.9    8.7      35.282
2013    3        7    21  25    4.48   372.9    8.7      35.306
2013    3        7    21  31    4.48   372.9    8.8      35.330
2013    3        7    21  37    4.49   372.9    8.8      35.353
2013    3        7    21  42    4.49   372.9    8.8      35.377
2013    3        7    21  48    4.49   372.9    8.8      35.401
2013    3        7    21  54    4.49   372.9    8.8      35.424
2013    3        7    22   0    4.50   372.9    8.8      35.448
2013    3        7    22   5    4.50   372.9    8.8      35.472
2013    3        7    22  11    4.50   372.9    8.8      35.496
2013    3        7    22  17    4.50   372.9    8.8      35.520
2013    3        7    22  23    4.51   372.9    8.8      35.544
2013    3        7    22  28    4.51   372.9    8.8      35.568
2013    3        7    22  34    4.51   372.9    8.8      35.592
2013    3        7    22  40    4.52   372.9    8.8      35.616
2013    3        7    22  46    4.52   372.9    8.8      35.640
2013    3        7    22  51    4.52   372.9    8.8      35.665
2013    3        7    22  57    4.52   373.0    8.9      35.690
2013    3        7    23   3    4.53   373.0    8.9      35.715
2013    3        7    23   9    4.53   373.0    8.9      35.740
2013    3        7    23  15    4.53   373.0    8.9      35.765
2013    3        7    23  20    4.54   373.0    8.9      35.790
2013    3        7    23  26    4.54   373.0    8.9      35.816
2013    3        7    23  32    4.54   373.0    8.9      35.841
2013    3        7    23  38    4.54   373.0    8.9      35.867
2013    3        7    23  44    4.55   373.0    8.9      35.893
2013    3        7    23  50    4.55   373.0    8.9      35.920
2013    3        7    23  55    4.55   373.0    8.9      35.946
2013    3        8     0   1    4.56   373.0    8.9      35.973
2013    3        8     0   7    4.56   373.1    8.9      36.000
2013    3        8     0  13    4.56   373.1    8.9      36.027
2013    3        8     0  19    4.57   373.1    8.9      36.054
2013    3        8     0  25    4.57   373.1    9.0      36.082
2013    3        8     0  30    4.57   373.1    9.0      36.110
2013    3        8     0  36    4.58   373.1    9.0      36.138
2013    3        8     0  42    4.58   373.1    9.0      36.166
2013    3        8     0  48    4.58   373.1    9.0      36.195
2013    3        8     0  54    4.58   373.2    9.0      36.225
2013    3        8     1   0    4.59   373.2    9.0      36.255
2013    3        8     1   6    4.59   373.2    9.0      36.286
2013    3        8     1  11    4.59   373.2    9.0      36.317
2013    3        8     1  17    4.60   373.2    9.0      36.349
2013    3        8     1  23    4.60   373.3    9.0      36.382
2013    3        8     1  29    4.60   373.3    9.1      36.415
2013    3        8     1  35    4.61   373.3    9.1      36.448
2013    3        8     1  40    4.61   373.4    9.1      36.483
2013    3        8     1  46    4.61   373.4    9.1      36.518
2013    3        8     1  52    4.62   373.4    9.1      36.553
2013    3        8     1  58    4.62   373.4    9.1      36.589
2013    3        8     2   4    4.62   373.5    9.1      36.626
2013    3        8     2   9    4.63   373.5    9.1      36.663
2013    3        8     2  15    4.63   373.5    9.1      36.700
2013    3        8     2  21    4.63   373.6    9.1      36.738
2013    3        8     2  27    4.63   373.6    9.1      36.775
2013    3        8     2  33    4.64   373.7    9.1      36.812
2013    3        8     2  39    4.64   373.7    9.1      36.850
2013    3        8     2  44    4.64   373.7    9.2      36.887
2013    3        8     2  50    4.65   373.8    9.2      36.924
2013    3        8     2  56    4.65   373.8    9.2      36.961
2013    3        8     3   2    4.65   373.8    9.2      36.998
2013    3        8     3   8    4.65   373.9    9.2      37.035
2013    3        8     3  13    4.66   373.9    9.2      37.071
2013    3        8     3  19    4.66   373.9    9.2      37.107
2013    3        8     3  25    4.66   374.0    9.2      37.142
2013    3        8     3  31    4.66   374.0    9.2      37.177
2013    3        8     3  37    4.67   374.0    9.2      37.212
2013    3        8     3  43    4.67   374.1    9.2      37.247
2013    3        8     3  48    4.67   374.1    9.2      37.281
2013    3        8     3  54    4.67   374.2    9.2      37.315
2013    3        8     4   0    4.68   374.2    9.2      37.348
2013    3        8     4   6    4.68   374.2    9.2      37.381
2013    3        8     4  12    4.68   374.3    9.2      37.414
2013    3        8     4  18    4.68   374.3    9.2      37.446
2013    3        8     4  24    4.69   374.3    9.2      37.478
2013    3        8     4  29    4.69   374.4    9.2      37.510
2013    3        8     4  35    4.69   374.4    9.3      37.541
2013    3        8     4  41    4.69   374.4    9.3      37.572
2013    3        8     4  47    4.70   374.5    9.3      37.603
2013    3        8     4  53    4.70   374.5    9.3      37.634
2013    3        8     4  59    4.70   374.5    9.3      37.664
2013    3        8     5   5    4.70   374.6    9.3      37.694
2013    3        8     5  11    4.71   374.6    9.3      37.724
2013    3        8     5  17    4.71   374.6    9.3      37.754
2013    3        8     5  22    4.71   374.7    9.3      37.784
2013    3        8     5  28    4.71   374.7    9.3      37.813
2013    3        8     5  34    4.72   374.7    9.3      37.843
2013    3        8     5  40    4.72   374.8    9.3      37.872
2013    3        8     5  46    4.72   374.8    9.3      37.901
2013    3        8     5  52    4.72   374.9    9.3      37.930
2013    3        8     5  58    4.73   374.9    9.3      37.959
2013    3        8     6   4    4.73   374.9    9.3      37.988
2013    3        8     6  10    4.73   375.0    9.3      38.017
2013    3        8     6  16    4.73   375.0    9.3      38.046
2013    3        8     6  22    4.74   375.0    9.3      38.076
2013    3        8     6  28    4.74   375.1    9.3      38.105
2013    3        8     6  34    4.74   375.1    9.3      38.134
2013    3        8     6  40    4.74   375.2    9.3      38.164
2013    3        8     6  45    4.75   375.2    9.3      38.194
2013    3        8     6  51    4.75   375.2    9.3      38.224
2013    3        8     6  57    4.75   375.3    9.4      38.254
2013    3        8     7   3    4.75   375.3    9.4      38.284
2013    3        8     7   9    4.76   375.4    9.4      38.315
2013    3        8     7  15    4.76   375.4    9.4      38.346
2013    3        8     7  21    4.76   375.4    9.4      38.377
2013    3        8     7  27    4.77   375.5    9.4      38.409
2013    3        8     7  33    4.77   375.5    9.4      38.441
2013    3        8     7  39    4.77   375.6    9.4      38.473
2013    3        8     7  45    4.77   375.6    9.4      38.506
2013    3        8     7  51    4.78   375.7    9.4      38.539
2013    3        8     7  57    4.78   375.7    9.4      38.572
2013    3        8     8   3    4.78   375.7    9.4      38.606
2013    3        8     8   9    4.79   375.8    9.4      38.641
2013    3        8     8  15    4.79   375.8    9.4      38.676
2013    3        8     8  20    4.79   375.9    9.4      38.712
2013    3        8     8  26    4.79   375.9    9.4      38.749
2013    3        8     8  32    4.80   376.0    9.4      38.787
2013    3        8     8  38    4.80   376.0    9.5      38.826
2013    3        8     8  44    4.80   376.1    9.5      38.866
2013    3        8     8  50    4.81   376.2    9.5      38.906
2013    3        8     8  56    4.81   376.2    9.5      38.947
2013    3        8     9   2    4.81   376.3    9.5      38.990
2013    3        8     9   8    4.82   376.3    9.5      39.033
2013    3        8     9  14    4.82   376.4    9.5      39.076
2013    3        8     9  20    4.82   376.5    9.5      39.121
2013    3        8     9  26    4.83   376.5    9.5      39.166
2013    3        8     9  31    4.83   376.6    9.5      39.212
2013    3        8     9  37    4.83   376.7    9.5      39.259
2013    3        8     9  43    4.83   376.7    9.5      39.307
2013    3        8     9  49    4.84   376.8    9.5      39.355
2013    3        8     9  55    4.84   376.9    9.6      39.404
2013    3        8    10   1    4.84   376.9    9.6      39.453
2013    3        8    10   7    4.85   377.0    9.6      39.504
2013    3        8    10  13    4.85   377.1    9.6      39.555
2013    3        8    10  19    4.85   377.2    9.6      39.606
2013    3        8    10  25    4.86   377.2    9.6      39.658
2013    3        8    10  31    4.86   377.3    9.6      39.711
2013    3        8    10  37    4.86   377.4    9.6      39.763
2013    3        8    10  43    4.87   377.5    9.6      39.817
2013    3        8    10  49    4.87   377.5    9.6      39.870
2013    3        8    10  55    4.87   377.6    9.6      39.924
2013    3        8    11   1    4.87   377.7    9.6      39.978
2013    3        8    11   7    4.88   377.8    9.6      40.032
2013    3        8    11  13    4.88   377.9    9.6      40.086
2013    3        8    11  19    4.88   377.9    9.7      40.141
2013    3        8    11  25    4.89   378.0    9.7      40.195
2013    3        8    11  31    4.89   378.1    9.7      40.249
2013    3        8    11  37    4.89   378.2    9.7      40.303
2013    3        8    11  43    4.89   378.3    9.7      40.357
2013    3        8    11  49    4.90   378.4    9.7      40.410
2013    3        8    11  55    4.90   378.4    9.7      40.463
2013    3        8    12   1    4.90   378.5    9.7      40.515
2013    3        8    12   7    4.91   378.6    9.7      40.567
2013    3        8    12  13    4.91   378.7    9.7      40.619
2013    3        8    12  19    4.91   378.8    9.7      40.671
2013    3        8    12  25    4.91   378.8    9.7      40.722
2013    3        8    12  31    4.92   378.9    9.7      40.772
2013    3        8    12  37    4.92   379.0    9.7      40.822
2013    3        8    12  43    4.92   379.1    9.7      40.872
2013    3        8    12  49    4.92   379.2    9.7      40.921
2013    3        8    12  55    4.93   379.3    9.7      40.970
2013    3        8    13   1    4.93   379.3    9.7      41.018
2013    3        8    13   7    4.93   379.4    9.7      41.067
2013    3        8    13  13    4.94   379.5    9.7      41.115
2013    3        8    13  19    4.94   379.6    9.7      41.162
2013    3        8    13  26    4.94   379.7    9.7      41.210
2013    3        8    13  32    4.94   379.8    9.7      41.257
2013    3        8    13  38    4.95   379.8    9.7      41.303
2013    3        8    13  44    4.95   379.9    9.7      41.350
2013    3        8    13  50    4.95   380.0    9.8      41.396
2013    3        8    13  56    4.95   380.1    9.8      41.442
2013    3        8    14   2    4.96   380.2    9.8      41.487
2013    3        8    14   8    4.96   380.3    9.8      41.533
2013    3        8    14  14    4.96   380.3    9.8      41.578
2013    3        8    14  20    4.97   380.4    9.8      41.624
2013    3        8    14  26    4.97   380.5    9.8      41.669
2013    3        8    14  32    4.97   380.6    9.8      41.714
2013    3        8    14  38    4.97   380.7    9.8      41.759
2013    3        8    14  44    4.98   380.8    9.8      41.803
2013    3        8    14  50    4.98   380.8    9.8      41.848
2013    3        8    14  56    4.98   380.9    9.8      41.892
2013    3        8    15   2    4.99   381.0    9.8      41.937
2013    3        8    15   8    4.99   381.1    9.8      41.981
2013    3        8    15  14    4.99   381.2    9.8      42.026
2013    3        8    15  20    4.99   381.3    9.8      42.071
2013    3        8    15  26    5.00   381.4    9.8      42.117
2013    3        8    15  32    5.00   381.4    9.8      42.163
2013    3        8    15  38    5.00   381.5    9.8      42.210
2013    3        8    15  44    5.00   381.6    9.8      42.258
2013    3        8    15  50    5.01   381.7    9.8      42.307
2013    3        8    15  56    5.01   381.8    9.8      42.355
2013    3        8    16   2    5.01   381.9    9.8      42.404
2013    3        8    16   8    5.01   382.0    9.9      42.454
2013    3        8    16  14    5.01   382.1    9.9      42.503
2013    3        8    16  20    5.01   382.2    9.9      42.553
2013    3        8    16  26    5.02   382.3    9.9      42.603
2013    3        8    16  32    5.02   382.3    9.9      42.654
2013    3        8    16  38    5.02   382.4    9.9      42.704
2013    3        8    16  44    5.02   382.5    9.9      42.755
2013    3        8    16  50    5.02   382.6    9.9      42.805
2013    3        8    16  56    5.02   382.7    9.9      42.856
2013    3        8    17   2    5.02   382.8    9.9      42.906
2013    3        8    17   8    5.02   382.9    9.9      42.957
2013    3        8    17  15    5.02   383.0    9.9      43.007
2013    3        8    17  21    5.02   383.1    9.9      43.059
2013    3        8    17  27    5.02   383.1    9.9      43.111
2013    3        8    17  33    5.02   383.2    9.9      43.163
2013    3        8    17  39    5.02   383.3    9.9      43.215
2013    3        8    17  45    5.02   383.4    9.9      43.268
2013    3        8    17  51    5.02   383.5    9.9      43.321
2013    3        8    17  57    5.02   383.6    9.9      43.374
2013    3        8    18   3    5.02   383.7    9.9      43.427
2013    3        8    18   9    5.02   383.8    9.9      43.480
2013    3        8    18  15    5.02   383.8    9.9      43.533
2013    3        8    18  22    5.02   383.9    9.9      43.586
2013    3        8    18  28    5.02   384.0    9.9      43.639
2013    3        8    18  34    5.02   384.1    9.9      43.691
2013    3        8    18  40    5.02   384.2    9.9      43.744
2013    3        8    18  46    5.02   384.3    9.9      43.796
2013    3        8    18  52    5.02   384.3    9.9      43.847
2013    3        8    18  58    5.01   384.4    9.9      43.898
2013    3        8    19   4    5.01   384.5    9.9      43.949
2013    3        8    19  11    5.01   384.6    9.9      43.999
2013    3        8    19  17    5.01   384.7    9.9      44.049
2013    3        8    19  23    5.01   384.7    9.9      44.099
2013    3        8    19  29    5.01   384.8    9.9      44.148
2013    3        8    19  35    5.01   384.9    9.9      44.197
2013    3        8    19  41    5.01   385.0    9.9      44.245
2013    3        8    19  48    5.00   385.0    9.9      44.294
2013    3        8    19  54    5.00   385.1    9.9      44.342
2013    3        8    20   0    5.00   385.2    9.9      44.390
2013    3        8    20   6    5.00   385.3    9.9      44.437
2013    3        8    20  12    5.00   385.3    9.9      44.485
2013    3        8    20  19    5.00   385.4    9.8      44.532
2013    3        8    20  25    4.99   385.5    9.8      44.579
2013    3        8    20  31    4.99   385.6    9.8      44.626
2013    3        8    20  37    4.99   385.6    9.8      44.673
2013    3        8    20  43    4.99   385.7    9.8      44.720
2013    3        8    20  50    4.99   385.8    9.8      44.766
2013    3        8    20  56    4.99   385.9    9.8      44.812
2013    3        8    21   2    4.98   385.9    9.8      44.859
2013    3        8    21   8    4.98   386.0    9.8      44.905
2013    3        8    21  14    4.98   386.1    9.8      44.951
2013    3        8    21  21    4.98   386.2    9.8      44.997
2013    3        8    21  27    4.98   386.2    9.8      45.043
2013    3        8    21  33    4.98   386.3    9.8      45.089
2013    3        8    21  39    4.97   386.4    9.8      45.134
2013    3        8    21  46    4.97   386.5    9.7      45.180
2013    3        8    21  52    4.97   386.5    9.7      45.225
2013    3        8    21  58    4.97   386.6    9.7      45.271
2013    3        8    22   5    4.97   386.7    9.7      45.316
2013    3        8    22  11    4.97   386.7    9.7      45.362
2013    3        8    22  17    4.96   386.8    9.7      45.407
2013    3        8    22  23    4.96   386.9    9.7      45.452
2013    3        8    22  30    4.96   387.0    9.7      45.497
2013    3        8    22  36    4.96   387.0    9.7      45.542
2013    3        8    22  42    4.96   387.1    9.7      45.587
2013    3        8    22  48    4.96   387.2    9.6      45.631
2013    3        8    22  55    4.95   387.3    9.6      45.676
2013    3        8    23   1    4.95   387.4    9.6      45.720
2013    3        8    23   7    4.95   387.4    9.6      45.764
2013    3        8    23  13    4.95   387.5    9.6      45.807
2013    3        8    23  20    4.95   387.6    9.6      45.851
2013    3        8    23  26    4.95   387.7    9.6      45.894
2013    3        8    23  32    4.94   387.7    9.6      45.937
2013    3        8    23  39    4.94   387.8    9.5      45.979
2013    3        8    23  45    4.94   387.9    9.5      46.021
2013    3        8    23  51    4.94   388.0    9.5      46.062
2013    3        8    23  57    4.94   388.0    9.5      46.104
2013    3        9     0   4    4.94   388.1    9.5      46.144
2013    3        9     0  10    4.93   388.2    9.5      46.184
2013    3        9     0  16    4.93   388.3    9.5      46.224
2013    3        9     0  22    4.93   388.3    9.5      46.263
2013    3        9     0  29    4.93   388.4    9.4      46.302
2013    3        9     0  35    4.93   388.5    9.4      46.340
2013    3        9     0  41    4.93   388.6    9.4      46.377
2013    3        9     0  47    4.92   388.6    9.4      46.414
2013    3        9     0  54    4.92   388.7    9.4      46.450
2013    3        9     1   0    4.92   388.8    9.4      46.485
2013    3        9     1   6    4.92   388.8    9.4      46.520
2013    3        9     1  12    4.92   388.9    9.3      46.554
2013    3        9     1  19    4.92   389.0    9.3      46.588
2013    3        9     1  25    4.91   389.1    9.3      46.620
2013    3        9     1  31    4.91   389.1    9.3      46.652
2013    3        9     1  38    4.91   389.2    9.3      46.683
2013    3        9     1  44    4.91   389.3    9.3      46.713
2013    3        9     1  50    4.91   389.4    9.3      46.742
2013    3        9     1  56    4.91   389.4    9.2      46.771
2013    3        9     2   3    4.91   389.5    9.2      46.798
2013    3        9     2   9    4.91   389.6    9.2      46.825
2013    3        9     2  15    4.90   389.6    9.2      46.851
2013    3        9     2  21    4.90   389.7    9.2      46.876
2013    3        9     2  28    4.90   389.8    9.2      46.900
2013    3        9     2  34    4.90   389.9    9.2      46.923
2013    3        9     2  40    4.90   389.9    9.1      46.944
2013    3        9     2  46    4.90   390.0    9.1      46.966
2013    3        9     2  53    4.90   390.1    9.1      46.986
2013    3        9     2  59    4.90   390.1    9.1      47.005
2013    3        9     3   5    4.89   390.2    9.1      47.023
2013    3        9     3  12    4.89   390.3    9.1      47.040
2013    3        9     3  18    4.89   390.4    9.0      47.056
2013    3        9     3  24    4.89   390.4    9.0      47.071
2013    3        9     3  30    4.89   390.5    9.0      47.085
2013    3        9     3  37    4.89   390.6    9.0      47.098
2013    3        9     3  43    4.89   390.6    9.0      47.110
2013    3        9     3  49    4.89   390.7    9.0      47.121
2013    3        9     3  55    4.89   390.8    9.0      47.132
2013    3        9     4   2    4.88   390.8    8.9      47.141
2013    3        9     4   8    4.88   390.9    8.9      47.149
2013    3        9     4  14    4.88   391.0    8.9      47.156
2013    3        9     4  20    4.88   391.0    8.9      47.163
2013    3        9     4  27    4.88   391.1    8.9      47.168
2013    3        9     4  33    4.88   391.2    8.9      47.172
2013    3        9     4  39    4.88   391.2    8.9      47.175
2013    3        9     4  46    4.88   391.3    8.8      47.178
2013    3        9     4  52    4.88   391.4    8.8      47.179
2013    3        9     4  58    4.88   391.4    8.8      47.179
2013    3        9     5   4    4.87   391.5    8.8      47.178
2013    3        9     5  11    4.87   391.5    8.8      47.176
2013    3        9     5  17    4.87   391.6    8.8      47.173
2013    3        9     5  23    4.87   391.7    8.8      47.168
2013    3        9     5  29    4.87   391.7    8.7      47.163
2013    3        9     5  36    4.87   391.8    8.7      47.156
2013    3        9     5  42    4.87   391.9    8.7      47.148
2013    3        9     5  48    4.87   391.9    8.7      47.139
2013    3        9     5  55    4.87   392.0    8.7      47.129
2013    3        9     6   1    4.86   392.0    8.7      47.118
2013    3        9     6   7    4.86   392.1    8.7      47.105
2013    3        9     6  13    4.86   392.2    8.6      47.092
2013    3        9     6  20    4.86   392.2    8.6      47.076
2013    3        9     6  26    4.86   392.3    8.6      47.060
2013    3        9     6  32    4.86   392.4    8.6      47.043
2013    3        9     6  38    4.86   392.4    8.6      47.024
2013    3        9     6  45    4.85   392.5    8.6      47.004
2013    3        9     6  51    4.85   392.6    8.6      46.983
2013    3        9     6  57    4.85   392.6    8.5      46.961
2013    3        9     7   3    4.85   392.7    8.5      46.937
2013    3        9     7  10    4.85   392.8    8.5      46.912
2013    3        9     7  16    4.85   392.8    8.5      46.887
2013    3        9     7  22    4.84   392.9    8.5      46.859
2013    3        9     7  28    4.84   393.0    8.5      46.831
2013    3        9     7  35    4.84   393.0    8.5      46.802
2013    3        9     7  41    4.84   393.1    8.5      46.771
2013    3        9     7  47    4.84   393.2    8.4      46.739
2013    3        9     7  54    4.84   393.2    8.4      46.707
2013    3        9     8   0    4.83   393.3    8.4      46.673
2013    3        9     8   6    4.83   393.3    8.4      46.638
2013    3        9     8  12    4.83   393.4    8.4      46.602
2013    3        9     8  19    4.83   393.5    8.4      46.565
2013    3        9     8  25    4.83   393.5    8.4      46.527
2013    3        9     8  31    4.82   393.6    8.4      46.488
2013    3        9     8  37    4.82   393.6    8.3      46.447
2013    3        9     8  44    4.82   393.7    8.3      46.406
2013    3        9     8  50    4.82   393.7    8.3      46.364
2013    3        9     8  56    4.82   393.8    8.3      46.321
2013    3        9     9   2    4.82   393.8    8.3      46.277
2013    3        9     9   9    4.81   393.9    8.3      46.232
2013    3        9     9  15    4.81   393.9    8.3      46.185
2013    3        9     9  21    4.81   394.0    8.3      46.138
2013    3        9     9  28    4.81   394.0    8.3      46.090
2013    3        9     9  34    4.81   394.1    8.2      46.041
2013    3        9     9  40    4.80   394.1    8.2      45.991
2013    3        9     9  46    4.80   394.2    8.2      45.940
2013    3        9     9  53    4.80   394.2    8.2      45.888
2013    3        9     9  59    4.80   394.3    8.2      45.835
2013    3        9    10   5    4.80   394.3    8.2      45.781
2013    3        9    10  11    4.79   394.3    8.2      45.726
2013    3        9    10  18    4.79   394.4    8.2      45.670
2013    3        9    10  24    4.79   394.4    8.2      45.613
2013    3        9    10  30    4.79   394.5    8.2      45.555
2013    3        9    10  36    4.79   394.5    8.2      45.497
2013    3        9    10  43    4.78   394.5    8.2      45.438
2013    3        9    10  49    4.78   394.6    8.1      45.378
2013    3        9    10  55    4.78   394.6    8.1      45.317
2013    3        9    11   1    4.78   394.6    8.1      45.255
2013    3        9    11   8    4.77   394.7    8.1      45.192
2013    3        9    11  14    4.77   394.7    8.1      45.129
2013    3        9    11  20    4.77   394.7    8.1      45.066
2013    3        9    11  27    4.77   394.8    8.1      45.001
2013    3        9    11  33    4.77   394.8    8.1      44.936
2013    3        9    11  39    4.76   394.8    8.1      44.871
2013    3        9    11  45    4.76   394.9    8.1      44.805
2013    3        9    11  52    4.76   394.9    8.1      44.739
2013    3        9    11  58    4.76   394.9    8.1      44.672
2013    3        9    12   4    4.76   395.0    8.1      44.606
2013    3        9    12  10    4.75   395.0    8.1      44.538
2013    3        9    12  17    4.75   395.0    8.1      44.471
2013    3        9    12  23    4.75   395.0    8.1      44.403
2013    3        9    12  29    4.75   395.1    8.1      44.336
2013    3        9    12  36    4.74   395.1    8.1      44.268
2013    3        9    12  42    4.74   395.1    8.1      44.200
2013    3        9    12  48    4.74   395.1    8.1      44.132
2013    3        9    12  54    4.74   395.2    8.1      44.065
2013    3        9    13   1    4.74   395.2    8.1      43.997
2013    3        9    13   7    4.73   395.2    8.1      43.930
2013    3        9    13  13    4.73   395.2    8.1      43.863
2013    3        9    13  19    4.73   395.2    8.1      43.796
2013    3        9    13  26    4.73   395.3    8.1      43.729
2013    3        9    13  32    4.72   395.3    8.1      43.664
2013    3        9    13  38    4.72   395.3    8.1      43.598
2013    3        9    13  44    4.72   395.3    8.1      43.533
2013    3        9    13  51    4.72   395.3    8.1      43.468
2013    3        9    13  57    4.72   395.3    8.1      43.405
2013    3        9    14   3    4.71   395.4    8.1      43.342
2013    3        9    14  10    4.71   395.4    8.1      43.280
2013    3        9    14  16    4.71   395.4    8.1      43.218
2013    3        9    14  22    4.71   395.4    8.1      43.158
2013    3        9    14  28    4.70   395.4    8.1      43.099
2013    3        9    14  35    4.70   395.4    8.1      43.041
2013    3        9    14  41    4.70   395.4    8.1      42.983
2013    3        9    14  47    4.70   395.4    8.1      42.928
2013    3        9    14  53    4.70   395.4    8.1      42.873
2013    3        9    15   0    4.69   395.5    8.1      42.819
2013    3        9    15   6    4.69   395.5    8.0      42.766
2013    3        9    15  12    4.69   395.5    8.0      42.715
2013    3        9    15  18    4.69   395.5    8.0      42.665
2013    3        9    15  25    4.69   395.5    8.0      42.616
2013    3        9    15  31    4.68   395.5    8.0      42.567
2013    3        9    15  37    4.68   395.5    8.0      42.521
2013    3        9    15  43    4.68   395.5    8.0      42.475
2013    3        9    15  50    4.68   395.5    8.0      42.430
2013    3        9    15  56    4.68   395.5    8.0      42.386
2013    3        9    16   2    4.68   395.5    8.0      42.343
2013    3        9    16   9    4.67   395.5    8.0      42.300
2013    3        9    16  15    4.67   395.5    8.0      42.259
2013    3        9    16  21    4.67   395.5    8.0      42.219
2013    3        9    16  27    4.67   395.5    8.0      42.179
2013    3        9    16  34    4.67   395.5    8.0      42.140
2013    3        9    16  40    4.67   395.5    8.0      42.103
2013    3        9    16  46    4.66   395.5    8.0      42.065
2013    3        9    16  52    4.66   395.5    8.0      42.029
2013    3        9    16  59    4.66   395.5    8.0      41.993
2013    3        9    17   5    4.66   395.5    8.0      41.958
2013    3        9    17  11    4.66   395.5    8.0      41.923
2013    3        9    17  17    4.66   395.4    8.0      41.890
2013    3        9    17  24    4.66   395.4    8.0      41.856
2013    3        9    17  30    4.66   395.4    8.0      41.823
2013    3        9    17  36    4.65   395.4    8.0      41.791
2013    3        9    17  42    4.65   395.4    8.0      41.759
2013    3        9    17  49    4.65   395.4    8.0      41.727
2013    3        9    17  55    4.65   395.4    8.0      41.696
2013    3        9    18   1    4.65   395.4    8.0      41.664
2013    3        9    18   8    4.65   395.4    8.0      41.633
2013    3        9    18  14    4.65   395.4    8.0      41.602
2013    3        9    18  20    4.65   395.4    8.0      41.571
2013    3        9    18  26    4.65   395.4    8.0      41.540
2013    3        9    18  33    4.65   395.4    8.0      41.509
2013    3        9    18  39    4.64   395.3    8.0      41.478
2013    3        9    18  45    4.64   395.3    8.0      41.447
2013    3        9    18  51    4.64   395.3    8.0      41.415
2013    3        9    18  58    4.64   395.3    8.0      41.383
2013    3        9    19   4    4.64   395.3    8.0      41.351
2013    3        9    19  10    4.64   395.3    8.0      41.319
2013    3        9    19  17    4.64   395.3    8.0      41.286
2013    3        9    19  23    4.64   395.3    8.0      41.253
2013    3        9    19  29    4.64   395.3    8.0      41.219
2013    3        9    19  35    4.64   395.2    8.0      41.186
2013    3        9    19  42    4.64   395.2    8.0      41.152
2013    3        9    19  48    4.64   395.2    8.0      41.118
2013    3        9    19  54    4.64   395.2    8.0      41.084
2013    3        9    20   0    4.64   395.2    8.0      41.049
2013    3        9    20   7    4.64   395.2    8.0      41.014
2013    3        9    20  13    4.63   395.2    8.0      40.979
2013    3        9    20  19    4.63   395.2    8.0      40.944
2013    3        9    20  25    4.63   395.1    8.0      40.909
2013    3        9    20  32    4.63   395.1    8.0      40.873
2013    3        9    20  38    4.63   395.1    8.0      40.838
2013    3        9    20  44    4.63   395.1    8.0      40.802
2013    3        9    20  50    4.63   395.1    8.0      40.766
2013    3        9    20  57    4.63   395.1    8.0      40.729
2013    3        9    21   3    4.63   395.0    8.0      40.693
2013    3        9    21   9    4.63   395.0    8.0      40.657
2013    3        9    21  16    4.63   395.0    8.0      40.620
2013    3        9    21  22    4.63   395.0    8.0      40.584
2013    3        9    21  28    4.63   395.0    8.0      40.547
2013    3        9    21  34    4.63   395.0    8.0      40.510
2013    3        9    21  41    4.63   394.9    8.0      40.473
2013    3        9    21  47    4.63   394.9    8.0      40.436
2013    3        9    21  53    4.63   394.9    8.0      40.399
2013    3        9    21  59    4.63   394.9    8.0      40.361
2013    3        9    22   6    4.63   394.9    8.0      40.324
2013    3        9    22  12    4.63   394.8    8.0      40.286
2013    3        9    22  18    4.63   394.8    8.0      40.248
2013    3        9    22  24    4.63   394.8    8.0      40.210
2013    3        9    22  31    4.63   394.8    8.0      40.172
2013    3        9    22  37    4.63   394.8    8.0      40.134
2013    3        9    22  43    4.63   394.7    8.0      40.096
2013    3        9    22  49    4.63   394.7    8.0      40.057
2013    3        9    22  56    4.63   394.7    8.0      40.019
2013    3        9    23   2    4.63   394.7    8.0      39.980
2013    3        9    23   8    4.63   394.7    7.9      39.941
2013    3        9    23  15    4.63   394.6    7.9      39.903
2013    3        9    23  21    4.62   394.6    7.9      39.864
2013    3        9    23  27    4.62   394.6    7.9      39.825
2013    3        9    23  33    4.62   394.6    7.9      39.786
2013    3        9    23  40    4.62   394.5    7.9      39.747
2013    3        9    23  46    4.62   394.5    7.9      39.708
2013    3        9    23  52    4.62   394.5    7.9      39.670
2013    3        9    23  58    4.62   394.5    7.9      39.631
2013    3       10     0   5    4.62   394.5    7.9      39.593
2013    3       10     0  11    4.62   394.4    7.9      39.555
2013    3       10     0  17    4.62   394.4    7.9      39.516
2013    3       10     0  23    4.62   394.4    7.9      39.479
2013    3       10     0  30    4.62   394.4    7.9      39.441
2013    3       10     0  36    4.62   394.3    7.9      39.404
2013    3       10     0  42    4.62   394.3    7.9      39.366
2013    3       10     0  48    4.62   394.3    7.9      39.330
2013    3       10     0  55    4.62   394.3    7.9      39.293
2013    3       10     1   1    4.62   394.2    7.9      39.257
2013    3       10     1   7    4.62   394.2    7.9      39.221
2013    3       10     1  14    4.62   394.2    7.9      39.186
2013    3       10     1  20    4.62   394.2    7.9      39.151
2013    3       10     1  26    4.62   394.2    7.9      39.116
2013    3       10     1  32    4.62   394.1    7.9      39.082
2013    3       10     1  39    4.62   394.1    7.9      39.049
2013    3       10     1  45    4.62   394.1    7.9      39.015
2013    3       10     1  51    4.62   394.1    7.9      38.983
2013    3       10     1  57    4.62   394.0    7.9      38.951
2013    3       10     2   4    4.63   394.0    7.9      38.919
2013    3       10     2  10    4.63   394.0    7.9      38.888
2013    3       10     2  16    4.63   394.0    7.9      38.858
2013    3       10     2  23    4.63   393.9    7.9      38.828
2013    3       10     2  29    4.63   393.9    7.9      38.799
2013    3       10     2  35    4.63   393.9    7.9      38.770
2013    3       10     2  41    4.63   393.9    7.9      38.741
2013    3       10     2  48    4.63   393.9    7.9      38.714
2013    3       10     2  54    4.63   393.8    7.9      38.687
2013    3       10     3   0    4.63   393.8    7.9      38.660
2013    3       10     3   6    4.63   393.8    7.9      38.634
2013    3       10     3  13    4.63   393.8    7.9      38.608
2013    3       10     3  19    4.63   393.7    7.9      38.582
2013    3       10     3  25    4.63   393.7    7.9      38.557
2013    3       10     3  31    4.63   393.7    7.9      38.532
2013    3       10     3  38    4.63   393.7    7.9      38.507
2013    3       10     3  44    4.63   393.7    7.9      38.482
2013    3       10     3  50    4.63   393.6    7.9      38.457
2013    3       10     3  57    4.63   393.6    7.9      38.433
2013    3       10     4   3    4.63   393.6    7.9      38.408
2013    3       10     4   9    4.63   393.6    7.9      38.384
2013    3       10     4  15    4.63   393.6    7.9      38.360
2013    3       10     4  22    4.63   393.5    7.9      38.336
2013    3       10     4  28    4.63   393.5    7.9      38.312
2013    3       10     4  34    4.63   393.5    7.9      38.288
2013    3       10     4  40    4.63   393.5    7.9      38.263
2013    3       10     4  47    4.63   393.4    7.9      38.240
2013    3       10     4  53    4.63   393.4    7.9      38.216
2013    3       10     4  59    4.63   393.4    7.9      38.192
2013    3       10     5   5    4.63   393.4    7.9      38.168
2013    3       10     5  12    4.64   393.4    7.9      38.145
2013    3       10     5  18    4.64   393.3    7.9      38.121
2013    3       10     5  24    4.64   393.3    7.9      38.098
2013    3       10     5  30    4.64   393.3    7.9      38.074
2013    3       10     5  37    4.64   393.3    7.9      38.051
2013    3       10     5  43    4.64   393.3    7.9      38.028
2013    3       10     5  49    4.64   393.2    7.9      38.005
2013    3       10     5  55    4.64   393.2    7.9      37.982
2013    3       10     6   2    4.64   393.2    7.9      37.959
2013    3       10     6   8    4.64   393.2    7.9      37.936
2013    3       10     6  14    4.64   393.2    7.9      37.914
2013    3       10     6  21    4.64   393.1    7.9      37.891
2013    3       10     6  27    4.64   393.1    7.9      37.868
2013    3       10     6  33    4.64   393.1    7.9      37.846
2013    3       10     6  39    4.64   393.1    7.9      37.824
2013    3       10     6  46    4.64   393.1    7.9      37.802
2013    3       10     6  52    4.64   393.1    7.9      37.779
2013    3       10     6  58    4.64   393.0    7.9      37.757
2013    3       10     7   4    4.64   393.0    7.9      37.736
2013    3       10     7  11    4.64   393.0    7.9      37.714
2013    3       10     7  17    4.65   393.0    7.9      37.692
2013    3       10     7  23    4.65   393.0    7.9      37.670
2013    3       10     7  29    4.65   393.0    7.9      37.649
2013    3       10     7  36    4.65   392.9    7.9      37.627
2013    3       10     7  42    4.65   392.9    7.9      37.605
2013    3       10     7  48    4.65   392.9    7.9      37.584
2013    3       10     7  54    4.65   392.9    7.9      37.562
2013    3       10     8   1    4.65   392.9    7.9      37.540
2013    3       10     8   7    4.65   392.9    7.9      37.519
2013    3       10     8  13    4.65   392.9    7.9      37.497
2013    3       10     8  20    4.65   392.8    7.9      37.475
2013    3       10     8  26    4.65   392.8    7.9      37.453
2013    3       10     8  32    4.65   392.8    7.9      37.430
2013    3       10     8  38    4.65   392.8    7.9      37.408
2013    3       10     8  45    4.65   392.8    7.9      37.386
2013    3       10     8  51    4.65   392.8    7.9      37.363
2013    3       10     8  57    4.65   392.8    7.9      37.340
2013    3       10     9   3    4.65   392.7    7.9      37.317
2013    3       10     9  10    4.65   392.7    7.9      37.294
2013    3       10     9  16    4.66   392.7    7.9      37.271
2013    3       10     9  22    4.66   392.7    7.9      37.248
2013    3       10     9  29    4.66   392.7    7.9      37.225
2013    3       10     9  35    4.66   392.7    7.9      37.201
2013    3       10     9  41    4.66   392.7    7.9      37.178
2013    3       10     9  47    4.66   392.6    7.9      37.154
2013    3       10     9  54    4.66   392.6    7.9      37.131
2013    3       10    10   0    4.66   392.6    7.9      37.107
2013    3       10    10   6    4.66   392.6    7.9      37.083
2013    3       10    10  12    4.66   392.6    7.9      37.060
2013    3       10    10  19    4.66   392.6    7.9      37.036
2013    3       10    10  25    4.66   392.6    7.9      37.012
2013    3       10    10  31    4.66   392.6    7.9      36.988
2013    3       10    10  37    4.66   392.5    7.9      36.965
2013    3       10    10  44    4.66   392.5    7.9      36.941
2013    3       10    10  50    4.67   392.5    7.9      36.917
2013    3       10    10  56    4.67   392.5    7.9      36.893
2013    3       10    11   3    4.67   392.5    7.9      36.870
2013    3       10    11   9    4.67   392.5    7.9      36.846
2013    3       10    11  15    4.67   392.5    7.9      36.822
2013    3       10    11  21    4.67   392.4    7.9      36.799
2013    3       10    11  28    4.67   392.4    7.9      36.775
2013    3       10    11  34    4.67   392.4    7.9      36.752
2013    3       10    11  40    4.67   392.4    7.9      36.728
2013    3       10    11  46    4.67   392.4    7.9      36.705
2013    3       10    11  53    4.68   392.4    7.9      36.682
2013    3       10    11  59    4.68   392.4    7.9      36.658
2013    3       10    12   5    4.68   392.4    7.9      36.636
2013    3       10    12  11    4.68   392.3    7.9      36.613
2013    3       10    12  18    4.68   392.3    7.9      36.590
2013    3       10    12  24    4.68   392.3    7.9      36.567
2013    3       10    12  30    4.68   392.3    7.9      36.545
2013    3       10    12  36    4.68   392.3    7.9      36.523
2013    3       10    12  43    4.69   392.3    7.9      36.501
2013    3       10    12  49    4.69   392.3    7.9      36.479
2013    3       10    12  55    4.69   392.2    7.9      36.457
2013    3       10    13   2    4.69   392.2    7.9      36.436
2013    3       10    13   8    4.69   392.2    7.9      36.415
2013    3       10    13  14    4.69   392.2    7.9      36.394
2013    3       10    13  20    4.69   392.2    7.9      36.373
2013    3       10    13  27    4.70   392.2    7.9      36.353
2013    3       10    13  33    4.70   392.2    7.9      36.333
2013    3       10    13  39    4.70   392.2    7.9      36.313
2013    3       10    13  45    4.70   392.1    7.9      36.294
2013    3       10    13  52    4.70   392.1    7.9      36.274
2013    3       10    13  58    4.71   392.1    7.9      36.256
2013    3       10    14   4    4.71   392.1    7.9      36.237
2013    3       10    14  10    4.71   392.1    8.0      36.219
2013    3       10    14  17    4.71   392.1    8.0      36.202
2013    3       10    14  23    4.71   392.1    8.0      36.184
2013    3       10    14  29    4.71   392.1    8.0      36.167
2013    3       10    14  35    4.72   392.0    8.0      36.151
2013    3       10    14  42    4.72   392.0    8.0      36.135
2013    3       10    14  48    4.72   392.0    8.0      36.119
2013    3       10    14  54    4.72   392.0    8.0      36.104
2013    3       10    15   1    4.73   392.0    8.0      36.089
2013    3       10    15   7    4.73   392.0    8.0      36.075
2013    3       10    15  13    4.73   392.0    8.0      36.061
2013    3       10    15  19    4.73   392.0    8.0      36.047
2013    3       10    15  26    4.73   392.0    8.0      36.034
2013    3       10    15  32    4.74   392.0    8.0      36.022
2013    3       10    15  38    4.74   392.0    8.0      36.011
2013    3       10    15  44    4.74   391.9    8.0      36.000
2013    3       10    15  51    4.74   391.9    8.0      35.990
2013    3       10    15  57    4.75   391.9    8.0      35.981
2013    3       10    16   3    4.75   391.9    8.0      35.972
2013    3       10    16   9    4.75   391.9    8.0      35.964
2013    3       10    16  16    4.75   391.9    8.0      35.957
2013    3       10    16  22    4.76   391.9    8.0      35.950
2013    3       10    16  28    4.76   391.9    8.0      35.943
2013    3       10    16  35    4.76   391.9    8.0      35.936
2013    3       10    16  41    4.76   391.9    8.0      35.930
2013    3       10    16  47    4.77   391.9    8.0      35.924
2013    3       10    16  53    4.77   391.9    8.1      35.919
2013    3       10    17   0    4.77   391.9    8.1      35.913
2013    3       10    17   6    4.77   391.9    8.1      35.908
2013    3       10    17  12    4.78   391.9    8.1      35.902
2013    3       10    17  18    4.78   391.9    8.1      35.897
2013    3       10    17  25    4.78   391.9    8.1      35.891
2013    3       10    17  31    4.78   391.9    8.1      35.885
2013    3       10    17  37    4.79   391.9    8.1      35.880
2013    3       10    17  43    4.79   391.9    8.1      35.874
2013    3       10    17  50    4.79   391.9    8.1      35.868
2013    3       10    17  56    4.79   391.9    8.1      35.862
2013    3       10    18   2    4.80   391.9    8.1      35.856
2013    3       10    18   9    4.80   391.9    8.1      35.851
2013    3       10    18  15    4.80   391.9    8.1      35.845
2013    3       10    18  21    4.80   391.9    8.1      35.839
2013    3       10    18  27    4.81   391.9    8.1      35.833
2013    3       10    18  34    4.81   391.9    8.1      35.828
2013    3       10    18  40    4.81   391.9    8.1      35.822
2013    3       10    18  46    4.82   391.9    8.1      35.816
2013    3       10    18  52    4.82   391.9    8.1      35.811
2013    3       10    18  59    4.82   392.0    8.1      35.805
2013    3       10    19   5    4.82   392.0    8.1      35.800
2013    3       10    19  11    4.83   392.0    8.1      35.794
2013    3       10    19  17    4.83   392.0    8.1      35.789
2013    3       10    19  24    4.83   392.0    8.1      35.784
2013    3       10    19  30    4.84   392.0    8.1      35.779
2013    3       10    19  36    4.84   392.0    8.1      35.774
2013    3       10    19  42    4.84   392.0    8.1      35.769
2013    3       10    19  49    4.85   392.0    8.2      35.765
2013    3       10    19  55    4.85   392.0    8.2      35.760
2013    3       10    20   1    4.85   392.0    8.2      35.756
2013    3       10    20   8    4.85   392.0    8.2      35.753
2013    3       10    20  14    4.86   392.0    8.2      35.749
2013    3       10    20  20    4.86   392.0    8.2      35.746
2013    3       10    20  26    4.86   392.1    8.2      35.743
2013    3       10    20  33    4.87   392.1    8.2      35.741
2013    3       10    20  39    4.87   392.1    8.2      35.739
2013    3       10    20  45    4.87   392.1    8.2      35.737
2013    3       10    20  51    4.88   392.1    8.2      35.735
2013    3       10    20  58    4.88   392.1    8.2      35.734
2013    3       10    21   4    4.88   392.1    8.2      35.733
2013    3       10    21  10    4.89   392.2    8.2      35.732
2013    3       10    21  16    4.89   392.2    8.2      35.731
2013    3       10    21  23    4.89   392.2    8.2      35.731
2013    3       10    21  29    4.90   392.2    8.2      35.731
2013    3       10    21  35    4.90   392.2    8.2      35.731
2013    3       10    21  41    4.91   392.2    8.2      35.731
2013    3       10    21  48    4.91   392.3    8.2      35.732
2013    3       10    21  54    4.91   392.3    8.2      35.732
2013    3       10    22   0    4.92   392.3    8.3      35.733
2013    3       10    22   7    4.92   392.3    8.3      35.734
2013    3       10    22  13    4.92   392.3    8.3      35.736
2013    3       10    22  19    4.93   392.3    8.3      35.737
2013    3       10    22  25    4.93   392.4    8.3      35.739
2013    3       10    22  32    4.93   392.4    8.3      35.742
2013    3       10    22  38    4.94   392.4    8.3      35.744
2013    3       10    22  44    4.94   392.4    8.3      35.748
2013    3       10    22  50    4.95   392.5    8.3      35.752
2013    3       10    22  57    4.95   392.5    8.3      35.757
2013    3       10    23   3    4.95   392.5    8.3      35.762
2013    3       10    23   9    4.96   392.5    8.3      35.769
2013    3       10    23  15    4.96   392.6    8.3      35.776
2013    3       10    23  22    4.97   392.6    8.3      35.785
2013    3       10    23  28    4.97   392.6    8.3      35.794
2013    3       10    23  34    4.97   392.7    8.4      35.804
2013    3       10    23  41    4.98   392.7    8.4      35.815
2013    3       10    23  47    4.98   392.7    8.4      35.826
2013    3       10    23  53    4.99   392.8    8.4      35.839
2013    3       10    23  59    4.99   392.8    8.4      35.851
2013    3       11     0   6    4.99   392.9    8.4      35.864
2013    3       11     0  12    5.00   392.9    8.4      35.878
2013    3       11     0  18    5.00   392.9    8.4      35.891
2013    3       11     0  24    5.01   393.0    8.4      35.904
2013    3       11     0  31    5.01   393.0    8.4      35.918
2013    3       11     0  37    5.01   393.1    8.4      35.931
2013    3       11     0  43    5.02   393.1    8.4      35.944
2013    3       11     0  49    5.02   393.1    8.4      35.957
2013    3       11     0  56    5.02   393.2    8.4      35.970
2013    3       11     1   2    5.03   393.2    8.4      35.983
2013    3       11     1   8    5.03   393.3    8.4      35.995
2013    3       11     1  15    5.03   393.3    8.4      36.007
2013    3       11     1  21    5.04   393.3    8.5      36.019
2013    3       11     1  27    5.04   393.4    8.5      36.031
2013    3       11     1  33    5.05   393.4    8.5      36.043
2013    3       11     1  40    5.05   393.5    8.5      36.055
2013    3       11     1  46    5.05   393.5    8.5      36.066
2013    3       11     1  52    5.06   393.6    8.5      36.078
2013    3       11     1  58    5.06   393.6    8.5      36.090
2013    3       11     2   5    5.06   393.6    8.5      36.101
2013    3       11     2  11    5.07   393.7    8.5      36.113
2013    3       11     2  17    5.07   393.7    8.5      36.124
2013    3       11     2  23    5.08   393.8    8.5      36.136
2013    3       11     2  30    5.08   393.8    8.5      36.147
2013    3       11     2  36    5.08   393.9    8.5      36.159
2013    3       11     2  42    5.09   393.9    8.5      36.171
2013    3       11     2  48    5.09   394.0    8.5      36.182
2013    3       11     2  55    5.10   394.0    8.5      36.194
2013    3       11     3   1    5.10   394.1    8.5      36.206
2013    3       11     3   7    5.10   394.1    8.5      36.219
2013    3       11     3  14    5.11   394.2    8.5      36.231
2013    3       11     3  20    5.11   394.2    8.5      36.244
2013    3       11     3  26    5.11   394.3    8.5      36.256
2013    3       11     3  32    5.12   394.3    8.6      36.270
2013    3       11     3  39    5.12   394.4    8.6      36.283
2013    3       11     3  45    5.13   394.4    8.6      36.297
2013    3       11     3  51    5.13   394.5    8.6      36.312
2013    3       11     3  57    5.13   394.5    8.6      36.327
2013    3       11     4   4    5.14   394.6    8.6      36.342
2013    3       11     4  10    5.14   394.6    8.6      36.358
2013    3       11     4  16    5.15   394.7    8.6      36.374
2013    3       11     4  22    5.15   394.7    8.6      36.392
2013    3       11     4  29    5.16   394.8    8.6      36.409
2013    3       11     4  35    5.16   394.9    8.6      36.428
2013    3       11     4  41    5.16   394.9    8.6      36.447
2013    3       11     4  47    5.17   395.0    8.6      36.466
2013    3       11     4  54    5.17   395.1    8.6      36.486
2013    3       11     5   0    5.18   395.1    8.6      36.507
2013    3       11     5   6    5.18   395.2    8.6      36.527
2013    3       11     5  13    5.18   395.3    8.6      36.547
2013    3       11     5  19    5.19   395.3    8.7      36.568
2013    3       11     5  25    5.19   395.4    8.7      36.589
2013    3       11     5  31    5.20   395.5    8.7      36.611
2013    3       11     5  38    5.20   395.5    8.7      36.632
2013    3       11     5  44    5.21   395.6    8.7      36.652
2013    3       11     5  50    5.21   395.7    8.7      36.673
2013    3       11     5  56    5.21   395.8    8.7      36.694
2013    3       11     6   3    5.22   395.8    8.7      36.715
2013    3       11     6   9    5.22   395.9    8.7      36.736
2013    3       11     6  15    5.23   396.0    8.7      36.757
2013    3       11     6  21    5.23   396.1    8.7      36.779
2013    3       11     6  28    5.24   396.1    8.7      36.801
2013    3       11     6  34    5.24   396.2    8.7      36.824
2013    3       11     6  40    5.24   396.3    8.7      36.846
2013    3       11     6  47    5.25   396.4    8.7      36.869
2013    3       11     6  53    5.25   396.5    8.8      36.892
2013    3       11     6  59    5.26   396.5    8.8      36.916
2013    3       11     7   5    5.26   396.6    8.8      36.940
2013    3       11     7  12    5.26   396.7    8.8      36.965
2013    3       11     7  18    5.27   396.8    8.8      36.990
2013    3       11     7  24    5.27   396.9    8.8      37.016
2013    3       11     7  30    5.27   397.0    8.8      37.042
2013    3       11     7  37    5.28   397.0    8.8      37.068
2013    3       11     7  43    5.28   397.1    8.8      37.094
2013    3       11     7  49    5.29   397.2    8.8      37.120
2013    3       11     7  56    5.29   397.3    8.8      37.146
2013    3       11     8   2    5.29   397.4    8.8      37.172
2013    3       11     8   8    5.30   397.5    8.8      37.197
2013    3       11     8  14    5.30   397.6    8.8      37.223
2013    3       11     8  21    5.30   397.7    8.8      37.248
2013    3       11     8  27    5.31   397.7    8.8      37.273
2013    3       11     8  33    5.31   397.8    8.8      37.297
2013    3       11     8  39    5.31   397.9    8.8      37.320
2013    3       11     8  46    5.32   398.0    8.8      37.344
2013    3       11     8  52    5.32   398.1    8.8      37.367
2013    3       11     8  58    5.32   398.2    8.8      37.389
2013    3       11     9   4    5.33   398.3    8.8      37.411
2013    3       11     9  11    5.33   398.4    8.8      37.433
2013    3       11     9  17    5.33   398.4    8.8      37.454
2013    3       11     9  23    5.34   398.5    8.8      37.475
2013    3       11     9  29    5.34   398.6    8.8      37.496
2013    3       11     9  36    5.34   398.7    8.8      37.517
2013    3       11     9  42    5.35   398.8    8.8      37.537
2013    3       11     9  48    5.35   398.9    8.8      37.556
2013    3       11     9  55    5.35   399.0    8.8      37.576
2013    3       11    10   1    5.36   399.1    8.8      37.595
2013    3       11    10   7    5.36   399.1    8.8      37.614
2013    3       11    10  13    5.36   399.2    8.8      37.633
2013    3       11    10  20    5.37   399.3    8.9      37.652
2013    3       11    10  26    5.37   399.4    8.9      37.670
2013    3       11    10  32    5.37   399.5    8.9      37.688
2013    3       11    10  38    5.38   399.6    8.9      37.706
2013    3       11    10  45    5.38   399.7    8.9      37.724
2013    3       11    10  51    5.38   399.8    8.9      37.742
2013    3       11    10  57    5.39   399.9    8.9      37.760
2013    3       11    11   3    5.39   399.9    8.9      37.777
2013    3       11    11  10    5.39   400.0    8.9      37.795
2013    3       11    11  16    5.40   400.1    8.9      37.813
2013    3       11    11  22    5.40   400.2    8.9      37.830
2013    3       11    11  28    5.40   400.3    8.9      37.848
2013    3       11    11  35    5.41   400.4    8.9      37.866
2013    3       11    11  41    5.41   400.5    8.9      37.884
2013    3       11    11  47    5.41   400.6    8.9      37.903
2013    3       11    11  53    5.42   400.7    8.9      37.922
2013    3       11    12   0    5.42   400.8    8.9      37.941
2013    3       11    12   6    5.42   400.9    8.9      37.961
2013    3       11    12  12    5.43   401.0    8.9      37.981
2013    3       11    12  19    5.43   401.1    8.9      38.002
2013    3       11    12  25    5.43   401.1    8.9      38.023
2013    3       11    12  31    5.44   401.2    8.9      38.045
2013    3       11    12  37    5.44   401.3    8.9      38.066
2013    3       11    12  44    5.44   401.4    8.9      38.088
2013    3       11    12  50    5.45   401.5    8.9      38.111
2013    3       11    12  56    5.45   401.6    8.9      38.134
2013    3       11    13   2    5.45   401.8    8.9      38.158
2013    3       11    13   9    5.46   401.9    8.9      38.182
2013    3       11    13  15    5.46   402.0    8.9      38.206
2013    3       11    13  21    5.46   402.1    8.9      38.231
2013    3       11    13  27    5.47   402.2    8.9      38.256
2013    3       11    13  34    5.47   402.3    8.9      38.282
2013    3       11    13  40    5.47   402.4    8.9      38.307
2013    3       11    13  46    5.48   402.5    8.9      38.333
2013    3       11    13  53    5.48   402.6    8.9      38.358
2013    3       11    13  59    5.48   402.7    8.9      38.384
2013    3       11    14   5    5.49   402.8    8.9      38.410
2013    3       11    14  11    5.49   402.9    8.9      38.435
2013    3       11    14  18    5.49   403.0    8.9      38.461
2013    3       11    14  24    5.50   403.1    8.9      38.486
2013    3       11    14  30    5.50   403.2    8.9      38.511
2013    3       11    14  36    5.50   403.3    8.9      38.537
2013    3       11    14  43    5.51   403.5    8.9      38.562
2013    3       11    14  49    5.51   403.6    8.9      38.588
2013    3       11    14  55    5.51   403.7    8.9      38.614
2013    3       11    15   2    5.51   403.8    8.9      38.640
2013    3       11    15   8    5.52   403.9    8.9      38.666
2013    3       11    15  14    5.52   404.0    9.0      38.692
2013    3       11    15  20    5.52   404.1    9.0      38.718
2013    3       11    15  27    5.53   404.2    9.0      38.744
2013    3       11    15  33    5.53   404.3    9.0      38.771
2013    3       11    15  39    5.53   404.4    9.0      38.797
2013    3       11    15  45    5.53   404.6    9.0      38.823
2013    3       11    15  52    5.54   404.7    9.0      38.850
2013    3       11    15  58    5.54   404.8    9.0      38.877
2013    3       11    16   4    5.54   404.9    9.0      38.903
2013    3       11    16  10    5.55   405.0    9.0      38.929
2013    3       11    16  17    5.55   405.1    9.0      38.955
2013    3       11    16  23    5.55   405.2    9.0      38.982
2013    3       11    16  29    5.55   405.3    9.0      39.009
2013    3       11    16  36    5.56   405.4    9.0      39.036
2013    3       11    16  42    5.56   405.6    9.0      39.063
2013    3       11    16  48    5.56   405.7    9.0      39.091
2013    3       11    16  54    5.56   405.8    9.0      39.118
2013    3       11    17   1    5.57   405.9    9.0      39.145
2013    3       11    17   7    5.57   406.0    9.0      39.172
2013    3       11    17  13    5.57   406.1    9.0      39.199
2013    3       11    17  19    5.57   406.2    9.0      39.225
2013    3       11    17  26    5.58   406.4    9.0      39.251
2013    3       11    17  32    5.58   406.5    9.0      39.277
2013    3       11    17  38    5.58   406.6    9.0      39.302
2013    3       11    17  44    5.58   406.7    9.0      39.327
2013    3       11    17  51    5.59   406.8    9.0      39.351
2013    3       11    17  57    5.59   406.9    9.0      39.374
2013    3       11    18   3    5.59   407.1    9.0      39.396
2013    3       11    18   9    5.59   407.2    9.0      39.418
2013    3       11    18  16    5.60   407.3    9.0      39.439
2013    3       11    18  22    5.60   407.4    9.0      39.460
2013    3       11    18  28    5.60   407.5    9.0      39.480
2013    3       11    18  34    5.60   407.6    9.0      39.500
2013    3       11    18  41    5.61   407.8    9.0      39.519
2013    3       11    18  47    5.61   407.9    9.0      39.537
2013    3       11    18  53    5.61   408.0    8.9      39.555
2013    3       11    19   0    5.61   408.1    8.9      39.573
2013    3       11    19   6    5.62   408.2    8.9      39.591
2013    3       11    19  12    5.62   408.3    8.9      39.608
2013    3       11    19  18    5.62   408.5    8.9      39.625
2013    3       11    19  25    5.62   408.6    8.9      39.642
2013    3       11    19  31    5.62   408.7    8.9      39.659
2013    3       11    19  37    5.63   408.8    8.9      39.676
2013    3       11    19  43    5.63   408.9    8.9      39.693
2013    3       11    19  50    5.63   409.1    8.9      39.709
2013    3       11    19  56    5.63   409.2    8.9      39.726
2013    3       11    20   2    5.64   409.3    8.9      39.743
2013    3       11    20   8    5.64   409.4    8.9      39.760
2013    3       11    20  15    5.64   409.5    8.9      39.777
2013    3       11    20  21    5.64   409.6    8.9      39.794
2013    3       11    20  27    5.65   409.8    8.9      39.812
2013    3       11    20  34    5.65   409.9    8.9      39.831
2013    3       11    20  40    5.65   410.0    8.9      39.850
2013    3       11    20  46    5.65   410.1    8.9      39.870
2013    3       11    20  52    5.66   410.2    8.9      39.890
2013    3       11    20  59    5.66   410.4    8.9      39.911
2013    3       11    21   5    5.66   410.5    8.9      39.933
2013    3       11    21  11    5.66   410.6    8.9      39.955
2013    3       11    21  17    5.67   410.7    8.9      39.977
2013    3       11    21  24    5.67   410.8    8.9      40.001
2013    3       11    21  30    5.67   411.0    8.9      40.025
2013    3       11    21  36    5.67   411.1    8.9      40.050
2013    3       11    21  42    5.68   411.2    8.9      40.076
2013    3       11    21  49    5.68   411.3    8.9      40.103
2013    3       11    21  55    5.68   411.5    8.9      40.129
2013    3       11    22   1    5.68   411.6    8.9      40.156
2013    3       11    22   8    5.69   411.7    8.9      40.183
2013    3       11    22  14    5.69   411.9    8.9      40.210
2013    3       11    22  20    5.69   412.0    8.9      40.237
2013    3       11    22  26    5.69   412.1    8.9      40.264
2013    3       11    22  33    5.70   412.3    8.9      40.291
2013    3       11    22  39    5.70   412.4    8.9      40.318
2013    3       11    22  45    5.70   412.5    8.9      40.345
2013    3       11    22  51    5.70   412.6    8.9      40.371
2013    3       11    22  58    5.70   412.8    8.9      40.398
2013    3       11    23   4    5.71   412.9    8.9      40.424
2013    3       11    23  10    5.71   413.0    8.9      40.450
2013    3       11    23  16    5.71   413.2    8.9      40.476
2013    3       11    23  23    5.71   413.3    8.9      40.502
2013    3       11    23  29    5.72   413.4    8.9      40.528
2013    3       11    23  35    5.72   413.5    8.9      40.554
2013    3       11    23  42    5.72   413.7    8.9      40.580
2013    3       11    23  48    5.72   413.8    8.9      40.607
2013    3       11    23  54    5.72   413.9    8.9      40.634
2013    3       12     0   0    5.73   414.1    8.9      40.662
2013    3       12     0   7    5.73   414.2    8.9      40.691
2013    3       12     0  13    5.73   414.3    8.9      40.721
2013    3       12     0  19    5.73   414.5    8.9      40.751
2013    3       12     0  25    5.74   414.6    8.9      40.783
2013    3       12     0  32    5.74   414.8    8.9      40.815
2013    3       12     0  38    5.74   414.9    8.9      40.848
2013    3       12     0  44    5.74   415.0    8.9      40.881
2013    3       12     0  50    5.74   415.2    8.9      40.915
2013    3       12     0  57    5.75   415.3    8.9      40.948
2013    3       12     1   3    5.75   415.5    8.9      40.982
2013    3       12     1   9    5.75   415.6    8.9      41.015
2013    3       12     1  15    5.75   415.8    8.9      41.049
2013    3       12     1  22    5.76   415.9    8.9      41.082
2013    3       12     1  28    5.76   416.1    8.9      41.114
2013    3       12     1  34    5.76   416.2    8.9      41.146
2013    3       12     1  41    5.76   416.4    8.9      41.176
2013    3       12     1  47    5.76   416.5    8.9      41.206
2013    3       12     1  53    5.76   416.7    8.9      41.235
2013    3       12     1  59    5.77   416.8    8.9      41.263
2013    3       12     2   6    5.77   417.0    8.9      41.290
2013    3       12     2  12    5.77   417.1    8.9      41.317
2013    3       12     2  18    5.77   417.3    8.9      41.342
2013    3       12     2  24    5.77   417.4    8.9      41.368
2013    3       12     2  31    5.78   417.6    8.9      41.392
2013    3       12     2  37    5.78   417.7    8.9      41.416
2013    3       12     2  43    5.78   417.9    8.9      41.439
2013    3       12     2  49    5.78   418.0    8.9      41.462
2013    3       12     2  56    5.78   418.2    8.9      41.484
2013    3       12     3   2    5.78   418.3    8.9      41.506
2013    3       12     3   8    5.78   418.5    8.9      41.527
2013    3       12     3  14    5.79   418.6    8.9      41.548
2013    3       12     3  21    5.79   418.7    8.9      41.569
2013    3       12     3  27    5.79   418.9    8.9      41.589
2013    3       12     3  33    5.79   419.0    8.9      41.609
2013    3       12     3  40    5.79   419.2    8.9      41.629
2013    3       12     3  46    5.79   419.3    8.9      41.648
2013    3       12     3  52    5.80   419.5    8.9      41.667
2013    3       12     3  58    5.80   419.6    8.9      41.686
2013    3       12     4   5    5.80   419.8    8.9      41.705
2013    3       12     4  11    5.80   419.9    8.9      41.723
2013    3       12     4  17    5.80   420.1    8.8      41.742
2013    3       12     4  23    5.80   420.2    8.8      41.761
2013    3       12     4  30    5.80   420.4    8.8      41.779
2013    3       12     4  36    5.81   420.5    8.8      41.798
2013    3       12     4  42    5.81   420.7    8.8      41.816
2013    3       12     4  48    5.81   420.8    8.8      41.836
2013    3       12     4  55    5.81   421.0    8.8      41.855
2013    3       12     5   1    5.81   421.1    8.8      41.875
2013    3       12     5   7    5.81   421.3    8.8      41.896
2013    3       12     5  14    5.81   421.4    8.8      41.917
2013    3       12     5  20    5.82   421.6    8.8      41.938
2013    3       12     5  26    5.82   421.7    8.8      41.960
2013    3       12     5  32    5.82   421.9    8.8      41.982
2013    3       12     5  39    5.82   422.0    8.8      42.004
2013    3       12     5  45    5.82   422.2    8.8      42.026
2013    3       12     5  51    5.82   422.3    8.8      42.048
2013    3       12     5  57    5.82   422.5    8.8      42.071
2013    3       12     6   4    5.83   422.6    8.8      42.094
2013    3       12     6  10    5.83   422.8    8.8      42.117
2013    3       12     6  16    5.83   423.0    8.8      42.140
2013    3       12     6  22    5.83   423.1    8.8      42.163
2013    3       12     6  29    5.83   423.3    8.8      42.186
2013    3       12     6  35    5.83   423.4    8.8      42.208
2013    3       12     6  41    5.83   423.6    8.8      42.231
2013    3       12     6  48    5.83   423.8    8.8      42.254
2013    3       12     6  54    5.83   423.9    8.8      42.277
2013    3       12     7   0    5.84   424.1    8.8      42.299
2013    3       12     7   6    5.84   424.3    8.8      42.322
2013    3       12     7  13    5.84   424.4    8.8      42.345
2013    3       12     7  19    5.84   424.6    8.7      42.368
2013    3       12     7  25    5.84   424.7    8.7      42.390
2013    3       12     7  31    5.84   424.9    8.7      42.413
2013    3       12     7  38    5.84   425.1    8.7      42.436
2013    3       12     7  44    5.84   425.2    8.7      42.459
2013    3       12     7  50    5.84   425.4    8.7      42.482
2013    3       12     7  56    5.84   425.6    8.7      42.506
2013    3       12     8   3    5.84   425.7    8.7      42.530
2013    3       12     8   9    5.84   425.9    8.7      42.554
2013    3       12     8  15    5.84   426.1    8.7      42.579
2013    3       12     8  21    5.85   426.2    8.7      42.604
2013    3       12     8  28    5.85   426.4    8.7      42.629
2013    3       12     8  34    5.85   426.6    8.7      42.654
2013    3       12     8  40    5.85   426.7    8.7      42.679
2013    3       12     8  47    5.85   426.9    8.7      42.704
2013    3       12     8  53    5.85   427.1    8.7      42.729
2013    3       12     8  59    5.85   427.3    8.7      42.754
2013    3       12     9   5    5.85   427.4    8.7      42.779
2013    3       12     9  12    5.85   427.6    8.7      42.803
2013    3       12     9  18    5.85   427.8    8.7      42.827
2013    3       12     9  24    5.85   427.9    8.7      42.850
2013    3       12     9  30    5.85   428.1    8.6      42.873
2013    3       12     9  37    5.85   428.3    8.6      42.895
2013    3       12     9  43    5.85   428.4    8.6      42.916
2013    3       12     9  49    5.85   428.6    8.6      42.937
2013    3       12     9  55    5.85   428.8    8.6      42.958
2013    3       12    10   2    5.85   429.0    8.6      42.978
2013    3       12    10   8    5.85   429.1    8.6      42.997
2013    3       12    10  14    5.85   429.3    8.6      43.016
2013    3       12    10  20    5.85   429.5    8.6      43.035
2013    3       12    10  27    5.85   429.6    8.6      43.053
2013    3       12    10  33    5.85   429.8    8.6      43.070
2013    3       12    10  39    5.84   430.0    8.6      43.088
2013    3       12    10  46    5.84   430.1    8.6      43.104
2013    3       12    10  52    5.84   430.3    8.5      43.121
2013    3       12    10  58    5.84   430.5    8.5      43.137
2013    3       12    11   4    5.84   430.6    8.5      43.152
2013    3       12    11  11    5.84   430.8    8.5      43.167
2013    3       12    11  17    5.84   431.0    8.5      43.182
2013    3       12    11  23    5.84   431.1    8.5      43.197
2013    3       12    11  29    5.84   431.3    8.5      43.211
2013    3       12    11  36    5.84   431.5    8.5      43.224
2013    3       12    11  42    5.84   431.6    8.5      43.238
2013    3       12    11  48    5.84   431.8    8.5      43.251
2013    3       12    11  54    5.84   432.0    8.5      43.263
2013    3       12    12   1    5.83   432.1    8.5      43.276
2013    3       12    12   7    5.83   432.3    8.4      43.288
2013    3       12    12  13    5.83   432.5    8.4      43.300
2013    3       12    12  20    5.83   432.6    8.4      43.311
2013    3       12    12  26    5.83   432.8    8.4      43.322
2013    3       12    12  32    5.83   432.9    8.4      43.334
2013    3       12    12  38    5.83   433.1    8.4      43.345
2013    3       12    12  45    5.83   433.3    8.4      43.355
2013    3       12    12  51    5.83   433.4    8.4      43.366
2013    3       12    12  57    5.83   433.6    8.4      43.376
2013    3       12    13   3    5.82   433.8    8.4      43.387
2013    3       12    13  10    5.82   433.9    8.4      43.397
2013    3       12    13  16    5.82   434.1    8.3      43.407
2013    3       12    13  22    5.82   434.2    8.3      43.417
2013    3       12    13  29    5.82   434.4    8.3      43.427
2013    3       12    13  35    5.82   434.6    8.3      43.437
2013    3       12    13  41    5.82   434.7    8.3      43.448
2013    3       12    13  47    5.82   434.9    8.3      43.458
2013    3       12    13  54    5.81   435.1    8.3      43.468
2013    3       12    14   0    5.81   435.2    8.3      43.478
2013    3       12    14   6    5.81   435.4    8.3      43.489
2013    3       12    14  12    5.81   435.5    8.3      43.499
2013    3       12    14  19    5.81   435.7    8.2      43.509
2013    3       12    14  25    5.81   435.9    8.2      43.519
2013    3       12    14  31    5.80   436.0    8.2      43.529
2013    3       12    14  37    5.80   436.2    8.2      43.539
2013    3       12    14  44    5.80   436.3    8.2      43.549
2013    3       12    14  50    5.80   436.5    8.2      43.559
2013    3       12    14  56    5.80   436.6    8.2      43.568
2013    3       12    15   2    5.80   436.8    8.2      43.577
2013    3       12    15   9    5.79   437.0    8.2      43.586
2013    3       12    15  15    5.79   437.1    8.2      43.595
2013    3       12    15  21    5.79   437.3    8.2      43.604
2013    3       12    15  28    5.79   437.4    8.1      43.612
2013    3       12    15  34    5.79   437.6    8.1      43.621
2013    3       12    15  40    5.79   437.7    8.1      43.629
2013    3       12    15  46    5.78   437.9    8.1      43.637
2013    3       12    15  53    5.78   438.0    8.1      43.645
2013    3       12    15  59    5.78   438.2    8.1      43.653
2013    3       12    16   5    5.78   438.4    8.1      43.660
2013    3       12    16  11    5.77   438.5    8.1      43.668
2013    3       12    16  18    5.77   438.7    8.1      43.675
2013    3       12    16  24    5.77   438.8    8.1      43.682
2013    3       12    16  30    5.77   439.0    8.1      43.689
2013    3       12    16  36    5.77   439.1    8.0      43.696
2013    3       12    16  43    5.76   439.3    8.0      43.703
2013    3       12    16  49    5.76   439.4    8.0      43.710
2013    3       12    16  55    5.76   439.6    8.0      43.717
2013    3       12    17   1    5.76   439.7    8.0      43.723
2013    3       12    17   8    5.76   439.9    8.0      43.730
2013    3       12    17  14    5.75   440.0    8.0      43.736
2013    3       12    17  20    5.75   440.2    8.0      43.742
2013    3       12    17  27    5.75   440.3    8.0      43.749
2013    3       12    17  33    5.75   440.5    8.0      43.755
2013    3       12    17  39    5.74   440.6    8.0      43.761
2013    3       12    17  45    5.74   440.8    8.0      43.766
2013    3       12    17  52    5.74   440.9    7.9      43.772
2013    3       12    17  58    5.74   441.0    7.9      43.778
2013    3       12    18   4    5.73   441.2    7.9      43.784
2013    3       12    18  10    5.73   441.3    7.9      43.789
2013    3       12    18  17    5.73   441.5    7.9      43.794
2013    3       12    18  23    5.73   441.6    7.9      43.800
2013    3       12    18  29    5.72   441.8    7.9      43.805
2013    3       12    18  35    5.72   441.9    7.9      43.810
2013    3       12    18  42    5.72   442.1    7.9      43.815
2013    3       12    18  48    5.72   442.2    7.9      43.820
2013    3       12    18  54    5.71   442.3    7.9      43.825
2013    3       12    19   0    5.71   442.5    7.8      43.830
2013    3       12    19   7    5.71   442.6    7.8      43.835
2013    3       12    19  13    5.71   442.8    7.8      43.840
2013    3       12    19  19    5.70   442.9    7.8      43.845
2013    3       12    19  26    5.70   443.0    7.8      43.849
2013    3       12    19  32    5.70   443.2    7.8      43.854
2013    3       12    19  38    5.70   443.3    7.8      43.859
2013    3       12    19  44    5.69   443.4    7.8      43.864
2013    3       12    19  51    5.69   443.6    7.8      43.870
2013    3       12    19  57    5.69   443.7    7.8      43.875
2013    3       12    20   3    5.69   443.9    7.8      43.880
2013    3       12    20   9    5.68   444.0    7.8      43.886
2013    3       12    20  16    5.68   444.1    7.7      43.891
2013    3       12    20  22    5.68   444.3    7.7      43.896
2013    3       12    20  28    5.68   444.4    7.7      43.902
2013    3       12    20  35    5.67   444.6    7.7      43.907
2013    3       12    20  41    5.67   444.7    7.7      43.912
2013    3       12    20  47    5.67   444.8    7.7      43.917
2013    3       12    20  53    5.66   445.0    7.7      43.921
2013    3       12    21   0    5.66   445.1    7.7      43.926
2013    3       12    21   6    5.66   445.2    7.7      43.931
2013    3       12    21  12    5.66   445.4    7.7      43.935
2013    3       12    21  18    5.65   445.5    7.7      43.939
2013    3       12    21  25    5.65   445.7    7.7      43.942
2013    3       12    21  31    5.65   445.8    7.6      43.946
2013    3       12    21  37    5.65   445.9    7.6      43.949
2013    3       12    21  43    5.64   446.1    7.6      43.952
2013    3       12    21  50    5.64   446.2    7.6      43.954
2013    3       12    21  56    5.64   446.3    7.6      43.957
2013    3       12    22   2    5.63   446.5    7.6      43.959
2013    3       12    22   8    5.63   446.6    7.6      43.961
2013    3       12    22  15    5.63   446.7    7.6      43.963
2013    3       12    22  21    5.63   446.8    7.6      43.964
2013    3       12    22  27    5.62   447.0    7.6      43.966
2013    3       12    22  34    5.62   447.1    7.6      43.967
2013    3       12    22  40    5.62   447.2    7.5      43.968
2013    3       12    22  46    5.61   447.4    7.5      43.969
2013    3       12    22  52    5.61   447.5    7.5      43.970
2013    3       12    22  59    5.61   447.6    7.5      43.971
2013    3       12    23   5    5.61   447.7    7.5      43.971
2013    3       12    23  11    5.60   447.9    7.5      43.972
2013    3       12    23  17    5.60   448.0    7.5      43.973
2013    3       12    23  24    5.60   448.1    7.5      43.973
2013    3       12    23  30    5.60   448.2    7.5      43.974
2013    3       12    23  36    5.59   448.4    7.5      43.974
2013    3       12    23  42    5.59   448.5    7.5      43.975
2013    3       12    23  49    5.59   448.6    7.5      43.976
2013    3       12    23  55    5.58   448.7    7.5      43.977
2013    3       13     0   1    5.58   448.9    7.4      43.978
2013    3       13     0   7    5.58   449.0    7.4      43.979
2013    3       13     0  14    5.58   449.1    7.4      43.980
2013    3       13     0  20    5.57   449.2    7.4      43.981
2013    3       13     0  26    5.57   449.4    7.4      43.983
2013    3       13     0  33    5.57   449.5    7.4      43.984
2013    3       13     0  39    5.57   449.6    7.4      43.986
2013    3       13     0  45    5.56   449.7    7.4      43.988
2013    3       13     0  51    5.56   449.8    7.4      43.990
2013    3       13     0  58    5.56   450.0    7.4      43.993
2013    3       13     1   4    5.56   450.1    7.4      43.996
2013    3       13     1  10    5.55   450.2    7.4      43.998
2013    3       13     1  16    5.55   450.3    7.4      44.002
2013    3       13     1  23    5.55   450.5    7.4      44.005
2013    3       13     1  29    5.55   450.6    7.4      44.009
2013    3       13     1  35    5.54   450.7    7.3      44.013
2013    3       13     1  41    5.54   450.8    7.3      44.017
2013    3       13     1  48    5.54   450.9    7.3      44.021
2013    3       13     1  54    5.54   451.1    7.3      44.026
2013    3       13     2   0    5.54   451.2    7.3      44.031
2013    3       13     2   7    5.53   451.3    7.3      44.037
2013    3       13     2  13    5.53   451.4    7.3      44.043
2013    3       13     2  19    5.53   451.5    7.3      44.049
2013    3       13     2  25    5.53   451.6    7.3      44.055
2013    3       13     2  32    5.52   451.8    7.3      44.062
2013    3       13     2  38    5.52   451.9    7.3      44.070
2013    3       13     2  44    5.52   452.0    7.3      44.078
2013    3       13     2  50    5.52   452.1    7.3      44.086
2013    3       13     2  57    5.52   452.2    7.3      44.095
2013    3       13     3   3    5.51   452.3    7.3      44.105
2013    3       13     3   9    5.51   452.5    7.3      44.115
2013    3       13     3  16    5.51   452.6    7.3      44.125
2013    3       13     3  22    5.51   452.7    7.3      44.136
2013    3       13     3  28    5.50   452.8    7.3      44.147
2013    3       13     3  34    5.50   452.9    7.3      44.158
2013    3       13     3  41    5.50   453.1    7.2      44.169
2013    3       13     3  47    5.50   453.2    7.2      44.180
2013    3       13     3  53    5.50   453.3    7.2      44.190
2013    3       13     3  59    5.49   453.4    7.2      44.201
2013    3       13     4   6    5.49   453.5    7.2      44.211
2013    3       13     4  12    5.49   453.7    7.2      44.221
2013    3       13     4  18    5.49   453.8    7.2      44.231
2013    3       13     4  24    5.48   453.9    7.2      44.240
2013    3       13     4  31    5.48   454.0    7.2      44.249
2013    3       13     4  37    5.48   454.1    7.2      44.257
2013    3       13     4  43    5.48   454.3    7.2      44.265
2013    3       13     4  49    5.47   454.4    7.2      44.273
2013    3       13     4  56    5.47   454.5    7.2      44.280
2013    3       13     5   2    5.47   454.6    7.2      44.287
2013    3       13     5   8    5.47   454.7    7.2      44.293
2013    3       13     5  15    5.47   454.8    7.2      44.299
2013    3       13     5  21    5.46   455.0    7.2      44.305
2013    3       13     5  27    5.46   455.1    7.2      44.310
2013    3       13     5  33    5.46   455.2    7.1      44.315
2013    3       13     5  40    5.46   455.3    7.1      44.319
2013    3       13     5  46    5.45   455.4    7.1      44.323
2013    3       13     5  52    5.45   455.6    7.1      44.327
2013    3       13     5  58    5.45   455.7    7.1      44.331
2013    3       13     6   5    5.45   455.8    7.1      44.334
2013    3       13     6  11    5.45   455.9    7.1      44.337
2013    3       13     6  17    5.44   456.0    7.1      44.340
2013    3       13     6  23    5.44   456.1    7.1      44.342
2013    3       13     6  30    5.44   456.2    7.1      44.344
2013    3       13     6  36    5.44   456.4    7.1      44.346
2013    3       13     6  42    5.43   456.5    7.1      44.348
2013    3       13     6  48    5.43   456.6    7.1      44.350
2013    3       13     6  55    5.43   456.7    7.1      44.351
2013    3       13     7   1    5.43   456.8    7.1      44.353
2013    3       13     7   7    5.43   456.9    7.1      44.354
2013    3       13     7  14    5.42   457.0    7.0      44.355
2013    3       13     7  20    5.42   457.2    7.0      44.356
2013    3       13     7  26    5.42   457.3    7.0      44.357
2013    3       13     7  32    5.42   457.4    7.0      44.358
2013    3       13     7  39    5.41   457.5    7.0      44.360
2013    3       13     7  45    5.41   457.6    7.0      44.361
2013    3       13     7  51    5.41   457.7    7.0      44.362
2013    3       13     7  57    5.41   457.8    7.0      44.364
2013    3       13     8   4    5.41   458.0    7.0      44.366
2013    3       13     8  10    5.40   458.1    7.0      44.368
2013    3       13     8  16    5.40   458.2    7.0      44.370
2013    3       13     8  22    5.40   458.3    7.0      44.373
2013    3       13     8  29    5.40   458.4    7.0      44.376
2013    3       13     8  35    5.40   458.5    7.0      44.379
2013    3       13     8  41    5.39   458.7    7.0      44.383
2013    3       13     8  47    5.39   458.8    7.0      44.387
2013    3       13     8  54    5.39   458.9    7.0      44.391
2013    3       13     9   0    5.39   459.0    6.9      44.396
2013    3       13     9   6    5.39   459.1    6.9      44.401
2013    3       13     9  13    5.39   459.2    6.9      44.407
2013    3       13     9  19    5.38   459.4    6.9      44.413
2013    3       13     9  25    5.38   459.5    6.9      44.420
2013    3       13     9  31    5.38   459.6    6.9      44.427
2013    3       13     9  38    5.38   459.7    6.9      44.434
2013    3       13     9  44    5.38   459.8    6.9      44.442
2013    3       13     9  50    5.37   460.0    6.9      44.451
2013    3       13     9  56    5.37   460.1    6.9      44.460
2013    3       13    10   3    5.37   460.2    6.9      44.470
2013    3       13    10   9    5.37   460.3    6.9      44.481
2013    3       13    10  15    5.37   460.4    6.9      44.492
2013    3       13    10  22    5.36   460.6    6.9      44.503
2013    3       13    10  28    5.36   460.7    6.9      44.514
2013    3       13    10  34    5.36   460.8    6.9      44.526
2013    3       13    10  40    5.36   460.9    6.9      44.537
2013    3       13    10  47    5.36   461.0    6.9      44.549
2013    3       13    10  53    5.35   461.1    6.9      44.560
2013    3       13    10  59    5.35   461.3    6.9      44.571
2013    3       13    11   5    5.35   461.4    6.9      44.582
2013    3       13    11  12    5.35   461.5    6.9      44.593
2013    3       13    11  18    5.35   461.6    6.9      44.603
2013    3       13    11  24    5.34   461.7    6.8      44.612
2013    3       13    11  30    5.34   461.8    6.8      44.622
2013    3       13    11  37    5.34   462.0    6.8      44.630
2013    3       13    11  43    5.34   462.1    6.8      44.639
2013    3       13    11  49    5.33   462.2    6.8      44.647
2013    3       13    11  56    5.33   462.3    6.8      44.654
2013    3       13    12   2    5.33   462.4    6.8      44.661
2013    3       13    12   8    5.33   462.5    6.8      44.668
2013    3       13    12  14    5.33   462.6    6.8      44.674
2013    3       13    12  21    5.32   462.7    6.8      44.680
2013    3       13    12  27    5.32   462.9    6.8      44.685
2013    3       13    12  33    5.32   463.0    6.8      44.690
2013    3       13    12  39    5.32   463.1    6.8      44.695
2013    3       13    12  46    5.32   463.2    6.8      44.699
2013    3       13    12  52    5.31   463.3    6.8      44.703
2013    3       13    12  58    5.31   463.4    6.8      44.707
2013    3       13    13   4    5.31   463.5    6.8      44.710
2013    3       13    13  11    5.31   463.6    6.8      44.714
2013    3       13    13  17    5.30   463.7    6.8      44.716
2013    3       13    13  23    5.30   463.8    6.7      44.719
2013    3       13    13  29    5.30   464.0    6.7      44.722
2013    3       13    13  36    5.30   464.1    6.7      44.724
2013    3       13    13  42    5.30   464.2    6.7      44.726
2013    3       13    13  48    5.29   464.3    6.7      44.728
2013    3       13    13  55    5.29   464.4    6.7      44.730
2013    3       13    14   1    5.29   464.5    6.7      44.732
2013    3       13    14   7    5.29   464.6    6.7      44.734
2013    3       13    14  13    5.29   464.7    6.7      44.735
2013    3       13    14  20    5.28   464.8    6.7      44.737
2013    3       13    14  26    5.28   464.9    6.7      44.738
2013    3       13    14  32    5.28   465.0    6.7      44.740
2013    3       13    14  38    5.28   465.1    6.7      44.741
2013    3       13    14  45    5.28   465.3    6.7      44.743
2013    3       13    14  51    5.27   465.4    6.7      44.744
2013    3       13    14  57    5.27   465.5    6.7      44.746
2013    3       13    15   3    5.27   465.6    6.7      44.748
2013    3       13    15  10    5.27   465.7    6.7      44.750
2013    3       13    15  16    5.27   465.8    6.6      44.752
2013    3       13    15  22    5.26   465.9    6.6      44.754
2013    3       13    15  28    5.26   466.0    6.6      44.756
2013    3       13    15  35    5.26   466.1    6.6      44.759
2013    3       13    15  41    5.26   466.2    6.6      44.762
2013    3       13    15  47    5.26   466.3    6.6      44.765
2013    3       13    15  54    5.25   466.4    6.6      44.769
2013    3       13    16   0    5.25   466.5    6.6      44.773
2013    3       13    16   6    5.25   466.6    6.6      44.777
2013    3       13    16  12    5.25   466.8    6.6      44.781
2013    3       13    16  19    5.25   466.9    6.6      44.786
2013    3       13    16  25    5.24   467.0    6.6      44.791
2013    3       13    16  31    5.24   467.1    6.6      44.797
2013    3       13    16  37    5.24   467.2    6.6      44.802
2013    3       13    16  44    5.24   467.3    6.6      44.808
2013    3       13    16  50    5.24   467.4    6.6      44.814
2013    3       13    16  56    5.23   467.5    6.6      44.821
2013    3       13    17   2    5.23   467.6    6.6      44.827
2013    3       13    17   9    5.23   467.7    6.6      44.834
2013    3       13    17  15    5.23   467.9    6.6      44.842
2013    3       13    17  21    5.23   468.0    6.6      44.849
2013    3       13    17  28    5.22   468.1    6.6      44.857
2013    3       13    17  34    5.22   468.2    6.6      44.864
2013    3       13    17  40    5.22   468.3    6.5      44.872
2013    3       13    17  46    5.22   468.4    6.5      44.880
2013    3       13    17  53    5.22   468.5    6.5      44.887
2013    3       13    17  59    5.21   468.6    6.5      44.895
2013    3       13    18   5    5.21   468.7    6.5      44.903
2013    3       13    18  11    5.21   468.8    6.5      44.910
2013    3       13    18  18    5.21   468.9    6.5      44.917
2013    3       13    18  24    5.21   469.0    6.5      44.924
2013    3       13    18  30    5.20   469.1    6.5      44.931
2013    3       13    18  37    5.20   469.2    6.5      44.937
2013    3       13    18  43    5.20   469.3    6.5      44.943
2013    3       13    18  49    5.20   469.5    6.5      44.949
2013    3       13    18  55    5.20   469.6    6.5      44.954
2013    3       13    19   2    5.19   469.7    6.5      44.960
2013    3       13    19   8    5.19   469.8    6.5      44.965
2013    3       13    19  14    5.19   469.9    6.5      44.969
2013    3       13    19  20    5.19   470.0    6.5      44.974
2013    3       13    19  27    5.18   470.1    6.5      44.978
2013    3       13    19  33    5.18   470.2    6.5      44.982
2013    3       13    19  39    5.18   470.3    6.5      44.986
2013    3       13    19  45    5.18   470.4    6.5      44.990
2013    3       13    19  52    5.18   470.5    6.5      44.993
2013    3       13    19  58    5.17   470.6    6.4      44.996
2013    3       13    20   4    5.17   470.7    6.4      44.999
2013    3       13    20  10    5.17   470.8    6.4      45.002
2013    3       13    20  17    5.17   470.9    6.4      45.005
2013    3       13    20  23    5.17   471.0    6.4      45.007
2013    3       13    20  29    5.16   471.1    6.4      45.010
2013    3       13    20  35    5.16   471.2    6.4      45.012
2013    3       13    20  42    5.16   471.3    6.4      45.015
2013    3       13    20  48    5.16   471.4    6.4      45.017
2013    3       13    20  54    5.16   471.5    6.4      45.019
2013    3       13    21   1    5.15   471.6    6.4      45.021
2013    3       13    21   7    5.15   471.7    6.4      45.023
2013    3       13    21  13    5.15   471.8    6.4      45.025
2013    3       13    21  19    5.15   471.9    6.4      45.027
2013    3       13    21  26    5.15   472.0    6.4      45.030
2013    3       13    21  32    5.14   472.1    6.4      45.032
2013    3       13    21  38    5.14   472.2    6.4      45.034
2013    3       13    21  44    5.14   472.3    6.4      45.037
2013    3       13    21  51    5.14   472.4    6.4      45.039
2013    3       13    21  57    5.14   472.5    6.4      45.042
2013    3       13    22   3    5.13   472.6    6.4      45.045
2013    3       13    22   9    5.13   472.7    6.3      45.048
2013    3       13    22  16    5.13   472.8    6.3      45.051
2013    3       13    22  22    5.13   472.9    6.3      45.054
2013    3       13    22  28    5.12   473.0    6.3      45.057
2013    3       13    22  34    5.12   473.1    6.3      45.060
2013    3       13    22  41    5.12   473.2    6.3      45.063
2013    3       13    22  47    5.12   473.3    6.3      45.067
2013    3       13    22  53    5.12   473.4    6.3      45.070
2013    3       13    23   0    5.11   473.5    6.3      45.073
2013    3       13    23   6    5.11   473.6    6.3      45.076
2013    3       13    23  12    5.11   473.7    6.3      45.080
2013    3       13    23  18    5.11   473.8    6.3      45.083
2013    3       13    23  25    5.11   473.9    6.3      45.086
2013    3       13    23  31    5.10   474.0    6.3      45.089
2013    3       13    23  37    5.10   474.1    6.3      45.093
2013    3       13    23  43    5.10   474.2    6.3      45.096
2013    3       13    23  50    5.10   474.3    6.3      45.099
2013    3       13    23  56    5.09   474.4    6.3      45.102
2013    3       14     0   2    5.09   474.4    6.3      45.105
