year    month   day   hour  minute  B_enl V_enl   n_enl       T_enl
[year] [month] [day] [hour][minute] [nT]  [km/s]  [cm-3]      [kK]
2015    6       13     0   3    3.4800   412.9    5.158      29.871
2015    6       13     0   9    3.4823   412.7    5.165      29.864
2015    6       13     0  15    3.4845   412.5    5.172      29.858
2015    6       13     0  21    3.4868   412.4    5.180      29.852
2015    6       13     0  27    3.4891   412.2    5.187      29.847
2015    6       13     0  33    3.4915   412.0    5.195      29.841
2015    6       13     0  39    3.4939   411.9    5.203      29.836
2015    6       13     0  45    3.4963   411.7    5.210      29.831
2015    6       13     0  51    3.4988   411.5    5.218      29.826
2015    6       13     0  57    3.5013   411.4    5.226      29.821
2015    6       13     1   3    3.5038   411.2    5.234      29.816
2015    6       13     1   9    3.5064   411.0    5.242      29.812
2015    6       13     1  15    3.5091   410.9    5.250      29.807
2015    6       13     1  21    3.5117   410.7    5.258      29.803
2015    6       13     1  27    3.5145   410.5    5.267      29.799
2015    6       13     1  33    3.5172   410.4    5.275      29.796
2015    6       13     1  39    3.5200   410.2    5.283      29.792
2015    6       13     1  45    3.5228   410.1    5.292      29.789
2015    6       13     1  51    3.5257   409.9    5.300      29.786
2015    6       13     1  57    3.5286   409.7    5.309      29.783
2015    6       13     2   3    3.5316   409.6    5.317      29.780
2015    6       13     2   9    3.5345   409.4    5.326      29.778
2015    6       13     2  15    3.5376   409.2    5.335      29.776
2015    6       13     2  21    3.5406   409.1    5.344      29.773
2015    6       13     2  27    3.5437   408.9    5.352      29.771
2015    6       13     2  33    3.5469   408.7    5.361      29.769
2015    6       13     2  39    3.5500   408.6    5.370      29.768
2015    6       13     2  45    3.5532   408.4    5.379      29.766
2015    6       13     2  51    3.5565   408.3    5.388      29.765
2015    6       13     2  57    3.5597   408.1    5.397      29.763
2015    6       13     3   3    3.5630   407.9    5.407      29.762
2015    6       13     3   9    3.5664   407.8    5.416      29.761
2015    6       13     3  15    3.5697   407.6    5.425      29.760
2015    6       13     3  21    3.5731   407.4    5.434      29.759
2015    6       13     3  27    3.5766   407.3    5.444      29.758
2015    6       13     3  33    3.5800   407.1    5.453      29.757
2015    6       13     3  39    3.5835   407.0    5.463      29.756
2015    6       13     3  45    3.5870   406.8    5.472      29.756
2015    6       13     3  51    3.5905   406.6    5.482      29.755
2015    6       13     3  57    3.5941   406.5    5.491      29.755
2015    6       13     4   3    3.5978   406.3    5.501      29.754
2015    6       13     4   9    3.6014   406.2    5.511      29.754
2015    6       13     4  15    3.6051   406.0    5.521      29.753
2015    6       13     4  21    3.6088   405.9    5.531      29.753
2015    6       13     4  27    3.6125   405.7    5.541      29.753
2015    6       13     4  33    3.6163   405.5    5.551      29.753
2015    6       13     4  39    3.6201   405.4    5.561      29.752
2015    6       13     4  45    3.6239   405.2    5.571      29.752
2015    6       13     4  51    3.6279   405.1    5.582      29.752
2015    6       13     4  57    3.6318   404.9    5.592      29.752
2015    6       13     5   3    3.6357   404.8    5.603      29.752
2015    6       13     5   9    3.6397   404.6    5.614      29.752
2015    6       13     5  15    3.6438   404.4    5.624      29.752
2015    6       13     5  21    3.6479   404.3    5.635      29.752
2015    6       13     5  27    3.6520   404.1    5.646      29.752
2015    6       13     5  33    3.6562   404.0    5.658      29.752
2015    6       13     5  39    3.6604   403.8    5.669      29.753
2015    6       13     5  45    3.6647   403.6    5.680      29.753
2015    6       13     5  51    3.6690   403.5    5.692      29.753
2015    6       13     5  57    3.6734   403.3    5.704      29.754
2015    6       13     6   3    3.6778   403.2    5.716      29.754
2015    6       13     6   9    3.6823   403.0    5.728      29.755
2015    6       13     6  15    3.6869   402.8    5.740      29.756
2015    6       13     6  21    3.6914   402.7    5.753      29.757
2015    6       13     6  27    3.6961   402.5    5.765      29.758
2015    6       13     6  33    3.7008   402.4    5.778      29.760
2015    6       13     6  39    3.7056   402.2    5.791      29.761
2015    6       13     6  45    3.7104   402.0    5.804      29.763
2015    6       13     6  51    3.7153   401.9    5.818      29.765
2015    6       13     6  57    3.7203   401.7    5.832      29.768
2015    6       13     7   3    3.7253   401.5    5.846      29.771
2015    6       13     7   9    3.7304   401.4    5.860      29.775
2015    6       13     7  15    3.7356   401.2    5.874      29.779
2015    6       13     7  21    3.7408   401.0    5.889      29.784
2015    6       13     7  27    3.7462   400.8    5.904      29.789
2015    6       13     7  33    3.7516   400.7    5.920      29.796
2015    6       13     7  39    3.7571   400.5    5.935      29.803
2015    6       13     7  45    3.7627   400.4    5.951      29.811
2015    6       13     7  51    3.7684   400.2    5.967      29.821
2015    6       13     7  57    3.7742   400.0    5.984      29.831
2015    6       13     8   3    3.7800   399.9    6.001      29.842
2015    6       13     8   9    3.7860   399.7    6.018      29.854
2015    6       13     8  15    3.7920   399.6    6.036      29.868
2015    6       13     8  21    3.7980   399.4    6.053      29.883
2015    6       13     8  27    3.8042   399.3    6.071      29.899
2015    6       13     8  33    3.8104   399.1    6.089      29.918
2015    6       13     8  39    3.8167   399.0    6.107      29.937
2015    6       13     8  45    3.8230   398.8    6.125      29.959
2015    6       13     8  51    3.8293   398.7    6.143      29.981
2015    6       13     8  57    3.8357   398.6    6.161      30.005
2015    6       13     9   3    3.8422   398.4    6.179      30.030
2015    6       13     9   9    3.8486   398.3    6.198      30.056
2015    6       13     9  15    3.8552   398.2    6.216      30.082
2015    6       13     9  21    3.8617   398.0    6.234      30.110
2015    6       13     9  27    3.8683   397.9    6.252      30.137
2015    6       13     9  33    3.8748   397.8    6.269      30.166
2015    6       13     9  39    3.8815   397.7    6.287      30.195
2015    6       13     9  45    3.8881   397.5    6.305      30.224
2015    6       13     9  51    3.8948   397.4    6.322      30.253
2015    6       13     9  57    3.9015   397.3    6.340      30.282
2015    6       13    10   3    3.9083   397.2    6.357      30.311
2015    6       13    10   9    3.9150   397.1    6.374      30.340
2015    6       13    10  15    3.9219   396.9    6.392      30.368
2015    6       13    10  21    3.9287   396.8    6.409      30.396
2015    6       13    10  27    3.9356   396.7    6.426      30.424
2015    6       13    10  33    3.9425   396.6    6.444      30.451
2015    6       13    10  39    3.9495   396.5    6.461      30.478
2015    6       13    10  45    3.9566   396.3    6.478      30.505
2015    6       13    10  51    3.9636   396.2    6.496      30.531
2015    6       13    10  57    3.9708   396.1    6.513      30.557
2015    6       13    11   3    3.9780   396.0    6.531      30.582
2015    6       13    11   9    3.9852   395.9    6.548      30.608
2015    6       13    11  15    3.9926   395.8    6.566      30.633
2015    6       13    11  21    4.0000   395.7    6.584      30.658
2015    6       13    11  27    4.0075   395.5    6.602      30.683
2015    6       13    11  33    4.0150   395.4    6.620      30.708
2015    6       13    11  39    4.0227   395.3    6.638      30.733
2015    6       13    11  45    4.0305   395.2    6.657      30.758
2015    6       13    11  51    4.0384   395.1    6.675      30.783
2015    6       13    11  57    4.0464   395.0    6.694      30.809
2015    6       13    12   3    4.0545   394.9    6.714      30.834
2015    6       13    12   9    4.0628   394.8    6.734      30.860
2015    6       13    12  15    4.0712   394.7    6.754      30.886
2015    6       13    12  21    4.0797   394.6    6.774      30.913
2015    6       13    12  27    4.0884   394.5    6.795      30.940
2015    6       13    12  33    4.0973   394.4    6.817      30.968
2015    6       13    12  39    4.1063   394.3    6.838      30.996
2015    6       13    12  45    4.1155   394.2    6.861      31.025
2015    6       13    12  51    4.1248   394.1    6.884      31.055
2015    6       13    12  57    4.1343   394.1    6.908      31.085
2015    6       13    13   3    4.1441   394.0    6.932      31.116
2015    6       13    13   9    4.1540   393.9    6.957      31.148
2015    6       13    13  15    4.1642   393.8    6.983      31.181
2015    6       13    13  21    4.1745   393.7    7.010      31.214
2015    6       13    13  27    4.1850   393.7    7.037      31.248
2015    6       13    13  33    4.1956   393.6    7.065      31.285
2015    6       13    13  39    4.2064   393.5    7.094      31.324
2015    6       13    13  45    4.2173   393.5    7.124      31.366
2015    6       13    13  51    4.2284   393.4    7.154      31.411
2015    6       13    13  57    4.2395   393.4    7.185      31.458
2015    6       13    14   3    4.2508   393.4    7.216      31.509
2015    6       13    14   9    4.2620   393.3    7.247      31.561
2015    6       13    14  15    4.2734   393.3    7.278      31.617
2015    6       13    14  21    4.2848   393.3    7.310      31.674
2015    6       13    14  27    4.2962   393.3    7.341      31.734
2015    6       13    14  33    4.3076   393.3    7.372      31.795
2015    6       13    14  39    4.3190   393.2    7.404      31.857
2015    6       13    14  45    4.3303   393.2    7.434      31.922
2015    6       13    14  51    4.3416   393.2    7.465      31.988
2015    6       13    14  57    4.3529   393.3    7.495      32.056
2015    6       13    15   3    4.3642   393.3    7.524      32.125
2015    6       13    15   9    4.3754   393.3    7.553      32.193
2015    6       13    15  15    4.3866   393.3    7.582      32.260
2015    6       13    15  21    4.3978   393.3    7.610      32.327
2015    6       13    15  27    4.4090   393.3    7.638      32.393
2015    6       13    15  33    4.4201   393.3    7.665      32.459
2015    6       13    15  39    4.4313   393.3    7.692      32.524
2015    6       13    15  45    4.4423   393.3    7.719      32.589
2015    6       13    15  51    4.4534   393.3    7.745      32.654
2015    6       13    15  57    4.4644   393.3    7.771      32.719
2015    6       13    16   3    4.4755   393.3    7.797      32.783
2015    6       13    16   9    4.4865   393.4    7.822      32.847
2015    6       13    16  15    4.4975   393.4    7.846      32.912
2015    6       13    16  21    4.5085   393.4    7.871      32.976
2015    6       13    16  27    4.5195   393.4    7.895      33.040
2015    6       13    16  33    4.5304   393.4    7.918      33.104
2015    6       13    16  39    4.5414   393.4    7.942      33.168
2015    6       13    16  45    4.5523   393.5    7.965      33.231
2015    6       13    16  51    4.5632   393.5    7.987      33.294
2015    6       13    16  57    4.5742   393.5    8.009      33.357
2015    6       13    17   3    4.5851   393.5    8.031      33.419
2015    6       13    17   9    4.5960   393.5    8.053      33.482
2015    6       13    17  16    4.6070   393.5    8.074      33.544
2015    6       13    17  22    4.6179   393.6    8.096      33.605
2015    6       13    17  28    4.6289   393.6    8.116      33.666
2015    6       13    17  34    4.6399   393.6    8.137      33.727
2015    6       13    17  40    4.6509   393.6    8.158      33.787
2015    6       13    17  46    4.6619   393.6    8.178      33.846
2015    6       13    17  52    4.6730   393.7    8.199      33.904
2015    6       13    17  58    4.6841   393.7    8.219      33.963
2015    6       13    18   4    4.6953   393.7    8.239      34.020
2015    6       13    18  10    4.7065   393.7    8.259      34.077
2015    6       13    18  16    4.7177   393.7    8.279      34.134
2015    6       13    18  22    4.7290   393.7    8.300      34.191
2015    6       13    18  28    4.7404   393.8    8.320      34.247
2015    6       13    18  34    4.7518   393.8    8.340      34.303
2015    6       13    18  40    4.7633   393.8    8.360      34.359
2015    6       13    18  46    4.7749   393.8    8.381      34.415
2015    6       13    18  52    4.7866   393.9    8.401      34.471
2015    6       13    18  58    4.7984   393.9    8.422      34.527
2015    6       13    19   4    4.8103   393.9    8.443      34.583
2015    6       13    19  10    4.8224   393.9    8.465      34.641
2015    6       13    19  16    4.8346   394.0    8.486      34.698
2015    6       13    19  22    4.8469   394.0    8.509      34.756
2015    6       13    19  28    4.8593   394.1    8.531      34.815
2015    6       13    19  34    4.8719   394.1    8.554      34.875
2015    6       13    19  40    4.8847   394.1    8.578      34.937
2015    6       13    19  46    4.8977   394.2    8.602      34.999
2015    6       13    19  52    4.9108   394.2    8.627      35.062
2015    6       13    19  58    4.9241   394.3    8.652      35.127
2015    6       13    20   4    4.9376   394.4    8.679      35.194
2015    6       13    20  10    4.9513   394.4    8.706      35.261
2015    6       13    20  16    4.9652   394.5    8.734      35.331
2015    6       13    20  22    4.9794   394.6    8.763      35.403
2015    6       13    20  28    4.9938   394.6    8.793      35.476
2015    6       13    20  34    5.0083   394.7    8.824      35.551
2015    6       13    20  40    5.0231   394.8    8.857      35.628
2015    6       13    20  46    5.0381   394.9    8.890      35.706
2015    6       13    20  52    5.0532   395.0    8.925      35.789
2015    6       13    20  58    5.0685   395.1    8.961      35.875
2015    6       13    21   4    5.0839   395.2    8.998      35.964
2015    6       13    21  10    5.0994   395.3    9.036      36.058
2015    6       13    21  16    5.1151   395.4    9.075      36.156
2015    6       13    21  22    5.1309   395.6    9.115      36.257
2015    6       13    21  28    5.1467   395.7    9.156      36.362
2015    6       13    21  34    5.1626   395.8    9.197      36.470
2015    6       13    21  40    5.1785   396.0    9.239      36.582
2015    6       13    21  46    5.1944   396.2    9.282      36.700
2015    6       13    21  52    5.2103   396.4    9.325      36.823
2015    6       13    21  58    5.2261   396.5    9.368      36.952
2015    6       13    22   4    5.2418   396.7    9.410      37.086
2015    6       13    22  10    5.2575   396.9    9.452      37.224
2015    6       13    22  16    5.2730   397.2    9.493      37.366
2015    6       13    22  22    5.2885   397.4    9.534      37.511
2015    6       13    22  28    5.3038   397.6    9.574      37.658
2015    6       13    22  34    5.3191   397.8    9.613      37.806
2015    6       13    22  40    5.3342   398.0    9.651      37.955
2015    6       13    22  46    5.3491   398.3    9.688      38.105
2015    6       13    22  52    5.3639   398.5    9.724      38.255
2015    6       13    22  58    5.3785   398.8    9.758      38.406
2015    6       13    23   4    5.3930   399.0    9.791      38.558
2015    6       13    23  10    5.4073   399.2    9.823      38.708
2015    6       13    23  16    5.4216   399.5    9.853      38.856
2015    6       13    23  22    5.4357   399.7    9.882      39.001
2015    6       13    23  28    5.4497   399.9    9.910      39.144
2015    6       13    23  34    5.4636   400.2    9.937      39.285
2015    6       13    23  40    5.4774   400.4    9.962      39.424
2015    6       13    23  46    5.4911   400.7    9.987      39.561
2015    6       13    23  52    5.5047   400.9   10.010      39.696
2015    6       13    23  58    5.5182   401.1   10.031      39.829
2015    6       14     0   4    5.5317   401.4   10.052      39.960
2015    6       14     0  10    5.5450   401.6   10.072      40.090
2015    6       14     0  16    5.5584   401.9   10.091      40.218
2015    6       14     0  22    5.5717   402.1   10.108      40.344
2015    6       14     0  28    5.5849   402.3   10.125      40.468
2015    6       14     0  34    5.5980   402.6   10.141      40.591
2015    6       14     0  40    5.6111   402.8   10.156      40.712
2015    6       14     0  46    5.6241   403.1   10.170      40.832
2015    6       14     0  52    5.6371   403.3   10.183      40.950
2015    6       14     0  58    5.6499   403.5   10.195      41.066
2015    6       14     1   4    5.6627   403.8   10.206      41.180
2015    6       14     1  10    5.6754   404.0   10.217      41.293
2015    6       14     1  16    5.6881   404.3   10.227      41.404
2015    6       14     1  22    5.7007   404.5   10.236      41.513
2015    6       14     1  28    5.7132   404.7   10.244      41.620
2015    6       14     1  34    5.7256   405.0   10.252      41.726
2015    6       14     1  40    5.7379   405.2   10.259      41.830
2015    6       14     1  46    5.7502   405.4   10.265      41.932
2015    6       14     1  52    5.7624   405.7   10.271      42.033
2015    6       14     1  58    5.7746   405.9   10.276      42.133
2015    6       14     2   4    5.7867   406.1   10.281      42.231
2015    6       14     2  10    5.7988   406.4   10.286      42.327
2015    6       14     2  16    5.8109   406.6   10.291      42.423
2015    6       14     2  22    5.8229   406.8   10.295      42.517
2015    6       14     2  28    5.8349   407.0   10.299      42.611
2015    6       14     2  34    5.8469   407.3   10.303      42.704
2015    6       14     2  40    5.8589   407.5   10.306      42.796
2015    6       14     2  46    5.8710   407.7   10.310      42.888
2015    6       14     2  52    5.8830   407.9   10.314      42.980
2015    6       14     2  58    5.8950   408.1   10.318      43.071
2015    6       14     3   4    5.9071   408.3   10.321      43.163
2015    6       14     3  10    5.9192   408.6   10.325      43.254
2015    6       14     3  16    5.9313   408.8   10.329      43.346
2015    6       14     3  22    5.9434   409.0   10.333      43.438
2015    6       14     3  28    5.9556   409.2   10.338      43.530
2015    6       14     3  34    5.9678   409.4   10.343      43.623
2015    6       14     3  40    5.9800   409.7   10.348      43.716
2015    6       14     3  46    5.9923   409.9   10.353      43.809
2015    6       14     3  52    6.0046   410.1   10.359      43.904
2015    6       14     3  58    6.0170   410.3   10.365      43.998
2015    6       14     4   4    6.0294   410.6   10.372      44.094
2015    6       14     4  10    6.0418   410.8   10.379      44.191
2015    6       14     4  16    6.0543   411.0   10.387      44.289
2015    6       14     4  22    6.0669   411.2   10.396      44.388
2015    6       14     4  28    6.0795   411.5   10.406      44.488
2015    6       14     4  34    6.0922   411.7   10.416      44.590
2015    6       14     4  40    6.1049   411.9   10.427      44.693
2015    6       14     4  46    6.1178   412.1   10.439      44.797
2015    6       14     4  52    6.1306   412.4   10.452      44.902
2015    6       14     4  58    6.1436   412.6   10.466      45.010
2015    6       14     5   4    6.1565   412.9   10.481      45.122
2015    6       14     5  10    6.1695   413.1   10.496      45.237
2015    6       14     5  16    6.1824   413.4   10.512      45.356
2015    6       14     5  22    6.1954   413.7   10.529      45.479
2015    6       14     5  28    6.2084   413.9   10.546      45.605
2015    6       14     5  34    6.2214   414.2   10.563      45.733
2015    6       14     5  40    6.2343   414.5   10.581      45.865
2015    6       14     5  46    6.2472   414.8   10.599      45.998
2015    6       14     5  52    6.2600   415.0   10.618      46.135
2015    6       14     5  58    6.2728   415.3   10.637      46.272
2015    6       14     6   4    6.2854   415.6   10.656      46.413
2015    6       14     6  10    6.2981   415.9   10.674      46.556
2015    6       14     6  16    6.3106   416.2   10.693      46.702
2015    6       14     6  22    6.3231   416.5   10.712      46.850
2015    6       14     6  28    6.3355   416.8   10.731      47.000
2015    6       14     6  34    6.3480   417.1   10.751      47.150
2015    6       14     6  40    6.3604   417.4   10.771      47.303
2015    6       14     6  46    6.3729   417.7   10.791      47.458
2015    6       14     6  52    6.3854   418.0   10.812      47.612
2015    6       14     6  58    6.3980   418.3   10.834      47.767
2015    6       14     7   4    6.4106   418.6   10.857      47.929
2015    6       14     7  10    6.4235   419.0   10.880      48.097
2015    6       14     7  16    6.4363   419.3   10.904      48.271
2015    6       14     7  22    6.4493   419.7   10.927      48.450
2015    6       14     7  28    6.4623   420.0   10.951      48.635
2015    6       14     7  34    6.4753   420.4   10.974      48.823
2015    6       14     7  40    6.4883   420.8   10.997      49.016
2015    6       14     7  46    6.5012   421.2   11.019      49.212
2015    6       14     7  52    6.5141   421.6   11.041      49.410
2015    6       14     7  58    6.5268   422.0   11.061      49.609
2015    6       14     8   4    6.5393   422.4   11.080      49.809
2015    6       14     8  10    6.5516   422.9   11.098      50.008
2015    6       14     8  16    6.5637   423.3   11.114      50.209
2015    6       14     8  22    6.5755   423.8   11.128      50.410
2015    6       14     8  28    6.5870   424.2   11.140      50.609
2015    6       14     8  34    6.5982   424.7   11.150      50.802
2015    6       14     8  40    6.6091   425.2   11.159      50.992
2015    6       14     8  46    6.6198   425.6   11.166      51.179
2015    6       14     8  52    6.6302   426.1   11.171      51.363
2015    6       14     8  58    6.6404   426.5   11.175      51.546
2015    6       14     9   4    6.6504   427.0   11.178      51.726
2015    6       14     9  10    6.6601   427.5   11.179      51.904
2015    6       14     9  16    6.6696   428.0   11.178      52.081
2015    6       14     9  22    6.6790   428.4   11.176      52.255
2015    6       14     9  28    6.6882   428.9   11.173      52.428
2015    6       14     9  34    6.6972   429.4   11.169      52.599
2015    6       14     9  40    6.7061   429.8   11.164      52.769
2015    6       14     9  46    6.7148   430.3   11.158      52.938
2015    6       14     9  52    6.7234   430.7   11.151      53.106
2015    6       14     9  58    6.7318   431.2   11.143      53.274
2015    6       14    10   4    6.7402   431.7   11.133      53.441
2015    6       14    10  10    6.7484   432.1   11.123      53.606
2015    6       14    10  16    6.7565   432.6   11.112      53.770
2015    6       14    10  22    6.7645   433.0   11.101      53.933
2015    6       14    10  28    6.7725   433.4   11.088      54.096
2015    6       14    10  34    6.7803   433.9   11.075      54.260
2015    6       14    10  40    6.7881   434.3   11.061      54.423
2015    6       14    10  46    6.7959   434.8   11.047      54.588
2015    6       14    10  52    6.8037   435.2   11.032      54.752
2015    6       14    10  58    6.8113   435.7   11.017      54.918
2015    6       14    11   4    6.8190   436.1   11.001      55.084
2015    6       14    11  10    6.8266   436.6   10.985      55.250
2015    6       14    11  16    6.8342   437.0   10.969      55.418
2015    6       14    11  22    6.8417   437.5   10.952      55.586
2015    6       14    11  28    6.8492   437.9   10.936      55.755
2015    6       14    11  34    6.8567   438.4   10.919      55.925
2015    6       14    11  40    6.8641   438.8   10.901      56.096
2015    6       14    11  46    6.8715   439.3   10.884      56.267
2015    6       14    11  52    6.8788   439.7   10.867      56.438
2015    6       14    11  58    6.8861   440.2   10.849      56.609
2015    6       14    12   4    6.8934   440.6   10.832      56.779
2015    6       14    12  10    6.9006   441.1   10.814      56.950
2015    6       14    12  16    6.9078   441.6   10.796      57.119
2015    6       14    12  22    6.9149   442.0   10.779      57.288
2015    6       14    12  28    6.9220   442.5   10.761      57.456
2015    6       14    12  34    6.9291   443.0   10.744      57.622
2015    6       14    12  40    6.9360   443.5   10.726      57.786
2015    6       14    12  46    6.9430   443.9   10.709      57.948
2015    6       14    12  52    6.9499   444.4   10.691      58.107
2015    6       14    12  58    6.9568   444.9   10.674      58.263
2015    6       14    13   4    6.9636   445.4   10.657      58.416
2015    6       14    13  10    6.9703   445.9   10.641      58.566
2015    6       14    13  16    6.9770   446.4   10.625      58.711
2015    6       14    13  22    6.9836   446.9   10.609      58.854
2015    6       14    13  28    6.9901   447.4   10.593      58.992
2015    6       14    13  34    6.9966   447.9   10.578      59.128
2015    6       14    13  40    7.0029   448.4   10.564      59.261
2015    6       14    13  46    7.0091   449.0   10.550      59.392
2015    6       14    13  52    7.0152   449.5   10.537      59.523
2015    6       14    13  58    7.0211   450.0   10.524      59.653
2015    6       14    14   4    7.0269   450.5   10.512      59.782
2015    6       14    14  10    7.0327   451.0   10.502      59.907
2015    6       14    14  16    7.0384   451.4   10.493      60.032
2015    6       14    14  22    7.0442   451.9   10.486      60.160
2015    6       14    14  28    7.0499   452.4   10.480      60.294
2015    6       14    14  34    7.0558   452.9   10.474      60.433
2015    6       14    14  40    7.0615   453.4   10.470      60.577
2015    6       14    14  46    7.0674   453.9   10.466      60.724
2015    6       14    14  52    7.0731   454.4   10.463      60.876
2015    6       14    14  58    7.0790   454.9   10.461      61.032
2015    6       14    15   4    7.0847   455.4   10.459      61.191
2015    6       14    15  10    7.0905   455.9   10.457      61.352
2015    6       14    15  16    7.0961   456.4   10.456      61.515
2015    6       14    15  22    7.1018   457.0   10.454      61.681
2015    6       14    15  28    7.1074   457.5   10.452      61.852
2015    6       14    15  34    7.1129   458.1   10.448      62.028
2015    6       14    15  40    7.1182   458.7   10.444      62.209
2015    6       14    15  46    7.1233   459.3   10.439      62.388
2015    6       14    15  52    7.1281   459.9   10.433      62.566
2015    6       14    15  58    7.1328   460.5   10.426      62.743
2015    6       14    16   4    7.1373   461.1   10.419      62.921
2015    6       14    16  10    7.1416   461.7   10.410      63.099
2015    6       14    16  16    7.1457   462.3   10.401      63.276
2015    6       14    16  22    7.1497   462.9   10.390      63.454
2015    6       14    16  28    7.1534   463.5   10.378      63.631
2015    6       14    16  34    7.1570   464.2   10.366      63.807
2015    6       14    16  40    7.1603   464.8   10.352      63.983
2015    6       14    16  46    7.1635   465.5   10.338      64.157
2015    6       14    16  52    7.1665   466.1   10.323      64.330
2015    6       14    16  58    7.1693   466.7   10.307      64.501
2015    6       14    17   4    7.1719   467.4   10.290      64.673
2015    6       14    17  10    7.1744   468.1   10.272      64.845
2015    6       14    17  16    7.1766   468.7   10.253      65.016
2015    6       14    17  22    7.1787   469.4   10.233      65.188
2015    6       14    17  28    7.1805   470.0   10.213      65.359
2015    6       14    17  34    7.1822   470.7   10.191      65.530
2015    6       14    17  40    7.1836   471.3   10.168      65.702
2015    6       14    17  46    7.1849   472.0   10.144      65.876
2015    6       14    17  52    7.1860   472.6   10.118      66.050
2015    6       14    17  58    7.1868   473.3   10.092      66.225
2015    6       14    18   4    7.1874   474.0   10.065      66.402
2015    6       14    18  10    7.1878   474.6   10.036      66.579
2015    6       14    18  16    7.1878   475.3   10.007      66.757
2015    6       14    18  22    7.1876   476.0    9.976      66.934
2015    6       14    18  28    7.1871   476.6    9.943      67.112
2015    6       14    18  34    7.1863   477.3    9.910      67.287
2015    6       14    18  40    7.1850   478.0    9.875      67.460
2015    6       14    18  46    7.1835   478.6    9.839      67.630
2015    6       14    18  52    7.1815   479.3    9.802      67.798
2015    6       14    18  58    7.1792   479.9    9.763      67.963
2015    6       14    19   4    7.1764   480.6    9.723      68.123
2015    6       14    19  10    7.1732   481.3    9.682      68.276
2015    6       14    19  16    7.1696   481.9    9.640      68.420
2015    6       14    19  22    7.1657   482.6    9.597      68.556
2015    6       14    19  28    7.1613   483.2    9.554      68.684
2015    6       14    19  34    7.1566   483.9    9.510      68.805
2015    6       14    19  40    7.1515   484.5    9.465      68.919
2015    6       14    19  46    7.1462   485.2    9.420      69.027
2015    6       14    19  52    7.1406   485.8    9.375      69.129
2015    6       14    19  58    7.1348   486.5    9.330      69.226
2015    6       14    20   4    7.1286   487.1    9.285      69.318
2015    6       14    20  10    7.1224   487.8    9.239      69.405
2015    6       14    20  16    7.1159   488.5    9.194      69.486
2015    6       14    20  22    7.1094   489.1    9.150      69.562
2015    6       14    20  28    7.1026   489.8    9.105      69.634
2015    6       14    20  34    7.0957   490.5    9.060      69.705
2015    6       14    20  40    7.0886   491.2    9.015      69.774
2015    6       14    20  46    7.0814   492.0    8.970      69.840
2015    6       14    20  52    7.0739   492.7    8.926      69.905
2015    6       14    20  58    7.0663   493.4    8.881      69.969
2015    6       14    21   4    7.0583   494.2    8.835      70.031
2015    6       14    21  10    7.0502   494.9    8.790      70.092
2015    6       14    21  16    7.0417   495.7    8.744      70.150
2015    6       14    21  22    7.0331   496.4    8.699      70.208
2015    6       14    21  28    7.0240   497.2    8.654      70.263
2015    6       14    21  34    7.0149   497.9    8.608      70.318
2015    6       14    21  40    7.0054   498.6    8.563      70.371
2015    6       14    21  46    6.9958   499.4    8.518      70.422
2015    6       14    21  52    6.9859   500.1    8.474      70.472
2015    6       14    21  58    6.9760   500.8    8.430      70.522
2015    6       14    22   4    6.9658   501.5    8.387      70.570
2015    6       14    22  10    6.9557   502.2    8.344      70.618
2015    6       14    22  16    6.9452   502.9    8.301      70.665
2015    6       14    22  22    6.9348   503.6    8.260      70.711
2015    6       14    22  28    6.9243   504.3    8.219      70.757
2015    6       14    22  34    6.9139   505.0    8.180      70.802
2015    6       14    22  41    6.9033   505.6    8.140      70.850
2015    6       14    22  47    6.8929   506.3    8.102      70.900
2015    6       14    22  53    6.8822   507.0    8.064      70.952
2015    6       14    22  59    6.8717   507.7    8.026      71.006
2015    6       14    23   5    6.8611   508.3    7.989      71.060
2015    6       14    23  11    6.8505   509.0    7.953      71.115
2015    6       14    23  17    6.8397   509.7    7.917      71.170
2015    6       14    23  23    6.8291   510.3    7.881      71.226
2015    6       14    23  29    6.8182   511.0    7.846      71.282
2015    6       14    23  35    6.8074   511.7    7.811      71.338
2015    6       14    23  41    6.7964   512.3    7.776      71.393
2015    6       14    23  47    6.7854   513.0    7.742      71.447
2015    6       14    23  53    6.7743   513.7    7.708      71.498
2015    6       14    23  59    6.7632   514.3    7.673      71.547
2015    6       15     0   5    6.7518   515.0    7.639      71.594
2015    6       15     0  11    6.7405   515.6    7.605      71.637
2015    6       15     0  17    6.7289   516.3    7.572      71.677
2015    6       15     0  23    6.7174   517.0    7.538      71.716
2015    6       15     0  29    6.7056   517.6    7.504      71.753
2015    6       15     0  35    6.6938   518.3    7.470      71.790
2015    6       15     0  41    6.6818   518.9    7.436      71.826
2015    6       15     0  47    6.6698   519.6    7.402      71.861
2015    6       15     0  53    6.6575   520.3    7.368      71.896
2015    6       15     0  59    6.6452   520.9    7.333      71.931
2015    6       15     1   5    6.6327   521.6    7.299      71.966
2015    6       15     1  11    6.6201   522.2    7.264      72.001
2015    6       15     1  17    6.6072   522.9    7.229      72.036
2015    6       15     1  23    6.5943   523.6    7.193      72.070
2015    6       15     1  29    6.5811   524.2    7.157      72.103
2015    6       15     1  35    6.5678   524.9    7.120      72.134
2015    6       15     1  41    6.5541   525.5    7.083      72.163
2015    6       15     1  47    6.5404   526.2    7.045      72.189
2015    6       15     1  53    6.5263   526.9    7.007      72.209
2015    6       15     1  59    6.5121   527.5    6.968      72.225
2015    6       15     2   5    6.4974   528.2    6.928      72.234
2015    6       15     2  11    6.4827   528.9    6.888      72.238
2015    6       15     2  17    6.4675   529.5    6.847      72.235
2015    6       15     2  23    6.4522   530.2    6.805      72.223
2015    6       15     2  29    6.4365   530.8    6.763      72.198
2015    6       15     2  35    6.4207   531.5    6.720      72.159
2015    6       15     2  41    6.4045   532.1    6.678      72.108
2015    6       15     2  47    6.3882   532.8    6.635      72.046
2015    6       15     2  53    6.3715   533.4    6.592      71.973
2015    6       15     2  59    6.3548   534.0    6.549      71.891
2015    6       15     3   5    6.3377   534.6    6.507      71.799
2015    6       15     3  11    6.3207   535.2    6.465      71.701
2015    6       15     3  17    6.3034   535.9    6.423      71.596
2015    6       15     3  23    6.2861   536.5    6.381      71.486
2015    6       15     3  29    6.2687   537.1    6.340      71.368
2015    6       15     3  35    6.2513   537.7    6.300      71.246
2015    6       15     3  41    6.2338   538.3    6.260      71.120
2015    6       15     3  47    6.2163   538.8    6.220      70.993
2015    6       15     3  53    6.1987   539.4    6.181      70.868
2015    6       15     3  59    6.1812   540.0    6.143      70.745
2015    6       15     4   5    6.1636   540.6    6.104      70.621
2015    6       15     4  11    6.1460   541.2    6.066      70.498
2015    6       15     4  17    6.1284   541.8    6.029      70.375
2015    6       15     4  23    6.1108   542.4    5.992      70.252
2015    6       15     4  29    6.0931   543.0    5.955      70.129
2015    6       15     4  35    6.0755   543.6    5.918      70.008
2015    6       15     4  41    6.0577   544.1    5.882      69.887
2015    6       15     4  47    6.0399   544.7    5.846      69.767
2015    6       15     4  53    6.0221   545.3    5.811      69.647
2015    6       15     4  59    6.0043   545.8    5.776      69.528
2015    6       15     5   5    5.9864   546.4    5.741      69.409
2015    6       15     5  11    5.9687   546.9    5.707      69.290
2015    6       15     5  17    5.9508   547.4    5.673      69.172
2015    6       15     5  23    5.9330   547.9    5.640      69.054
2015    6       15     5  29    5.9152   548.4    5.608      68.937
2015    6       15     5  35    5.8975   548.9    5.576      68.821
2015    6       15     5  41    5.8797   549.4    5.544      68.705
2015    6       15     5  47    5.8620   549.8    5.514      68.590
2015    6       15     5  53    5.8443   550.3    5.484      68.475
2015    6       15     5  59    5.8267   550.8    5.454      68.360
2015    6       15     6   5    5.8092   551.2    5.425      68.245
2015    6       15     6  11    5.7917   551.6    5.397      68.130
2015    6       15     6  17    5.7742   552.0    5.369      68.015
2015    6       15     6  23    5.7569   552.5    5.341      67.900
2015    6       15     6  29    5.7395   552.9    5.314      67.784
2015    6       15     6  35    5.7223   553.3    5.288      67.667
2015    6       15     6  41    5.7050   553.7    5.261      67.550
2015    6       15     6  47    5.6879   554.0    5.236      67.431
2015    6       15     6  53    5.6708   554.4    5.210      67.311
2015    6       15     6  59    5.6537   554.8    5.185      67.191
2015    6       15     7   5    5.6367   555.2    5.160      67.068
2015    6       15     7  11    5.6197   555.5    5.135      66.943
2015    6       15     7  17    5.6027   555.9    5.110      66.817
2015    6       15     7  23    5.5857   556.2    5.086      66.689
2015    6       15     7  29    5.5688   556.5    5.062      66.560
2015    6       15     7  35    5.5519   556.9    5.038      66.430
2015    6       15     7  41    5.5351   557.2    5.015      66.297
2015    6       15     7  47    5.5182   557.5    4.991      66.164
2015    6       15     7  53    5.5015   557.8    4.969      66.030
2015    6       15     7  59    5.4847   558.1    4.946      65.895
2015    6       15     8   5    5.4680   558.3    4.924      65.760
2015    6       15     8  11    5.4515   558.6    4.902      65.624
2015    6       15     8  17    5.4349   558.8    4.880      65.487
2015    6       15     8  23    5.4185   559.1    4.859      65.351
2015    6       15     8  29    5.4021   559.3    4.838      65.214
2015    6       15     8  35    5.3858   559.5    4.818      65.078
2015    6       15     8  41    5.3696   559.7    4.798      64.942
2015    6       15     8  47    5.3535   559.9    4.778      64.805
2015    6       15     8  53    5.3376   560.1    4.759      64.669
2015    6       15     8  59    5.3216   560.3    4.741      64.534
2015    6       15     9   5    5.3059   560.4    4.722      64.398
2015    6       15     9  11    5.2902   560.6    4.704      64.262
2015    6       15     9  17    5.2746   560.8    4.687      64.126
2015    6       15     9  23    5.2591   560.9    4.670      63.990
2015    6       15     9  29    5.2438   561.1    4.653      63.853
2015    6       15     9  35    5.2284   561.2    4.637      63.716
2015    6       15     9  41    5.2133   561.4    4.621      63.578
2015    6       15     9  47    5.1982   561.5    4.605      63.440
2015    6       15     9  53    5.1832   561.6    4.590      63.300
2015    6       15     9  59    5.1682   561.7    4.575      63.160
2015    6       15    10   5    5.1534   561.8    4.560      63.019
2015    6       15    10  11    5.1385   562.0    4.546      62.877
2015    6       15    10  17    5.1239   562.1    4.532      62.735
2015    6       15    10  23    5.1092   562.2    4.518      62.592
2015    6       15    10  29    5.0948   562.2    4.504      62.450
2015    6       15    10  35    5.0803   562.3    4.490      62.307
2015    6       15    10  41    5.0660   562.4    4.477      62.164
2015    6       15    10  47    5.0517   562.5    4.463      62.021
2015    6       15    10  53    5.0377   562.6    4.450      61.880
2015    6       15    10  59    5.0236   562.6    4.437      61.739
2015    6       15    11   5    5.0098   562.7    4.424      61.599
2015    6       15    11  11    4.9961   562.8    4.411      61.460
2015    6       15    11  17    4.9825   562.9    4.399      61.323
2015    6       15    11  23    4.9689   562.9    4.386      61.187
2015    6       15    11  29    4.9556   563.0    4.374      61.053
2015    6       15    11  35    4.9422   563.1    4.361      60.919
2015    6       15    11  41    4.9291   563.1    4.349      60.788
2015    6       15    11  47    4.9160   563.2    4.337      60.658
2015    6       15    11  53    4.9030   563.2    4.325      60.530
2015    6       15    11  59    4.8901   563.3    4.313      60.404
2015    6       15    12   5    4.8774   563.4    4.301      60.280
2015    6       15    12  11    4.8647   563.4    4.289      60.156
2015    6       15    12  17    4.8522   563.4    4.277      60.034
2015    6       15    12  23    4.8398   563.5    4.266      59.913
2015    6       15    12  29    4.8275   563.5    4.255      59.793
2015    6       15    12  35    4.8153   563.6    4.244      59.675
2015    6       15    12  41    4.8034   563.6    4.233      59.558
2015    6       15    12  47    4.7914   563.6    4.222      59.442
2015    6       15    12  53    4.7797   563.6    4.212      59.328
2015    6       15    12  59    4.7680   563.7    4.202      59.216
2015    6       15    13   5    4.7566   563.7    4.192      59.105
2015    6       15    13  11    4.7451   563.7    4.182      58.995
2015    6       15    13  17    4.7339   563.7    4.172      58.888
2015    6       15    13  23    4.7228   563.7    4.163      58.781
2015    6       15    13  29    4.7118   563.8    4.153      58.675
2015    6       15    13  35    4.7008   563.8    4.144      58.570
2015    6       15    13  41    4.6900   563.8    4.135      58.466
2015    6       15    13  47    4.6792   563.8    4.126      58.362
2015    6       15    13  53    4.6686   563.8    4.116      58.259
2015    6       15    13  59    4.6579   563.9    4.107      58.156
2015    6       15    14   5    4.6474   563.9    4.098      58.053
2015    6       15    14  11    4.6369   563.9    4.089      57.951
2015    6       15    14  17    4.6265   563.9    4.080      57.850
2015    6       15    14  23    4.6162   563.9    4.071      57.749
2015    6       15    14  29    4.6059   563.9    4.062      57.649
2015    6       15    14  35    4.5957   563.9    4.053      57.550
2015    6       15    14  41    4.5855   564.0    4.044      57.451
2015    6       15    14  47    4.5754   564.0    4.035      57.353
2015    6       15    14  53    4.5655   564.0    4.027      57.256
2015    6       15    14  59    4.5555   564.0    4.018      57.160
2015    6       15    15   5    4.5457   563.9    4.009      57.065
2015    6       15    15  11    4.5359   563.9    4.001      56.971
2015    6       15    15  17    4.5262   563.9    3.992      56.878
2015    6       15    15  23    4.5166   563.9    3.984      56.786
2015    6       15    15  29    4.5071   563.9    3.976      56.695
2015    6       15    15  35    4.4976   563.8    3.968      56.605
2015    6       15    15  41    4.4883   563.8    3.960      56.516
2015    6       15    15  47    4.4790   563.8    3.952      56.429
2015    6       15    15  53    4.4698   563.7    3.945      56.342
2015    6       15    15  59    4.4606   563.7    3.938      56.256
2015    6       15    16   5    4.4516   563.6    3.930      56.170
2015    6       15    16  11    4.4426   563.6    3.923      56.085
2015    6       15    16  17    4.4337   563.6    3.916      56.001
2015    6       15    16  23    4.4248   563.5    3.909      55.916
2015    6       15    16  29    4.4159   563.5    3.903      55.832
2015    6       15    16  35    4.4072   563.5    3.896      55.748
2015    6       15    16  41    4.3984   563.4    3.890      55.664
2015    6       15    16  47    4.3897   563.4    3.883      55.579
2015    6       15    16  53    4.3811   563.3    3.877      55.494
2015    6       15    16  59    4.3724   563.3    3.871      55.407
2015    6       15    17   5    4.3638   563.3    3.864      55.320
2015    6       15    17  11    4.3551   563.2    3.858      55.231
2015    6       15    17  17    4.3465   563.2    3.852      55.142
2015    6       15    17  23    4.3379   563.2    3.846      55.053
2015    6       15    17  29    4.3293   563.1    3.840      54.963
2015    6       15    17  35    4.3207   563.1    3.834      54.872
2015    6       15    17  41    4.3122   563.0    3.828      54.782
2015    6       15    17  47    4.3037   563.0    3.822      54.691
2015    6       15    17  53    4.2952   562.9    3.816      54.600
2015    6       15    17  59    4.2867   562.8    3.809      54.509
2015    6       15    18   5    4.2783   562.8    3.803      54.418
2015    6       15    18  11    4.2700   562.7    3.797      54.327
2015    6       15    18  17    4.2617   562.6    3.791      54.237
2015    6       15    18  23    4.2535   562.6    3.785      54.147
2015    6       15    18  29    4.2453   562.5    3.779      54.057
2015    6       15    18  35    4.2372   562.4    3.773      53.967
2015    6       15    18  41    4.2292   562.3    3.767      53.877
2015    6       15    18  47    4.2212   562.2    3.761      53.787
2015    6       15    18  53    4.2134   562.2    3.755      53.697
2015    6       15    18  59    4.2055   562.1    3.749      53.607
2015    6       15    19   5    4.1978   562.0    3.743      53.516
2015    6       15    19  11    4.1901   561.9    3.737      53.425
2015    6       15    19  17    4.1825   561.8    3.731      53.333
2015    6       15    19  23    4.1749   561.7    3.726      53.241
2015    6       15    19  29    4.1674   561.6    3.720      53.148
2015    6       15    19  35    4.1599   561.4    3.715      53.055
2015    6       15    19  41    4.1525   561.3    3.709      52.962
2015    6       15    19  47    4.1452   561.2    3.704      52.868
2015    6       15    19  53    4.1379   561.1    3.699      52.774
2015    6       15    19  59    4.1307   561.0    3.694      52.680
2015    6       15    20   5    4.1235   560.8    3.689      52.587
2015    6       15    20  11    4.1164   560.7    3.684      52.493
2015    6       15    20  17    4.1094   560.6    3.679      52.401
2015    6       15    20  23    4.1024   560.5    3.674      52.308
2015    6       15    20  29    4.0954   560.3    3.670      52.217
2015    6       15    20  35    4.0886   560.2    3.665      52.127
2015    6       15    20  41    4.0818   560.1    3.661      52.037
2015    6       15    20  48    4.0750   559.9    3.656      51.949
2015    6       15    20  54    4.0683   559.8    3.652      51.862
2015    6       15    21   0    4.0617   559.7    3.648      51.776
2015    6       15    21   6    4.0551   559.5    3.644      51.691
2015    6       15    21  12    4.0486   559.4    3.640      51.608
2015    6       15    21  18    4.0421   559.3    3.637      51.526
2015    6       15    21  24    4.0357   559.1    3.633      51.446
2015    6       15    21  30    4.0294   559.0    3.629      51.366
2015    6       15    21  36    4.0230   558.9    3.626      51.288
2015    6       15    21  42    4.0168   558.7    3.622      51.212
2015    6       15    21  48    4.0106   558.6    3.619      51.136
2015    6       15    21  54    4.0044   558.4    3.616      51.061
2015    6       15    22   0    3.9983   558.3    3.612      50.987
2015    6       15    22   6    3.9922   558.2    3.609      50.914
2015    6       15    22  12    3.9861   558.0    3.606      50.842
2015    6       15    22  18    3.9801   557.9    3.603      50.771
2015    6       15    22  24    3.9741   557.7    3.600      50.700
2015    6       15    22  30    3.9681   557.6    3.597      50.630
2015    6       15    22  36    3.9622   557.4    3.594      50.561
2015    6       15    22  42    3.9562   557.3    3.591      50.492
2015    6       15    22  48    3.9503   557.1    3.588      50.423
2015    6       15    22  54    3.9445   557.0    3.585      50.355
2015    6       15    23   0    3.9386   556.8    3.582      50.287
2015    6       15    23   6    3.9328   556.7    3.579      50.219
2015    6       15    23  12    3.9270   556.5    3.577      50.152
2015    6       15    23  18    3.9213   556.3    3.574      50.086
2015    6       15    23  24    3.9155   556.2    3.571      50.019
2015    6       15    23  30    3.9098   556.0    3.568      49.953
2015    6       15    23  36    3.9041   555.9    3.566      49.887
2015    6       15    23  42    3.8984   555.7    3.563      49.821
2015    6       15    23  48    3.8927   555.5    3.561      49.756
2015    6       15    23  54    3.8871   555.4    3.558      49.691
2015    6       16     0   0    3.8815   555.2    3.556      49.626
2015    6       16     0   6    3.8759   555.0    3.553      49.562
2015    6       16     0  12    3.8703   554.9    3.551      49.497
2015    6       16     0  18    3.8648   554.7    3.549      49.433
2015    6       16     0  24    3.8592   554.5    3.546      49.369
2015    6       16     0  30    3.8537   554.4    3.544      49.305
2015    6       16     0  36    3.8482   554.2    3.541      49.241
2015    6       16     0  42    3.8428   554.0    3.539      49.177
2015    6       16     0  48    3.8373   553.9    3.537      49.113
2015    6       16     0  54    3.8319   553.7    3.534      49.048
2015    6       16     1   0    3.8265   553.5    3.532      48.983
2015    6       16     1   6    3.8212   553.3    3.529      48.918
2015    6       16     1  12    3.8159   553.2    3.527      48.852
2015    6       16     1  18    3.8106   553.0    3.524      48.787
2015    6       16     1  24    3.8053   552.8    3.522      48.720
2015    6       16     1  30    3.8001   552.6    3.519      48.653
2015    6       16     1  36    3.7949   552.4    3.517      48.586
2015    6       16     1  42    3.7897   552.2    3.514      48.518
2015    6       16     1  48    3.7846   552.1    3.512      48.450
2015    6       16     1  54    3.7795   551.9    3.509      48.382
2015    6       16     2   0    3.7744   551.7    3.506      48.313
2015    6       16     2   6    3.7694   551.5    3.504      48.243
2015    6       16     2  12    3.7644   551.3    3.501      48.174
2015    6       16     2  18    3.7594   551.1    3.498      48.104
2015    6       16     2  24    3.7545   550.9    3.496      48.033
2015    6       16     2  30    3.7496   550.7    3.493      47.963
2015    6       16     2  36    3.7447   550.6    3.490      47.892
2015    6       16     2  42    3.7398   550.4    3.488      47.820
2015    6       16     2  48    3.7350   550.2    3.485      47.749
2015    6       16     2  54    3.7302   550.0    3.482      47.677
2015    6       16     3   0    3.7254   549.8    3.480      47.605
2015    6       16     3   6    3.7207   549.6    3.477      47.532
2015    6       16     3  12    3.7159   549.4    3.474      47.460
2015    6       16     3  18    3.7112   549.2    3.472      47.388
2015    6       16     3  24    3.7065   549.0    3.469      47.315
2015    6       16     3  30    3.7019   548.8    3.467      47.243
2015    6       16     3  36    3.6972   548.6    3.464      47.170
2015    6       16     3  42    3.6926   548.4    3.462      47.098
2015    6       16     3  48    3.6881   548.2    3.459      47.026
2015    6       16     3  54    3.6835   548.0    3.457      46.955
2015    6       16     4   0    3.6790   547.8    3.455      46.884
2015    6       16     4   6    3.6746   547.5    3.453      46.813
2015    6       16     4  12    3.6702   547.3    3.451      46.743
2015    6       16     4  18    3.6658   547.1    3.449      46.674
2015    6       16     4  24    3.6615   546.9    3.447      46.605
2015    6       16     4  30    3.6572   546.7    3.445      46.537
2015    6       16     4  36    3.6529   546.5    3.443      46.470
2015    6       16     4  42    3.6487   546.3    3.442      46.403
2015    6       16     4  48    3.6445   546.1    3.440      46.337
2015    6       16     4  54    3.6404   545.9    3.439      46.272
2015    6       16     5   0    3.6362   545.7    3.438      46.207
2015    6       16     5   6    3.6322   545.4    3.436      46.143
2015    6       16     5  12    3.6281   545.2    3.435      46.079
2015    6       16     5  18    3.6240   545.0    3.434      46.017
2015    6       16     5  24    3.6199   544.8    3.433      45.954
2015    6       16     5  30    3.6159   544.6    3.432      45.892
2015    6       16     5  36    3.6119   544.4    3.431      45.831
2015    6       16     5  42    3.6079   544.2    3.429      45.770
2015    6       16     5  48    3.6038   543.9    3.428      45.709
2015    6       16     5  54    3.5998   543.7    3.427      45.649
2015    6       16     6   0    3.5958   543.5    3.426      45.589
2015    6       16     6   6    3.5918   543.3    3.425      45.529
2015    6       16     6  12    3.5878   543.1    3.425      45.469
2015    6       16     6  18    3.5838   542.8    3.424      45.410
2015    6       16     6  24    3.5798   542.6    3.423      45.350
2015    6       16     6  30    3.5759   542.4    3.422      45.291
2015    6       16     6  36    3.5719   542.2    3.421      45.231
2015    6       16     6  42    3.5679   541.9    3.420      45.171
2015    6       16     6  48    3.5640   541.7    3.419      45.111
2015    6       16     6  54    3.5600   541.5    3.418      45.052
2015    6       16     7   0    3.5560   541.2    3.417      44.992
2015    6       16     7   6    3.5521   541.0    3.416      44.932
2015    6       16     7  12    3.5482   540.8    3.416      44.873
2015    6       16     7  18    3.5443   540.5    3.415      44.813
2015    6       16     7  24    3.5405   540.3    3.414      44.754
2015    6       16     7  30    3.5366   540.0    3.414      44.696
2015    6       16     7  36    3.5328   539.8    3.413      44.637
2015    6       16     7  42    3.5290   539.6    3.413      44.579
2015    6       16     7  48    3.5253   539.3    3.412      44.522
2015    6       16     7  54    3.5215   539.1    3.412      44.465
2015    6       16     8   0    3.5179   538.8    3.412      44.409
2015    6       16     8   6    3.5142   538.6    3.412      44.353
2015    6       16     8  12    3.5106   538.3    3.412      44.298
2015    6       16     8  18    3.5071   538.1    3.412      44.243
2015    6       16     8  24    3.5036   537.9    3.412      44.190
2015    6       16     8  30    3.5001   537.6    3.412      44.138
2015    6       16     8  36    3.4967   537.4    3.413      44.086
2015    6       16     8  42    3.4933   537.1    3.413      44.035
2015    6       16     8  48    3.4899   536.9    3.413      43.985
2015    6       16     8  54    3.4866   536.6    3.414      43.935
2015    6       16     9   0    3.4832   536.4    3.414      43.886
2015    6       16     9   6    3.4800   536.1    3.415      43.837
2015    6       16     9  12    3.4767   535.9    3.415      43.788
2015    6       16     9  18    3.4734   535.6    3.415      43.739
2015    6       16     9  24    3.4701   535.4    3.416      43.691
2015    6       16     9  30    3.4669   535.1    3.416      43.642
2015    6       16     9  36    3.4637   534.9    3.416      43.593
2015    6       16     9  42    3.4604   534.6    3.416      43.542
2015    6       16     9  48    3.4572   534.4    3.416      43.492
2015    6       16     9  54    3.4539   534.2    3.416      43.441
2015    6       16    10   0    3.4507   533.9    3.416      43.389
2015    6       16    10   6    3.4475   533.7    3.415      43.337
2015    6       16    10  12    3.4442   533.4    3.415      43.284
2015    6       16    10  18    3.4410   533.2    3.415      43.231
2015    6       16    10  24    3.4377   532.9    3.414      43.177
2015    6       16    10  30    3.4345   532.7    3.414      43.122
2015    6       16    10  36    3.4313   532.5    3.413      43.067
2015    6       16    10  42    3.4280   532.2    3.412      43.011
2015    6       16    10  48    3.4248   532.0    3.411      42.954
2015    6       16    10  54    3.4216   531.7    3.410      42.897
2015    6       16    11   0    3.4183   531.5    3.409      42.839
2015    6       16    11   6    3.4151   531.3    3.408      42.780
2015    6       16    11  12    3.4119   531.0    3.407      42.721
2015    6       16    11  18    3.4087   530.8    3.406      42.662
2015    6       16    11  24    3.4055   530.5    3.405      42.602
2015    6       16    11  30    3.4023   530.3    3.404      42.541
2015    6       16    11  36    3.3991   530.0    3.402      42.480
2015    6       16    11  42    3.3959   529.8    3.401      42.419
2015    6       16    11  48    3.3928   529.5    3.400      42.357
2015    6       16    11  54    3.3896   529.3    3.399      42.295
2015    6       16    12   0    3.3864   529.0    3.397      42.233
2015    6       16    12   6    3.3833   528.8    3.396      42.170
2015    6       16    12  12    3.3802   528.5    3.394      42.107
2015    6       16    12  18    3.3771   528.3    3.393      42.044
2015    6       16    12  24    3.3739   528.0    3.392      41.981
2015    6       16    12  30    3.3708   527.8    3.390      41.917
2015    6       16    12  36    3.3677   527.5    3.389      41.853
2015    6       16    12  42    3.3646   527.3    3.387      41.789
2015    6       16    12  48    3.3615   527.0    3.386      41.725
2015    6       16    12  54    3.3585   526.8    3.385      41.661
2015    6       16    13   0    3.3554   526.5    3.383      41.597
2015    6       16    13   6    3.3523   526.3    3.382      41.533
2015    6       16    13  12    3.3493   526.0    3.380      41.468
2015    6       16    13  18    3.3462   525.8    3.379      41.403
2015    6       16    13  24    3.3431   525.5    3.378      41.339
2015    6       16    13  30    3.3401   525.3    3.376      41.274
2015    6       16    13  36    3.3371   525.0    3.375      41.209
2015    6       16    13  42    3.3340   524.7    3.373      41.144
2015    6       16    13  48    3.3310   524.5    3.372      41.079
2015    6       16    13  54    3.3280   524.2    3.371      41.014
2015    6       16    14   0    3.3249   523.9    3.370      40.950
2015    6       16    14   6    3.3219   523.7    3.368      40.885
2015    6       16    14  12    3.3189   523.4    3.367      40.821
2015    6       16    14  18    3.3160   523.1    3.366      40.757
2015    6       16    14  24    3.3130   522.9    3.365      40.693
2015    6       16    14  30    3.3100   522.6    3.364      40.629
2015    6       16    14  36    3.3071   522.3    3.363      40.566
2015    6       16    14  42    3.3042   522.1    3.362      40.504
2015    6       16    14  48    3.3013   521.8    3.361      40.442
2015    6       16    14  54    3.2984   521.5    3.360      40.380
2015    6       16    15   0    3.2956   521.3    3.360      40.320
2015    6       16    15   6    3.2928   521.0    3.359      40.260
2015    6       16    15  12    3.2900   520.7    3.359      40.202
2015    6       16    15  18    3.2873   520.4    3.359      40.144
2015    6       16    15  24    3.2845   520.2    3.358      40.087
2015    6       16    15  30    3.2819   519.9    3.358      40.032
2015    6       16    15  36    3.2792   519.6    3.359      39.978
2015    6       16    15  42    3.2766   519.3    3.359      39.925
2015    6       16    15  48    3.2740   519.1    3.359      39.873
2015    6       16    15  54    3.2714   518.8    3.360      39.822
2015    6       16    16   0    3.2689   518.5    3.360      39.772
2015    6       16    16   6    3.2663   518.2    3.360      39.723
2015    6       16    16  12    3.2638   518.0    3.361      39.674
2015    6       16    16  18    3.2612   517.7    3.362      39.626
2015    6       16    16  24    3.2587   517.4    3.362      39.578
2015    6       16    16  30    3.2562   517.1    3.363      39.530
2015    6       16    16  36    3.2537   516.9    3.363      39.483
2015    6       16    16  42    3.2512   516.6    3.364      39.435
2015    6       16    16  48    3.2487   516.3    3.364      39.388
2015    6       16    16  54    3.2462   516.0    3.365      39.341
2015    6       16    17   0    3.2437   515.7    3.366      39.293
2015    6       16    17   6    3.2412   515.5    3.366      39.246
2015    6       16    17  12    3.2388   515.2    3.367      39.198
2015    6       16    17  18    3.2363   514.9    3.368      39.151
2015    6       16    17  24    3.2339   514.6    3.369      39.104
2015    6       16    17  30    3.2315   514.3    3.370      39.057
2015    6       16    17  36    3.2291   514.0    3.370      39.011
2015    6       16    17  42    3.2267   513.7    3.371      38.965
2015    6       16    17  48    3.2244   513.5    3.372      38.920
2015    6       16    17  54    3.2220   513.2    3.374      38.875
2015    6       16    18   0    3.2197   512.9    3.375      38.830
2015    6       16    18   6    3.2175   512.6    3.376      38.786
2015    6       16    18  12    3.2152   512.3    3.377      38.743
2015    6       16    18  18    3.2129   512.0    3.379      38.700
2015    6       16    18  24    3.2107   511.7    3.380      38.657
2015    6       16    18  30    3.2085   511.5    3.381      38.615
2015    6       16    18  36    3.2063   511.2    3.383      38.573
2015    6       16    18  42    3.2041   510.9    3.385      38.532
2015    6       16    18  48    3.2020   510.6    3.386      38.492
2015    6       16    18  54    3.1998   510.3    3.388      38.452
2015    6       16    19   0    3.1977   510.1    3.390      38.412
2015    6       16    19   6    3.1956   509.8    3.392      38.373
2015    6       16    19  12    3.1935   509.5    3.393      38.334
2015    6       16    19  18    3.1914   509.2    3.395      38.295
2015    6       16    19  24    3.1893   508.9    3.397      38.257
2015    6       16    19  30    3.1873   508.7    3.399      38.219
2015    6       16    19  36    3.1852   508.4    3.401      38.182
2015    6       16    19  42    3.1832   508.1    3.403      38.145
2015    6       16    19  48    3.1812   507.8    3.405      38.109
2015    6       16    19  54    3.1792   507.6    3.407      38.073
2015    6       16    20   0    3.1772   507.3    3.409      38.037
2015    6       16    20   6    3.1752   507.0    3.411      38.002
2015    6       16    20  12    3.1732   506.8    3.413      37.968
2015    6       16    20  18    3.1713   506.5    3.415      37.933
2015    6       16    20  24    3.1693   506.2    3.418      37.900
2015    6       16    20  30    3.1673   506.0    3.420      37.867
2015    6       16    20  36    3.1653   505.7    3.422      37.834
2015    6       16    20  42    3.1633   505.4    3.424      37.802
2015    6       16    20  48    3.1614   505.2    3.426      37.771
2015    6       16    20  54    3.1594   504.9    3.429      37.740
2015    6       16    21   0    3.1574   504.7    3.431      37.711
2015    6       16    21   6    3.1553   504.4    3.433      37.681
2015    6       16    21  12    3.1533   504.2    3.436      37.653
2015    6       16    21  18    3.1513   503.9    3.438      37.625
2015    6       16    21  24    3.1492   503.6    3.441      37.599
2015    6       16    21  30    3.1471   503.4    3.443      37.573
2015    6       16    21  36    3.1450   503.1    3.446      37.548
2015    6       16    21  42    3.1429   502.9    3.449      37.524
2015    6       16    21  48    3.1408   502.6    3.451      37.502
2015    6       16    21  54    3.1387   502.4    3.454      37.480
2015    6       16    22   0    3.1365   502.1    3.457      37.461
2015    6       16    22   6    3.1343   501.9    3.460      37.442
2015    6       16    22  12    3.1321   501.6    3.463      37.425
2015    6       16    22  18    3.1298   501.4    3.467      37.409
2015    6       16    22  24    3.1276   501.1    3.470      37.395
2015    6       16    22  30    3.1252   500.9    3.474      37.383
2015    6       16    22  36    3.1229   500.6    3.478      37.372
2015    6       16    22  42    3.1204   500.4    3.482      37.363
2015    6       16    22  48    3.1180   500.1    3.486      37.356
2015    6       16    22  54    3.1155   499.9    3.490      37.351
2015    6       16    23   0    3.1130   499.7    3.495      37.348
2015    6       16    23   6    3.1104   499.4    3.499      37.347
2015    6       16    23  12    3.1079   499.2    3.505      37.349
2015    6       16    23  18    3.1052   498.9    3.510      37.353
2015    6       16    23  24    3.1026   498.7    3.515      37.359
2015    6       16    23  30    3.1000   498.5    3.521      37.369
2015    6       16    23  36    3.0973   498.2    3.527      37.381
2015    6       16    23  42    3.0946   498.0    3.534      37.396
2015    6       16    23  48    3.0920   497.8    3.541      37.413
2015    6       16    23  54    3.0893   497.5    3.548      37.434
2015    6       17     0   0    3.0866   497.3    3.555      37.457
2015    6       17     0   6    3.0839   497.1    3.563      37.483
2015    6       17     0  12    3.0813   496.9    3.570      37.511
2015    6       17     0  18    3.0786   496.7    3.579      37.542
2015    6       17     0  24    3.0760   496.5    3.587      37.576
2015    6       17     0  30    3.0734   496.3    3.596      37.612
2015    6       17     0  36    3.0709   496.1    3.605      37.650
2015    6       17     0  42    3.0684   495.9    3.614      37.691
2015    6       17     0  48    3.0659   495.7    3.624      37.733
2015    6       17     0  54    3.0635   495.5    3.634      37.779
2015    6       17     1   0    3.0611   495.3    3.644      37.826
2015    6       17     1   6    3.0588   495.1    3.655      37.876
2015    6       17     1  12    3.0564   495.0    3.666      37.927
2015    6       17     1  18    3.0541   494.8    3.677      37.980
2015    6       17     1  24    3.0518   494.6    3.689      38.036
2015    6       17     1  30    3.0495   494.5    3.700      38.093
2015    6       17     1  36    3.0472   494.3    3.713      38.151
2015    6       17     1  42    3.0449   494.2    3.725      38.211
2015    6       17     1  48    3.0426   494.0    3.737      38.270
2015    6       17     1  54    3.0402   493.9    3.750      38.330
2015    6       17     2   0    3.0379   493.7    3.763      38.389
2015    6       17     2   6    3.0356   493.5    3.776      38.447
2015    6       17     2  12    3.0332   493.4    3.789      38.504
2015    6       17     2  18    3.0308   493.2    3.802      38.559
2015    6       17     2  24    3.0285   493.0    3.815      38.612
2015    6       17     2  30    3.0261   492.9    3.828      38.663
2015    6       17     2  36    3.0238   492.7    3.841      38.711
2015    6       17     2  42    3.0214   492.5    3.854      38.756
2015    6       17     2  48    3.0190   492.3    3.866      38.798
2015    6       17     2  54    3.0167   492.1    3.879      38.837
2015    6       17     3   0    3.0143   491.9    3.891      38.873
2015    6       17     3   6    3.0120   491.7    3.903      38.905
2015    6       17     3  12    3.0096   491.5    3.915      38.934
2015    6       17     3  18    3.0073   491.3    3.926      38.959
2015    6       17     3  24    3.0049   491.1    3.938      38.980
2015    6       17     3  30    3.0026   490.8    3.949      38.998
2015    6       17     3  36    3.0002   490.6    3.960      39.012
2015    6       17     3  42    2.9980   490.4    3.971      39.022
2015    6       17     3  48    2.9956   490.1    3.981      39.029
2015    6       17     3  54    2.9934   489.9    3.991      39.032
2015    6       17     4   0    2.9911   489.6    4.001      39.032
2015    6       17     4   6    2.9889   489.4    4.011      39.030
2015    6       17     4  12    2.9867   489.1    4.021      39.024
2015    6       17     4  18    2.9846   488.9    4.031      39.016
2015    6       17     4  24    2.9825   488.6    4.040      39.005
2015    6       17     4  30    2.9805   488.3    4.049      38.992
2015    6       17     4  36    2.9784   488.0    4.059      38.978
2015    6       17     4  42    2.9765   487.8    4.068      38.961
2015    6       17     4  48    2.9746   487.5    4.077      38.943
2015    6       17     4  54    2.9729   487.2    4.086      38.924
2015    6       17     5   0    2.9711   486.9    4.095      38.903
2015    6       17     5   6    2.9695   486.6    4.105      38.882
2015    6       17     5  12    2.9679   486.3    4.114      38.859
2015    6       17     5  18    2.9665   486.0    4.123      38.837
2015    6       17     5  24    2.9651   485.8    4.132      38.813
2015    6       17     5  30    2.9639   485.5    4.141      38.790
2015    6       17     5  36    2.9627   485.2    4.151      38.766
2015    6       17     5  42    2.9616   484.9    4.160      38.742
2015    6       17     5  48    2.9606   484.6    4.169      38.718
2015    6       17     5  54    2.9597   484.3    4.178      38.693
2015    6       17     6   0    2.9589   484.1    4.188      38.669
2015    6       17     6   6    2.9581   483.8    4.197      38.644
2015    6       17     6  12    2.9574   483.5    4.206      38.620
2015    6       17     6  18    2.9567   483.2    4.216      38.595
2015    6       17     6  24    2.9561   482.9    4.225      38.570
2015    6       17     6  30    2.9555   482.7    4.234      38.544
2015    6       17     6  36    2.9549   482.4    4.244      38.519
2015    6       17     6  42    2.9544   482.1    4.253      38.492
2015    6       17     6  48    2.9539   481.8    4.262      38.466
2015    6       17     6  54    2.9535   481.5    4.271      38.439
2015    6       17     7   0    2.9530   481.2    4.280      38.412
2015    6       17     7   6    2.9526   481.0    4.289      38.385
2015    6       17     7  12    2.9523   480.7    4.298      38.358
2015    6       17     7  18    2.9520   480.4    4.307      38.330
2015    6       17     7  24    2.9517   480.1    4.316      38.303
2015    6       17     7  30    2.9514   479.8    4.325      38.275
2015    6       17     7  36    2.9512   479.5    4.334      38.247
2015    6       17     7  42    2.9510   479.2    4.343      38.219
2015    6       17     7  48    2.9509   479.0    4.352      38.191
2015    6       17     7  54    2.9507   478.7    4.360      38.163
2015    6       17     8   0    2.9505   478.4    4.369      38.135
2015    6       17     8   6    2.9504   478.1    4.378      38.106
2015    6       17     8  12    2.9502   477.8    4.386      38.077
2015    6       17     8  18    2.9501   477.5    4.395      38.048
2015    6       17     8  24    2.9499   477.2    4.403      38.017
2015    6       17     8  30    2.9497   476.9    4.411      37.986
2015    6       17     8  36    2.9494   476.6    4.419      37.955
2015    6       17     8  42    2.9492   476.3    4.427      37.923
2015    6       17     8  48    2.9489   476.0    4.435      37.890
2015    6       17     8  54    2.9487   475.7    4.443      37.856
2015    6       17     9   0    2.9484   475.4    4.450      37.822
2015    6       17     9   6    2.9480   475.1    4.458      37.787
2015    6       17     9  12    2.9477   474.7    4.465      37.752
2015    6       17     9  18    2.9474   474.4    4.472      37.715
2015    6       17     9  24    2.9471   474.1    4.479      37.678
2015    6       17     9  30    2.9468   473.8    4.486      37.641
2015    6       17     9  36    2.9465   473.4    4.493      37.602
2015    6       17     9  42    2.9463   473.1    4.500      37.563
2015    6       17     9  48    2.9460   472.8    4.506      37.524
2015    6       17     9  54    2.9458   472.4    4.513      37.483
2015    6       17    10   0    2.9456   472.1    4.519      37.442
2015    6       17    10   6    2.9454   471.8    4.525      37.400
2015    6       17    10  12    2.9453   471.4    4.531      37.356
2015    6       17    10  18    2.9452   471.1    4.537      37.313
2015    6       17    10  25    2.9451   470.8    4.542      37.268
2015    6       17    10  31    2.9451   470.4    4.548      37.222
2015    6       17    10  36    2.9451   470.1    4.553      37.175
2015    6       17    10  43    2.9451   469.8    4.558      37.128
2015    6       17    10  49    2.9452   469.5    4.563      37.079
2015    6       17    10  55    2.9453   469.1    4.567      37.030
2015    6       17    11   1    2.9454   468.8    4.572      36.980
2015    6       17    11   7    2.9456   468.5    4.576      36.928
2015    6       17    11  13    2.9458   468.1    4.580      36.876
2015    6       17    11  19    2.9460   467.8    4.583      36.823
2015    6       17    11  25    2.9462   467.5    4.587      36.769
2015    6       17    11  31    2.9465   467.1    4.590      36.715
2015    6       17    11  37    2.9468   466.8    4.593      36.659
2015    6       17    11  43    2.9471   466.5    4.596      36.603
2015    6       17    11  49    2.9474   466.2    4.599      36.547
2015    6       17    11  55    2.9478   465.8    4.602      36.489
2015    6       17    12   1    2.9481   465.5    4.604      36.432
2015    6       17    12   7    2.9485   465.2    4.606      36.374
2015    6       17    12  13    2.9489   464.8    4.609      36.315
2015    6       17    12  19    2.9493   464.5    4.611      36.256
2015    6       17    12  25    2.9497   464.2    4.612      36.197
2015    6       17    12  31    2.9501   463.8    4.614      36.138
2015    6       17    12  37    2.9506   463.5    4.616      36.078
2015    6       17    12  43    2.9510   463.2    4.617      36.018
2015    6       17    12  49    2.9515   462.9    4.618      35.958
2015    6       17    12  55    2.9519   462.5    4.620      35.898
2015    6       17    13   1    2.9524   462.2    4.621      35.837
2015    6       17    13   7    2.9529   461.9    4.622      35.777
2015    6       17    13  13    2.9534   461.5    4.623      35.716
2015    6       17    13  19    2.9539   461.2    4.624      35.656
2015    6       17    13  25    2.9544   460.9    4.624      35.595
2015    6       17    13  31    2.9549   460.5    4.625      35.534
2015    6       17    13  37    2.9554   460.2    4.626      35.473
2015    6       17    13  43    2.9560   459.9    4.626      35.413
2015    6       17    13  49    2.9566   459.5    4.626      35.352
2015    6       17    13  55    2.9572   459.2    4.627      35.291
2015    6       17    14   1    2.9578   458.9    4.627      35.230
2015    6       17    14   7    2.9584   458.6    4.627      35.169
2015    6       17    14  13    2.9591   458.2    4.627      35.108
2015    6       17    14  19    2.9598   457.9    4.628      35.048
2015    6       17    14  25    2.9604   457.6    4.628      34.987
2015    6       17    14  31    2.9612   457.2    4.628      34.927
2015    6       17    14  37    2.9619   456.9    4.627      34.867
2015    6       17    14  43    2.9628   456.6    4.627      34.807
2015    6       17    14  49    2.9636   456.3    4.627      34.747
2015    6       17    14  55    2.9644   455.9    4.627      34.687
2015    6       17    15   1    2.9653   455.6    4.626      34.627
2015    6       17    15   7    2.9662   455.3    4.626      34.568
2015    6       17    15  13    2.9672   455.0    4.625      34.508
2015    6       17    15  19    2.9681   454.6    4.625      34.449
2015    6       17    15  25    2.9691   454.3    4.624      34.390
2015    6       17    15  31    2.9702   454.0    4.624      34.331
2015    6       17    15  37    2.9712   453.7    4.623      34.272
2015    6       17    15  43    2.9723   453.3    4.622      34.213
2015    6       17    15  49    2.9735   453.0    4.621      34.154
2015    6       17    15  55    2.9746   452.7    4.620      34.095
2015    6       17    16   1    2.9758   452.4    4.619      34.036
2015    6       17    16   7    2.9770   452.0    4.618      33.977
2015    6       17    16  13    2.9783   451.7    4.617      33.918
2015    6       17    16  19    2.9796   451.4    4.616      33.859
2015    6       17    16  25    2.9809   451.1    4.615      33.800
2015    6       17    16  31    2.9823   450.8    4.613      33.741
2015    6       17    16  37    2.9836   450.4    4.612      33.681
2015    6       17    16  43    2.9850   450.1    4.611      33.622
2015    6       17    16  49    2.9865   449.8    4.609      33.563
2015    6       17    16  55    2.9879   449.5    4.608      33.504
2015    6       17    17   1    2.9894   449.2    4.606      33.445
2015    6       17    17   7    2.9909   448.8    4.605      33.385
2015    6       17    17  13    2.9925   448.5    4.603      33.326
2015    6       17    17  19    2.9940   448.2    4.601      33.267
2015    6       17    17  25    2.9956   447.9    4.600      33.207
2015    6       17    17  31    2.9972   447.6    4.598      33.148
2015    6       17    17  37    2.9989   447.3    4.596      33.088
2015    6       17    17  43    3.0006   446.9    4.594      33.028
2015    6       17    17  49    3.0022   446.6    4.592      32.969
2015    6       17    17  55    3.0040   446.3    4.591      32.909
2015    6       17    18   1    3.0057   446.0    4.589      32.850
2015    6       17    18   7    3.0075   445.6    4.587      32.790
2015    6       17    18  13    3.0094   445.3    4.585      32.731
2015    6       17    18  19    3.0112   445.0    4.583      32.672
2015    6       17    18  25    3.0132   444.7    4.581      32.614
2015    6       17    18  31    3.0151   444.4    4.580      32.556
2015    6       17    18  37    3.0171   444.0    4.578      32.498
2015    6       17    18  43    3.0192   443.7    4.576      32.441
2015    6       17    18  49    3.0213   443.4    4.574      32.385
2015    6       17    18  55    3.0234   443.1    4.572      32.328
2015    6       17    19   1    3.0255   442.8    4.571      32.272
2015    6       17    19   7    3.0277   442.4    4.569      32.217
2015    6       17    19  13    3.0299   442.1    4.567      32.161
2015    6       17    19  19    3.0321   441.8    4.565      32.106
2015    6       17    19  25    3.0344   441.5    4.563      32.051
2015    6       17    19  31    3.0366   441.2    4.561      31.996
2015    6       17    19  37    3.0389   440.9    4.559      31.942
2015    6       17    19  43    3.0412   440.6    4.556      31.887
2015    6       17    19  49    3.0435   440.3    4.554      31.832
2015    6       17    19  55    3.0458   440.0    4.552      31.777
2015    6       17    20   1    3.0480   439.7    4.549      31.723
2015    6       17    20   7    3.0503   439.4    4.547      31.668
2015    6       17    20  13    3.0526   439.1    4.545      31.613
2015    6       17    20  19    3.0549   438.8    4.542      31.559
2015    6       17    20  25    3.0572   438.5    4.539      31.504
2015    6       17    20  31    3.0595   438.2    4.537      31.449
2015    6       17    20  37    3.0617   437.9    4.534      31.394
2015    6       17    20  43    3.0640   437.7    4.532      31.339
2015    6       17    20  49    3.0663   437.4    4.529      31.284
2015    6       17    20  55    3.0686   437.1    4.527      31.229
2015    6       17    21   1    3.0708   436.8    4.524      31.173
2015    6       17    21   7    3.0730   436.5    4.521      31.117
2015    6       17    21  13    3.0753   436.2    4.519      31.061
2015    6       17    21  19    3.0775   435.9    4.516      31.004
2015    6       17    21  25    3.0797   435.6    4.514      30.947
2015    6       17    21  31    3.0819   435.3    4.511      30.890
2015    6       17    21  37    3.0841   435.0    4.509      30.833
2015    6       17    21  43    3.0863   434.7    4.506      30.776
2015    6       17    21  49    3.0884   434.4    4.504      30.719
2015    6       17    21  55    3.0906   434.1    4.501      30.662
2015    6       17    22   1    3.0928   433.8    4.499      30.605
2015    6       17    22   7    3.0950   433.6    4.497      30.548
2015    6       17    22  13    3.0971   433.3    4.495      30.491
2015    6       17    22  19    3.0993   433.0    4.493      30.435
2015    6       17    22  25    3.1015   432.7    4.491      30.379
2015    6       17    22  31    3.1037   432.4    4.489      30.324
2015    6       17    22  37    3.1059   432.1    4.487      30.268
2015    6       17    22  43    3.1081   431.8    4.485      30.214
2015    6       17    22  49    3.1103   431.5    4.483      30.160
2015    6       17    22  55    3.1126   431.3    4.481      30.106
2015    6       17    23   1    3.1148   431.0    4.479      30.052
2015    6       17    23   7    3.1170   430.7    4.478      29.999
2015    6       17    23  13    3.1193   430.4    4.476      29.947
2015    6       17    23  19    3.1215   430.1    4.475      29.895
2015    6       17    23  25    3.1238   429.8    4.473      29.843
2015    6       17    23  31    3.1261   429.6    4.472      29.792
2015    6       17    23  37    3.1283   429.3    4.471      29.741
2015    6       17    23  43    3.1306   429.0    4.470      29.691
2015    6       17    23  49    3.1329   428.7    4.468      29.642
2015    6       17    23  55    3.1352   428.4    4.467      29.593
2015    6       18     0   1    3.1375   428.2    4.466      29.545
2015    6       18     0   7    3.1398   427.9    4.466      29.497
2015    6       18     0  13    3.1421   427.6    4.465      29.450
2015    6       18     0  19    3.1444   427.3    4.464      29.404
2015    6       18     0  25    3.1468   427.1    4.464      29.358
2015    6       18     0  31    3.1491   426.8    4.463      29.313
2015    6       18     0  37    3.1515   426.5    4.463      29.269
2015    6       18     0  43    3.1538   426.2    4.463      29.226
2015    6       18     0  49    3.1562   426.0    4.463      29.183
2015    6       18     0  55    3.1586   425.7    4.463      29.141
2015    6       18     1   1    3.1610   425.4    4.463      29.100
2015    6       18     1   7    3.1634   425.2    4.463      29.060
2015    6       18     1  13    3.1659   424.9    4.464      29.020
2015    6       18     1  19    3.1683   424.6    4.464      28.981
2015    6       18     1  25    3.1708   424.4    4.465      28.943
2015    6       18     1  31    3.1732   424.1    4.466      28.906
2015    6       18     1  37    3.1757   423.9    4.467      28.870
2015    6       18     1  43    3.1782   423.6    4.468      28.834
2015    6       18     1  49    3.1807   423.3    4.469      28.799
2015    6       18     1  55    3.1833   423.1    4.471      28.765
2015    6       18     2   1    3.1858   422.8    4.472      28.731
2015    6       18     2   7    3.1884   422.6    4.474      28.699
2015    6       18     2  13    3.1909   422.3    4.476      28.667
2015    6       18     2  19    3.1936   422.1    4.478      28.636
2015    6       18     2  25    3.1962   421.8    4.480      28.605
2015    6       18     2  31    3.1988   421.6    4.482      28.576
2015    6       18     2  37    3.2015   421.3    4.485      28.547
2015    6       18     2  43    3.2041   421.1    4.487      28.518
2015    6       18     2  49    3.2068   420.8    4.490      28.491
2015    6       18     2  55    3.2096   420.6    4.493      28.464
2015    6       18     3   1    3.2123   420.4    4.496      28.438
2015    6       18     3   7    3.2150   420.1    4.500      28.413
2015    6       18     3  13    3.2178   419.9    4.503      28.389
2015    6       18     3  19    3.2206   419.6    4.507      28.365
2015    6       18     3  25    3.2234   419.4    4.511      28.342
2015    6       18     3  31    3.2263   419.2    4.515      28.320
2015    6       18     3  37    3.2292   419.0    4.519      28.299
2015    6       18     3  43    3.2320   418.7    4.523      28.279
2015    6       18     3  49    3.2349   418.5    4.528      28.259
2015    6       18     3  55    3.2379   418.3    4.532      28.240
2015    6       18     4   1    3.2408   418.1    4.537      28.222
2015    6       18     4   7    3.2438   417.8    4.542      28.205
2015    6       18     4  13    3.2468   417.6    4.547      28.188
2015    6       18     4  19    3.2498   417.4    4.553      28.173
2015    6       18     4  25    3.2529   417.2    4.558      28.158
2015    6       18     4  31    3.2559   417.0    4.564      28.144
2015    6       18     4  37    3.2590   416.8    4.570      28.131
2015    6       18     4  43    3.2621   416.6    4.576      28.118
2015    6       18     4  49    3.2652   416.3    4.582      28.106
2015    6       18     4  55    3.2683   416.1    4.589      28.095
2015    6       18     5   1    3.2715   415.9    4.595      28.085
2015    6       18     5   7    3.2747   415.7    4.602      28.076
2015    6       18     5  13    3.2779   415.5    4.609      28.067
2015    6       18     5  19    3.2811   415.3    4.616      28.059
2015    6       18     5  25    3.2843   415.2    4.624      28.052
2015    6       18     5  31    3.2875   415.0    4.631      28.045
2015    6       18     5  37    3.2908   414.8    4.639      28.039
2015    6       18     5  43    3.2940   414.6    4.647      28.034
2015    6       18     5  49    3.2973   414.4    4.655      28.030
2015    6       18     5  55    3.3006   414.2    4.663      28.026
2015    6       18     6   1    3.3039   414.0    4.672      28.023
2015    6       18     6   7    3.3072   413.8    4.680      28.020
2015    6       18     6  13    3.3105   413.7    4.689      28.018
2015    6       18     6  19    3.3138   413.5    4.698      28.017
2015    6       18     6  25    3.3171   413.3    4.707      28.017
2015    6       18     6  31    3.3204   413.1    4.716      28.017
2015    6       18     6  37    3.3237   413.0    4.726      28.017
2015    6       18     6  43    3.3270   412.8    4.735      28.019
2015    6       18     6  49    3.3303   412.6    4.745      28.020
2015    6       18     6  55    3.3336   412.4    4.755      28.023
2015    6       18     7   1    3.3369   412.3    4.765      28.026
2015    6       18     7   7    3.3401   412.1    4.776      28.029
2015    6       18     7  13    3.3434   412.0    4.786      28.033
2015    6       18     7  19    3.3466   411.8    4.797      28.038
2015    6       18     7  25    3.3499   411.6    4.808      28.043
2015    6       18     7  31    3.3531   411.5    4.819      28.048
2015    6       18     7  37    3.3563   411.3    4.830      28.054
2015    6       18     7  43    3.3595   411.1    4.841      28.060
2015    6       18     7  49    3.3627   411.0    4.853      28.067
2015    6       18     7  55    3.3659   410.8    4.864      28.075
2015    6       18     8   1    3.3691   410.7    4.876      28.082
2015    6       18     8   7    3.3723   410.5    4.888      28.091
2015    6       18     8  13    3.3754   410.4    4.901      28.100
2015    6       18     8  19    3.3786   410.2    4.913      28.109
2015    6       18     8  25    3.3818   410.1    4.926      28.119
2015    6       18     8  31    3.3849   409.9    4.938      28.129
2015    6       18     8  37    3.3880   409.8    4.951      28.139
2015    6       18     8  43    3.3912   409.6    4.964      28.150
2015    6       18     8  49    3.3943   409.5    4.978      28.162
2015    6       18     8  55    3.3975   409.3    4.991      28.174
2015    6       18     9   1    3.4006   409.2    5.005      28.186
2015    6       18     9   7    3.4037   409.1    5.018      28.199
2015    6       18     9  13    3.4068   408.9    5.032      28.212
2015    6       18     9  19    3.4099   408.8    5.046      28.226
2015    6       18     9  25    3.4131   408.7    5.061      28.240
2015    6       18     9  31    3.4162   408.5    5.075      28.254
2015    6       18     9  37    3.4193   408.4    5.090      28.269
2015    6       18     9  43    3.4224   408.3    5.105      28.284
2015    6       18     9  49    3.4255   408.1    5.120      28.299
2015    6       18     9  55    3.4287   408.0    5.135      28.315
2015    6       18    10   1    3.4318   407.9    5.150      28.331
2015    6       18    10   7    3.4349   407.7    5.166      28.348
2015    6       18    10  13    3.4380   407.6    5.181      28.364
2015    6       18    10  19    3.4411   407.5    5.197      28.381
2015    6       18    10  25    3.4442   407.4    5.213      28.398
2015    6       18    10  31    3.4473   407.3    5.229      28.415
2015    6       18    10  37    3.4504   407.1    5.245      28.433
2015    6       18    10  43    3.4535   407.0    5.261      28.450
2015    6       18    10  49    3.4566   406.9    5.277      28.468
2015    6       18    10  55    3.4598   406.8    5.294      28.486
2015    6       18    11   1    3.4629   406.7    5.310      28.504
2015    6       18    11   7    3.4660   406.6    5.327      28.522
2015    6       18    11  13    3.4691   406.4    5.344      28.540
2015    6       18    11  19    3.4722   406.3    5.361      28.558
2015    6       18    11  25    3.4754   406.2    5.377      28.576
2015    6       18    11  31    3.4785   406.1    5.394      28.594
2015    6       18    11  37    3.4816   406.0    5.411      28.612
2015    6       18    11  43    3.4847   405.9    5.428      28.630
2015    6       18    11  49    3.4879   405.8    5.445      28.648
2015    6       18    11  55    3.4910   405.7    5.462      28.666
2015    6       18    12   1    3.4941   405.6    5.478      28.684
2015    6       18    12   7    3.4973   405.5    5.495      28.702
2015    6       18    12  13    3.5004   405.4    5.512      28.720
2015    6       18    12  19    3.5035   405.3    5.528      28.738
2015    6       18    12  25    3.5067   405.2    5.545      28.755
2015    6       18    12  31    3.5098   405.1    5.561      28.773
2015    6       18    12  37    3.5130   405.0    5.578      28.791
2015    6       18    12  43    3.5161   404.9    5.594      28.808
2015    6       18    12  49    3.5193   404.8    5.610      28.826
2015    6       18    12  55    3.5225   404.7    5.626      28.844
2015    6       18    13   1    3.5257   404.6    5.642      28.862
2015    6       18    13   7    3.5289   404.5    5.658      28.880
2015    6       18    13  13    3.5321   404.4    5.673      28.898
2015    6       18    13  19    3.5353   404.3    5.689      28.916
2015    6       18    13  25    3.5385   404.2    5.704      28.935
2015    6       18    13  31    3.5418   404.1    5.719      28.953
2015    6       18    13  37    3.5451   404.0    5.734      28.972
2015    6       18    13  43    3.5484   403.9    5.749      28.991
2015    6       18    13  49    3.5517   403.8    5.764      29.009
2015    6       18    13  55    3.5551   403.7    5.779      29.028
2015    6       18    14   1    3.5584   403.6    5.793      29.047
2015    6       18    14   7    3.5618   403.5    5.807      29.066
2015    6       18    14  13    3.5652   403.4    5.822      29.085
2015    6       18    14  19    3.5686   403.3    5.836      29.103
2015    6       18    14  25    3.5721   403.2    5.850      29.122
2015    6       18    14  31    3.5755   403.1    5.863      29.141
2015    6       18    14  37    3.5790   403.0    5.877      29.159
2015    6       18    14  43    3.5825   403.0    5.890      29.178
2015    6       18    14  49    3.5860   402.9    5.904      29.196
2015    6       18    14  55    3.5895   402.8    5.917      29.214
2015    6       18    15   1    3.5930   402.7    5.930      29.232
2015    6       18    15   7    3.5966   402.6    5.943      29.250
2015    6       18    15  13    3.6002   402.5    5.955      29.268
2015    6       18    15  19    3.6037   402.4    5.968      29.285
2015    6       18    15  25    3.6073   402.4    5.980      29.303
2015    6       18    15  31    3.6109   402.3    5.993      29.320
2015    6       18    15  37    3.6145   402.2    6.005      29.337
2015    6       18    15  43    3.6181   402.1    6.017      29.355
2015    6       18    15  49    3.6217   402.0    6.029      29.372
2015    6       18    15  55    3.6253   401.9    6.041      29.389
2015    6       18    16   1    3.6289   401.9    6.053      29.406
2015    6       18    16   7    3.6326   401.8    6.064      29.423
2015    6       18    16  13    3.6362   401.7    6.076      29.439
2015    6       18    16  19    3.6398   401.6    6.087      29.456
2015    6       18    16  25    3.6435   401.6    6.098      29.473
2015    6       18    16  31    3.6471   401.5    6.110      29.490
2015    6       18    16  37    3.6507   401.4    6.121      29.507
2015    6       18    16  43    3.6544   401.3    6.132      29.523
2015    6       18    16  49    3.6581   401.3    6.143      29.540
2015    6       18    16  55    3.6618   401.2    6.153      29.557
2015    6       18    17   1    3.6654   401.1    6.164      29.574
2015    6       18    17   7    3.6691   401.0    6.175      29.591
2015    6       18    17  13    3.6728   401.0    6.185      29.608
2015    6       18    17  19    3.6765   400.9    6.196      29.625
2015    6       18    17  25    3.6802   400.8    6.206      29.642
2015    6       18    17  31    3.6839   400.8    6.216      29.660
2015    6       18    17  37    3.6877   400.7    6.226      29.678
2015    6       18    17  43    3.6914   400.6    6.236      29.695
2015    6       18    17  49    3.6951   400.6    6.246      29.713
2015    6       18    17  55    3.6988   400.5    6.256      29.732
2015    6       18    18   1    3.7026   400.4    6.265      29.750
2015    6       18    18   7    3.7063   400.4    6.275      29.769
2015    6       18    18  13    3.7101   400.3    6.284      29.787
2015    6       18    18  19    3.7138   400.3    6.293      29.806
2015    6       18    18  25    3.7176   400.2    6.302      29.825
2015    6       18    18  31    3.7213   400.1    6.311      29.845
2015    6       18    18  37    3.7250   400.1    6.320      29.864
2015    6       18    18  43    3.7288   400.0    6.329      29.883
2015    6       18    18  49    3.7325   400.0    6.338      29.903
2015    6       18    18  55    3.7363   399.9    6.346      29.922
2015    6       18    19   1    3.7400   399.8    6.355      29.942
2015    6       18    19   7    3.7438   399.8    6.363      29.961
2015    6       18    19  13    3.7475   399.7    6.371      29.981
2015    6       18    19  19    3.7513   399.7    6.379      30.001
2015    6       18    19  25    3.7550   399.6    6.387      30.020
2015    6       18    19  31    3.7587   399.6    6.395      30.040
2015    6       18    19  37    3.7625   399.5    6.403      30.059
2015    6       18    19  43    3.7662   399.5    6.411      30.079
2015    6       18    19  49    3.7699   399.4    6.418      30.098
2015    6       18    19  55    3.7736   399.4    6.426      30.117
2015    6       18    20   1    3.7773   399.3    6.433      30.137
2015    6       18    20   7    3.7810   399.3    6.441      30.156
2015    6       18    20  13    3.7847   399.2    6.448      30.175
2015    6       18    20  19    3.7884   399.2    6.455      30.194
2015    6       18    20  25    3.7921   399.1    6.462      30.212
2015    6       18    20  31    3.7958   399.1    6.469      30.231
2015    6       18    20  37    3.7995   399.0    6.476      30.249
2015    6       18    20  43    3.8032   399.0    6.483      30.267
2015    6       18    20  49    3.8068   398.9    6.490      30.285
2015    6       18    20  55    3.8105   398.9    6.497      30.303
2015    6       18    21   1    3.8141   398.8    6.503      30.321
2015    6       18    21   7    3.8178   398.8    6.510      30.338
2015    6       18    21  13    3.8214   398.7    6.516      30.356
2015    6       18    21  19    3.8251   398.7    6.523      30.373
2015    6       18    21  25    3.8287   398.6    6.529      30.390
2015    6       18    21  31    3.8323   398.6    6.535      30.407
2015    6       18    21  37    3.8359   398.5    6.542      30.423
2015    6       18    21  43    3.8395   398.5    6.548      30.439
2015    6       18    21  49    3.8431   398.4    6.554      30.456
2015    6       18    21  55    3.8467   398.4    6.560      30.472
2015    6       18    22   1    3.8503   398.4    6.566      30.487
2015    6       18    22   7    3.8539   398.3    6.572      30.503
2015    6       18    22  13    3.8575   398.3    6.578      30.519
2015    6       18    22  19    3.8610   398.2    6.584      30.534
2015    6       18    22  25    3.8646   398.2    6.589      30.549
2015    6       18    22  31    3.8681   398.1    6.595      30.564
2015    6       18    22  37    3.8717   398.1    6.601      30.579
2015    6       18    22  43    3.8752   398.0    6.606      30.594
2015    6       18    22  49    3.8788   398.0    6.612      30.609
2015    6       18    22  55    3.8823   397.9    6.617      30.624
2015    6       18    23   1    3.8858   397.9    6.623      30.639
2015    6       18    23   7    3.8893   397.9    6.628      30.653
2015    6       18    23  13    3.8928   397.8    6.634      30.668
2015    6       18    23  19    3.8963   397.8    6.639      30.682
2015    6       18    23  25    3.8998   397.7    6.644      30.697
2015    6       18    23  31    3.9033   397.7    6.649      30.711
2015    6       18    23  37    3.9068   397.6    6.654      30.725
2015    6       18    23  43    3.9103   397.6    6.659      30.739
2015    6       18    23  49    3.9137   397.6    6.665      30.753
2015    6       18    23  55    3.9172   397.5    6.670      30.767
2015    6       19     0   1    3.9207   397.5    6.675      30.781
2015    6       19     0   7    3.9241   397.4    6.679      30.795
2015    6       19     0  13    3.9275   397.4    6.684      30.809
2015    6       19     0  19    3.9309   397.3    6.689      30.823
2015    6       19     0  25    3.9343   397.3    6.694      30.837
2015    6       19     0  31    3.9377   397.3    6.699      30.851
2015    6       19     0  37    3.9411   397.2    6.704      30.864
2015    6       19     0  43    3.9445   397.2    6.708      30.878
2015    6       19     0  49    3.9478   397.1    6.713      30.892
2015    6       19     0  55    3.9512   397.1    6.718      30.905
2015    6       19     1   1    3.9545   397.0    6.722      30.919
2015    6       19     1   7    3.9579   397.0    6.727      30.932
2015    6       19     1  13    3.9612   396.9    6.732      30.945
2015    6       19     1  19    3.9645   396.9    6.736      30.959
2015    6       19     1  25    3.9678   396.9    6.741      30.972
2015    6       19     1  31    3.9710   396.8    6.746      30.985
2015    6       19     1  37    3.9743   396.8    6.750      30.998
2015    6       19     1  43    3.9775   396.7    6.755      31.011
2015    6       19     1  49    3.9808   396.7    6.759      31.024
2015    6       19     1  55    3.9840   396.6    6.764      31.037
2015    6       19     2   1    3.9873   396.6    6.769      31.050
2015    6       19     2   7    3.9905   396.5    6.773      31.063
2015    6       19     2  13    3.9937   396.5    6.778      31.075
2015    6       19     2  19    3.9969   396.5    6.783      31.088
2015    6       19     2  25    4.0001   396.4    6.787      31.101
2015    6       19     2  31    4.0032   396.4    6.792      31.114
2015    6       19     2  37    4.0064   396.3    6.797      31.127
2015    6       19     2  43    4.0096   396.3    6.802      31.139
2015    6       19     2  49    4.0127   396.2    6.806      31.152
2015    6       19     2  55    4.0159   396.2    6.811      31.165
2015    6       19     3   1    4.0190   396.1    6.816      31.177
2015    6       19     3   7    4.0222   396.1    6.821      31.190
2015    6       19     3  13    4.0253   396.0    6.826      31.203
2015    6       19     3  19    4.0284   396.0    6.831      31.216
2015    6       19     3  25    4.0315   396.0    6.836      31.228
2015    6       19     3  31    4.0347   395.9    6.841      31.241
2015    6       19     3  37    4.0378   395.9    6.846      31.254
2015    6       19     3  43    4.0409   395.8    6.851      31.267
2015    6       19     3  49    4.0440   395.8    6.856      31.280
2015    6       19     3  55    4.0470   395.7    6.861      31.293
2015    6       19     4   1    4.0501   395.7    6.867      31.306
2015    6       19     4   7    4.0532   395.7    6.872      31.319
2015    6       19     4  13    4.0563   395.6    6.877      31.332
2015    6       19     4  19    4.0593   395.6    6.882      31.345
2015    6       19     4  25    4.0624   395.5    6.888      31.358
2015    6       19     4  31    4.0654   395.5    6.893      31.371
2015    6       19     4  37    4.0685   395.4    6.898      31.385
2015    6       19     4  43    4.0715   395.4    6.904      31.398
2015    6       19     4  49    4.0745   395.4    6.909      31.412
2015    6       19     4  55    4.0775   395.3    6.915      31.425
2015    6       19     5   1    4.0805   395.3    6.920      31.439
2015    6       19     5   7    4.0835   395.2    6.926      31.452
2015    6       19     5  13    4.0864   395.2    6.931      31.466
2015    6       19     5  19    4.0894   395.2    6.937      31.479
2015    6       19     5  25    4.0923   395.1    6.943      31.493
2015    6       19     5  31    4.0952   395.1    6.948      31.507
2015    6       19     5  37    4.0981   395.0    6.954      31.521
2015    6       19     5  43    4.1010   395.0    6.960      31.535
2015    6       19     5  49    4.1038   395.0    6.965      31.549
2015    6       19     5  55    4.1067   394.9    6.971      31.563
2015    6       19     6   1    4.1095   394.9    6.976      31.577
2015    6       19     6   7    4.1123   394.8    6.982      31.592
2015    6       19     6  13    4.1151   394.8    6.988      31.606
2015    6       19     6  19    4.1178   394.8    6.993      31.621
2015    6       19     6  25    4.1206   394.7    6.999      31.635
2015    6       19     6  31    4.1233   394.7    7.004      31.650
2015    6       19     6  37    4.1261   394.7    7.010      31.665
2015    6       19     6  43    4.1288   394.6    7.015      31.680
2015    6       19     6  49    4.1314   394.6    7.021      31.695
2015    6       19     6  55    4.1341   394.5    7.026      31.710
2015    6       19     7   1    4.1368   394.5    7.031      31.726
2015    6       19     7   7    4.1394   394.5    7.037      31.741
2015    6       19     7  13    4.1420   394.4    7.042      31.757
2015    6       19     7  19    4.1446   394.4    7.048      31.772
2015    6       19     7  25    4.1472   394.4    7.053      31.788
2015    6       19     7  31    4.1498   394.3    7.058      31.803
2015    6       19     7  37    4.1524   394.3    7.063      31.819
2015    6       19     7  43    4.1549   394.3    7.069      31.834
2015    6       19     7  49    4.1575   394.2    7.074      31.850
2015    6       19     7  55    4.1600   394.2    7.079      31.866
2015    6       19     8   1    4.1625   394.1    7.084      31.881
2015    6       19     8   7    4.1650   394.1    7.089      31.897
2015    6       19     8  13    4.1675   394.1    7.095      31.912
2015    6       19     8  19    4.1700   394.0    7.100      31.928
2015    6       19     8  25    4.1724   394.0    7.105      31.944
2015    6       19     8  31    4.1749   394.0    7.110      31.959
2015    6       19     8  37    4.1773   393.9    7.115      31.975
2015    6       19     8  43    4.1797   393.9    7.120      31.991
2015    6       19     8  49    4.1821   393.8    7.125      32.006
2015    6       19     8  55    4.1845   393.8    7.130      32.022
2015    6       19     9   1    4.1869   393.8    7.135      32.037
2015    6       19     9   7    4.1892   393.7    7.140      32.053
2015    6       19     9  13    4.1916   393.7    7.145      32.068
2015    6       19     9  19    4.1939   393.7    7.150      32.084
2015    6       19     9  25    4.1962   393.6    7.155      32.099
2015    6       19     9  31    4.1985   393.6    7.160      32.114
2015    6       19     9  37    4.2008   393.5    7.164      32.130
2015    6       19     9  43    4.2031   393.5    7.169      32.145
2015    6       19     9  49    4.2054   393.5    7.174      32.160
2015    6       19     9  55    4.2076   393.4    7.179      32.175
2015    6       19    10   1    4.2099   393.4    7.183      32.191
2015    6       19    10   7    4.2121   393.4    7.188      32.206
2015    6       19    10  13    4.2143   393.3    7.192      32.221
2015    6       19    10  19    4.2165   393.3    7.197      32.236
2015    6       19    10  25    4.2187   393.2    7.201      32.251
2015    6       19    10  31    4.2209   393.2    7.206      32.266
2015    6       19    10  37    4.2231   393.1    7.210      32.281
2015    6       19    10  43    4.2252   393.1    7.214      32.295
2015    6       19    10  49    4.2274   393.1    7.219      32.310
2015    6       19    10  55    4.2295   393.0    7.223      32.325
2015    6       19    11   1    4.2317   393.0    7.227      32.339
2015    6       19    11   7    4.2338   392.9    7.231      32.354
2015    6       19    11  13    4.2360   392.9    7.236      32.369
2015    6       19    11  19    4.2381   392.9    7.240      32.383
2015    6       19    11  25    4.2403   392.8    7.244      32.398
2015    6       19    11  31    4.2424   392.8    7.248      32.412
2015    6       19    11  37    4.2446   392.7    7.252      32.427
2015    6       19    11  43    4.2467   392.7    7.256      32.441
2015    6       19    11  49    4.2489   392.6    7.260      32.456
2015    6       19    11  55    4.2510   392.6    7.265      32.470
2015    6       19    12   1    4.2532   392.5    7.269      32.485
2015    6       19    12   7    4.2554   392.5    7.273      32.499
2015    6       19    12  13    4.2576   392.5    7.277      32.514
2015    6       19    12  19    4.2598   392.4    7.281      32.529
2015    6       19    12  25    4.2620   392.4    7.286      32.544
2015    6       19    12  31    4.2642   392.3    7.290      32.559
2015    6       19    12  37    4.2665   392.3    7.294      32.574
2015    6       19    12  43    4.2688   392.2    7.299      32.589
2015    6       19    12  49    4.2711   392.2    7.303      32.604
2015    6       19    12  55    4.2735   392.1    7.308      32.620
2015    6       19    13   1    4.2758   392.1    7.312      32.636
2015    6       19    13   7    4.2782   392.1    7.317      32.651
2015    6       19    13  13    4.2805   392.0    7.322      32.667
2015    6       19    13  19    4.2829   392.0    7.327      32.683
2015    6       19    13  25    4.2853   391.9    7.331      32.699
2015    6       19    13  31    4.2877   391.9    7.336      32.715
2015    6       19    13  37    4.2901   391.9    7.341      32.731
2015    6       19    13  43    4.2925   391.8    7.346      32.747
2015    6       19    13  49    4.2949   391.8    7.351      32.763
2015    6       19    13  55    4.2973   391.7    7.356      32.778
2015    6       19    14   1    4.2996   391.7    7.361      32.794
2015    6       19    14   7    4.3020   391.7    7.365      32.809
2015    6       19    14  13    4.3043   391.6    7.370      32.825
2015    6       19    14  19    4.3066   391.6    7.375      32.840
2015    6       19    14  25    4.3089   391.6    7.380      32.854
2015    6       19    14  31    4.3111   391.5    7.384      32.869
2015    6       19    14  37    4.3133   391.5    7.389      32.883
2015    6       19    14  43    4.3155   391.5    7.393      32.897
2015    6       19    14  49    4.3177   391.4    7.398      32.911
2015    6       19    14  55    4.3199   391.4    7.402      32.924
2015    6       19    15   1    4.3220   391.4    7.407      32.937
2015    6       19    15   7    4.3241   391.3    7.411      32.950
2015    6       19    15  13    4.3261   391.3    7.415      32.962
2015    6       19    15  19    4.3281   391.3    7.419      32.975
2015    6       19    15  25    4.3301   391.3    7.423      32.987
2015    6       19    15  31    4.3321   391.2    7.428      32.999
2015    6       19    15  37    4.3340   391.2    7.432      33.010
2015    6       19    15  43    4.3359   391.2    7.436      33.021
2015    6       19    15  49    4.3378   391.1    7.439      33.032
2015    6       19    15  55    4.3396   391.1    7.443      33.043
2015    6       19    16   1    4.3415   391.1    7.447      33.053
2015    6       19    16   7    4.3432   391.0    7.451      33.063
2015    6       19    16  13    4.3450   391.0    7.455      33.074
2015    6       19    16  19    4.3467   391.0    7.458      33.083
2015    6       19    16  25    4.3484   390.9    7.462      33.093
2015    6       19    16  31    4.3501   390.9    7.465      33.102
2015    6       19    16  37    4.3518   390.9    7.469      33.111
2015    6       19    16  43    4.3534   390.9    7.472      33.119
2015    6       19    16  49    4.3551   390.8    7.476      33.128
2015    6       19    16  55    4.3567   390.8    7.479      33.136
2015    6       19    17   1    4.3582   390.8    7.482      33.144
2015    6       19    17   7    4.3598   390.7    7.485      33.151
2015    6       19    17  13    4.3613   390.7    7.488      33.159
2015    6       19    17  19    4.3629   390.7    7.492      33.166
2015    6       19    17  25    4.3644   390.6    7.495      33.173
2015    6       19    17  31    4.3659   390.6    7.498      33.180
2015    6       19    17  37    4.3673   390.6    7.500      33.186
2015    6       19    17  43    4.3688   390.5    7.503      33.193
2015    6       19    17  49    4.3703   390.5    7.506      33.199
2015    6       19    17  55    4.3717   390.5    7.509      33.205
2015    6       19    18   1    4.3731   390.4    7.512      33.210
2015    6       19    18   7    4.3745   390.4    7.514      33.216
2015    6       19    18  13    4.3759   390.4    7.517      33.221
2015    6       19    18  19    4.3773   390.3    7.519      33.226
2015    6       19    18  25    4.3787   390.3    7.522      33.231
2015    6       19    18  31    4.3801   390.3    7.524      33.236
2015    6       19    18  37    4.3815   390.2    7.527      33.241
2015    6       19    18  43    4.3829   390.2    7.529      33.245
2015    6       19    18  49    4.3842   390.2    7.531      33.249
2015    6       19    18  55    4.3856   390.1    7.534      33.254
2015    6       19    19   1    4.3869   390.1    7.536      33.257
2015    6       19    19   7    4.3883   390.1    7.538      33.261
2015    6       19    19  13    4.3896   390.0    7.540      33.265
2015    6       19    19  19    4.3909   390.0    7.543      33.268
2015    6       19    19  25    4.3922   389.9    7.545      33.272
2015    6       19    19  31    4.3936   389.9    7.547      33.275
2015    6       19    19  37    4.3949   389.9    7.549      33.278
2015    6       19    19  43    4.3962   389.8    7.551      33.281
2015    6       19    19  49    4.3975   389.8    7.553      33.283
2015    6       19    19  55    4.3988   389.8    7.554      33.286
2015    6       19    20   1    4.4001   389.7    7.556      33.289
2015    6       19    20   7    4.4014   389.7    7.558      33.291
2015    6       19    20  13    4.4027   389.7    7.560      33.293
2015    6       19    20  19    4.4040   389.6    7.562      33.296
2015    6       19    20  25    4.4054   389.6    7.563      33.298
2015    6       19    20  31    4.4066   389.6    7.565      33.300
2015    6       19    20  37    4.4079   389.5    7.567      33.301
2015    6       19    20  43    4.4093   389.5    7.569      33.303
2015    6       19    20  49    4.4106   389.4    7.570      33.305
2015    6       19    20  55    4.4119   389.4    7.572      33.307
2015    6       19    21   1    4.4132   389.4    7.573      33.308
2015    6       19    21   7    4.4145   389.3    7.575      33.310
2015    6       19    21  13    4.4158   389.3    7.577      33.311
2015    6       19    21  19    4.4171   389.3    7.578      33.312
2015    6       19    21  25    4.4184   389.2    7.580      33.314
2015    6       19    21  31    4.4197   389.2    7.581      33.315
2015    6       19    21  37    4.4211   389.2    7.583      33.316
2015    6       19    21  43    4.4224   389.1    7.584      33.318
2015    6       19    21  49    4.4237   389.1    7.586      33.319
2015    6       19    21  55    4.4251   389.0    7.587      33.320
2015    6       19    22   1    4.4264   389.0    7.589      33.321
2015    6       19    22   7    4.4278   389.0    7.590      33.322
2015    6       19    22  13    4.4291   388.9    7.592      33.324
2015    6       19    22  19    4.4305   388.9    7.593      33.325
2015    6       19    22  25    4.4319   388.9    7.595      33.326
2015    6       19    22  31    4.4332   388.8    7.597      33.327
2015    6       19    22  37    4.4346   388.8    7.598      33.329
2015    6       19    22  43    4.4360   388.7    7.600      33.330
2015    6       19    22  49    4.4374   388.7    7.601      33.331
2015    6       19    22  55    4.4389   388.7    7.603      33.333
2015    6       19    23   1    4.4403   388.6    7.605      33.334
2015    6       19    23   7    4.4417   388.6    7.606      33.336
2015    6       19    23  13    4.4431   388.6    7.608      33.337
2015    6       19    23  19    4.4446   388.5    7.610      33.339
2015    6       19    23  25    4.4460   388.5    7.612      33.340
2015    6       19    23  31    4.4475   388.4    7.614      33.342
2015    6       19    23  37    4.4489   388.4    7.616      33.343
2015    6       19    23  43    4.4504   388.4    7.617      33.345
2015    6       19    23  49    4.4518   388.3    7.619      33.347
2015    6       19    23  55    4.4532   388.3    7.621      33.348
2015    6       20     0   1    4.4547   388.3    7.623      33.350
2015    6       20     0   7    4.4561   388.2    7.625      33.352
2015    6       20     0  13    4.4576   388.2    7.627      33.354
2015    6       20     0  19    4.4590   388.1    7.630      33.355
2015    6       20     0  25    4.4605   388.1    7.632      33.357
2015    6       20     0  31    4.4619   388.1    7.634      33.359
2015    6       20     0  37    4.4634   388.0    7.636      33.361
2015    6       20     0  43    4.4648   388.0    7.638      33.362
2015    6       20     0  49    4.4662   387.9    7.641      33.363
2015    6       20     0  55    4.4677   387.9    7.643      33.365
2015    6       20     1   1    4.4692   387.9    7.645      33.366
2015    6       20     1   7    4.4707   387.8    7.648      33.367
2015    6       20     1  13    4.4722   387.8    7.650      33.369
2015    6       20     1  19    4.4737   387.7    7.652      33.370
2015    6       20     1  25    4.4752   387.7    7.655      33.371
2015    6       20     1  31    4.4767   387.6    7.657      33.372
2015    6       20     1  37    4.4782   387.6    7.660      33.373
2015    6       20     1  43    4.4798   387.6    7.663      33.374
2015    6       20     1  49    4.4813   387.5    7.665      33.375
2015    6       20     1  55    4.4829   387.5    7.668      33.376
2015    6       20     2   1    4.4845   387.4    7.671      33.377
2015    6       20     2   7    4.4861   387.4    7.673      33.378
2015    6       20     2  13    4.4877   387.4    7.676      33.379
2015    6       20     2  19    4.4894   387.3    7.679      33.380
2015    6       20     2  25    4.4910   387.3    7.682      33.382
2015    6       20     2  31    4.4927   387.2    7.685      33.383
2015    6       20     2  37    4.4943   387.2    7.688      33.384
2015    6       20     2  43    4.4960   387.1    7.691      33.385
2015    6       20     2  49    4.4976   387.1    7.694      33.386
2015    6       20     2  55    4.4993   387.1    7.697      33.388
2015    6       20     3   1    4.5010   387.0    7.700      33.389
2015    6       20     3   7    4.5027   387.0    7.703      33.390
2015    6       20     3  13    4.5044   386.9    7.706      33.391
2015    6       20     3  19    4.5061   386.9    7.709      33.392
2015    6       20     3  25    4.5077   386.8    7.712      33.393
2015    6       20     3  31    4.5094   386.8    7.715      33.394
2015    6       20     3  37    4.5111   386.8    7.718      33.395
2015    6       20     3  43    4.5128   386.7    7.722      33.396
2015    6       20     3  49    4.5145   386.7    7.725      33.397
2015    6       20     3  55    4.5161   386.6    7.728      33.397
2015    6       20     4   1    4.5178   386.6    7.731      33.398
2015    6       20     4   7    4.5195   386.6    7.734      33.398
2015    6       20     4  13    4.5212   386.5    7.737      33.398
2015    6       20     4  19    4.5229   386.5    7.740      33.398
2015    6       20     4  25    4.5246   386.4    7.743      33.398
2015    6       20     4  31    4.5263   386.4    7.746      33.397
2015    6       20     4  37    4.5280   386.4    7.749      33.397
2015    6       20     4  43    4.5297   386.3    7.752      33.396
2015    6       20     4  49    4.5313   386.3    7.756      33.395
2015    6       20     4  55    4.5331   386.2    7.759      33.393
2015    6       20     5   1    4.5348   386.2    7.762      33.392
2015    6       20     5   7    4.5365   386.1    7.765      33.390
2015    6       20     5  13    4.5382   386.1    7.767      33.388
2015    6       20     5  19    4.5400   386.1    7.770      33.386
2015    6       20     5  25    4.5417   386.0    7.773      33.384
2015    6       20     5  31    4.5434   386.0    7.776      33.382
2015    6       20     5  37    4.5452   385.9    7.779      33.380
2015    6       20     5  43    4.5470   385.9    7.782      33.377
2015    6       20     5  49    4.5488   385.9    7.785      33.375
2015    6       20     5  55    4.5505   385.8    7.788      33.373
2015    6       20     6   1    4.5523   385.8    7.791      33.370
2015    6       20     6   7    4.5541   385.7    7.794      33.367
2015    6       20     6  13    4.5560   385.7    7.796      33.364
2015    6       20     6  19    4.5578   385.6    7.799      33.362
2015    6       20     6  25    4.5596   385.6    7.802      33.359
2015    6       20     6  31    4.5615   385.6    7.805      33.356
2015    6       20     6  37    4.5633   385.5    7.808      33.353
2015    6       20     6  43    4.5652   385.5    7.811      33.350
2015    6       20     6  49    4.5671   385.4    7.814      33.347
2015    6       20     6  55    4.5690   385.4    7.816      33.344
2015    6       20     7   1    4.5709   385.3    7.819      33.341
2015    6       20     7   7    4.5728   385.3    7.822      33.338
2015    6       20     7  13    4.5748   385.3    7.825      33.335
2015    6       20     7  19    4.5767   385.2    7.828      33.332
2015    6       20     7  25    4.5787   385.2    7.831      33.329
2015    6       20     7  31    4.5807   385.1    7.834      33.326
2015    6       20     7  37    4.5827   385.1    7.837      33.323
2015    6       20     7  43    4.5847   385.0    7.840      33.320
2015    6       20     7  49    4.5868   385.0    7.843      33.317
2015    6       20     7  55    4.5888   384.9    7.846      33.314
2015    6       20     8   1    4.5909   384.9    7.850      33.311
2015    6       20     8   7    4.5930   384.9    7.853      33.309
2015    6       20     8  13    4.5952   384.8    7.856      33.306
2015    6       20     8  19    4.5973   384.8    7.860      33.303
2015    6       20     8  25    4.5995   384.7    7.863      33.301
2015    6       20     8  31    4.6017   384.7    7.867      33.299
2015    6       20     8  37    4.6040   384.6    7.870      33.297
2015    6       20     8  43    4.6062   384.6    7.874      33.295
2015    6       20     8  49    4.6085   384.5    7.878      33.294
2015    6       20     8  55    4.6109   384.5    7.881      33.292
2015    6       20     9   1    4.6132   384.4    7.885      33.291
2015    6       20     9   7    4.6156   384.4    7.889      33.290
2015    6       20     9  13    4.6180   384.3    7.893      33.290
2015    6       20     9  19    4.6205   384.3    7.898      33.289
2015    6       20     9  25    4.6230   384.2    7.902      33.289
2015    6       20     9  31    4.6255   384.2    7.906      33.289
2015    6       20     9  37    4.6281   384.1    7.911      33.289
2015    6       20     9  43    4.6307   384.1    7.915      33.290
2015    6       20     9  49    4.6333   384.0    7.920      33.291
2015    6       20     9  55    4.6360   384.0    7.925      33.292
2015    6       20    10   1    4.6387   383.9    7.930      33.294
2015    6       20    10   7    4.6414   383.9    7.935      33.295
2015    6       20    10  13    4.6442   383.8    7.940      33.297
2015    6       20    10  19    4.6470   383.8    7.945      33.300
2015    6       20    10  25    4.6498   383.7    7.951      33.302
2015    6       20    10  31    4.6527   383.7    7.956      33.305
2015    6       20    10  37    4.6556   383.6    7.962      33.308
2015    6       20    10  43    4.6585   383.6    7.968      33.311
2015    6       20    10  49    4.6615   383.5    7.973      33.315
2015    6       20    10  55    4.6645   383.5    7.979      33.318
2015    6       20    11   1    4.6675   383.4    7.985      33.322
2015    6       20    11   7    4.6705   383.4    7.992      33.326
2015    6       20    11  13    4.6736   383.3    7.998      33.330
2015    6       20    11  19    4.6767   383.3    8.004      33.335
2015    6       20    11  25    4.6798   383.2    8.010      33.339
2015    6       20    11  31    4.6830   383.2    8.017      33.343
2015    6       20    11  37    4.6862   383.1    8.024      33.348
2015    6       20    11  43    4.6894   383.1    8.030      33.353
2015    6       20    11  49    4.6926   383.0    8.037      33.358
2015    6       20    11  55    4.6958   383.0    8.044      33.362
2015    6       20    12   1    4.6991   383.0    8.051      33.367
2015    6       20    12   7    4.7024   382.9    8.057      33.372
2015    6       20    12  13    4.7057   382.9    8.064      33.376
2015    6       20    12  19    4.7090   382.8    8.071      33.381
2015    6       20    12  25    4.7123   382.8    8.079      33.386
2015    6       20    12  31    4.7157   382.7    8.086      33.390
2015    6       20    12  37    4.7190   382.7    8.093      33.395
2015    6       20    12  43    4.7224   382.6    8.100      33.399
2015    6       20    12  49    4.7258   382.6    8.107      33.404
2015    6       20    12  55    4.7293   382.5    8.115      33.408
2015    6       20    13   1    4.7327   382.5    8.122      33.412
2015    6       20    13   7    4.7362   382.5    8.129      33.416
2015    6       20    13  13    4.7397   382.4    8.137      33.420
2015    6       20    13  19    4.7432   382.4    8.144      33.423
2015    6       20    13  25    4.7468   382.3    8.152      33.427
2015    6       20    13  31    4.7503   382.3    8.159      33.431
2015    6       20    13  37    4.7539   382.2    8.167      33.434
2015    6       20    13  43    4.7576   382.2    8.174      33.437
2015    6       20    13  49    4.7612   382.1    8.182      33.441
2015    6       20    13  55    4.7649   382.1    8.190      33.444
2015    6       20    14   1    4.7686   382.0    8.198      33.447
2015    6       20    14   7    4.7724   382.0    8.205      33.450
2015    6       20    14  13    4.7761   382.0    8.213      33.452
2015    6       20    14  19    4.7800   381.9    8.221      33.455
2015    6       20    14  25    4.7838   381.9    8.229      33.458
2015    6       20    14  31    4.7877   381.8    8.238      33.461
2015    6       20    14  37    4.7916   381.8    8.246      33.464
2015    6       20    14  43    4.7956   381.7    8.254      33.467
2015    6       20    14  49    4.7996   381.7    8.263      33.470
2015    6       20    14  55    4.8037   381.6    8.271      33.473
2015    6       20    15   1    4.8078   381.6    8.280      33.477
2015    6       20    15   7    4.8119   381.5    8.289      33.480
2015    6       20    15  13    4.8161   381.5    8.298      33.484
2015    6       20    15  19    4.8204   381.4    8.307      33.489
2015    6       20    15  25    4.8247   381.4    8.316      33.493
2015    6       20    15  31    4.8290   381.3    8.325      33.498
2015    6       20    15  37    4.8334   381.3    8.335      33.503
2015    6       20    15  43    4.8379   381.2    8.345      33.509
2015    6       20    15  49    4.8424   381.2    8.355      33.515
2015    6       20    15  55    4.8470   381.2    8.365      33.522
2015    6       20    16   1    4.8516   381.1    8.375      33.529
2015    6       20    16   7    4.8563   381.1    8.385      33.537
2015    6       20    16  13    4.8610   381.0    8.396      33.545
2015    6       20    16  19    4.8658   381.0    8.407      33.554
2015    6       20    16  25    4.8706   380.9    8.418      33.564
2015    6       20    16  31    4.8755   380.9    8.429      33.574
2015    6       20    16  37    4.8804   380.9    8.440      33.585
2015    6       20    16  43    4.8853   380.8    8.451      33.596
2015    6       20    16  49    4.8902   380.8    8.462      33.608
2015    6       20    16  55    4.8952   380.8    8.473      33.620
2015    6       20    17   1    4.9002   380.7    8.484      33.633
2015    6       20    17   7    4.9052   380.7    8.495      33.646
2015    6       20    17  13    4.9103   380.7    8.506      33.659
2015    6       20    17  19    4.9153   380.6    8.518      33.672
2015    6       20    17  25    4.9204   380.6    8.529      33.685
2015    6       20    17  31    4.9255   380.6    8.540      33.698
2015    6       20    17  37    4.9306   380.6    8.551      33.712
2015    6       20    17  43    4.9357   380.5    8.562      33.725
2015    6       20    17  49    4.9408   380.5    8.573      33.739
2015    6       20    17  55    4.9459   380.5    8.584      33.752
2015    6       20    18   1    4.9510   380.4    8.595      33.765
2015    6       20    18   7    4.9562   380.4    8.606      33.778
2015    6       20    18  13    4.9614   380.4    8.617      33.791
2015    6       20    18  19    4.9666   380.4    8.628      33.804
2015    6       20    18  25    4.9718   380.3    8.639      33.816
2015    6       20    18  31    4.9770   380.3    8.650      33.829
2015    6       20    18  37    4.9823   380.3    8.661      33.841
2015    6       20    18  43    4.9876   380.3    8.672      33.853
2015    6       20    18  49    4.9929   380.2    8.683      33.865
2015    6       20    18  55    4.9982   380.2    8.694      33.878
2015    6       20    19   1    5.0036   380.2    8.705      33.890
2015    6       20    19   7    5.0090   380.2    8.717      33.902
2015    6       20    19  13    5.0144   380.1    8.728      33.914
2015    6       20    19  19    5.0199   380.1    8.740      33.926
2015    6       20    19  25    5.0254   380.1    8.751      33.938
2015    6       20    19  31    5.0310   380.1    8.763      33.950
2015    6       20    19  37    5.0366   380.0    8.775      33.962
2015    6       20    19  43    5.0422   380.0    8.787      33.974
2015    6       20    19  49    5.0479   380.0    8.799      33.987
2015    6       20    19  55    5.0537   380.0    8.811      33.999
2015    6       20    20   1    5.0595   379.9    8.824      34.012
2015    6       20    20   7    5.0654   379.9    8.836      34.025
2015    6       20    20  13    5.0713   379.9    8.849      34.039
2015    6       20    20  19    5.0774   379.9    8.863      34.052
2015    6       20    20  25    5.0835   379.9    8.876      34.066
2015    6       20    20  31    5.0897   379.8    8.890      34.081
2015    6       20    20  37    5.0959   379.8    8.904      34.096
2015    6       20    20  43    5.1023   379.8    8.919      34.111
2015    6       20    20  49    5.1088   379.8    8.933      34.127
2015    6       20    20  55    5.1153   379.8    8.948      34.144
2015    6       20    21   1    5.1219   379.8    8.963      34.163
2015    6       20    21   7    5.1286   379.8    8.979      34.183
2015    6       20    21  13    5.1354   379.8    8.994      34.205
2015    6       20    21  19    5.1422   379.8    9.010      34.227
2015    6       20    21  25    5.1491   379.8    9.026      34.252
2015    6       20    21  31    5.1561   379.8    9.042      34.277
2015    6       20    21  37    5.1631   379.8    9.057      34.303
2015    6       20    21  43    5.1701   379.8    9.073      34.331
2015    6       20    21  49    5.1772   379.8    9.089      34.359
2015    6       20    21  55    5.1843   379.8    9.105      34.388
2015    6       20    22   1    5.1914   379.8    9.121      34.417
2015    6       20    22   7    5.1986   379.8    9.137      34.448
2015    6       20    22  13    5.2058   379.8    9.152      34.479
2015    6       20    22  19    5.2129   379.8    9.168      34.511
2015    6       20    22  25    5.2201   379.9    9.183      34.543
2015    6       20    22  31    5.2273   379.9    9.198      34.575
2015    6       20    22  37    5.2344   379.9    9.214      34.607
2015    6       20    22  43    5.2417   379.9    9.229      34.639
2015    6       20    22  49    5.2489   379.9    9.244      34.670
2015    6       20    22  55    5.2561   379.9    9.259      34.702
2015    6       20    23   1    5.2633   380.0    9.274      34.733
2015    6       20    23   7    5.2706   380.0    9.288      34.764
2015    6       20    23  13    5.2779   380.0    9.303      34.794
2015    6       20    23  19    5.2852   380.0    9.318      34.825
2015    6       20    23  25    5.2925   380.0    9.333      34.856
2015    6       20    23  31    5.2999   380.1    9.347      34.887
2015    6       20    23  37    5.3072   380.1    9.362      34.919
2015    6       20    23  43    5.3147   380.1    9.377      34.950
2015    6       20    23  49    5.3221   380.1    9.391      34.980
2015    6       20    23  55    5.3295   380.2    9.406      35.011
2015    6       21     0   1    5.3369   380.2    9.420      35.042
2015    6       21     0   7    5.3445   380.2    9.434      35.073
2015    6       21     0  13    5.3519   380.2    9.449      35.104
2015    6       21     0  19    5.3595   380.3    9.463      35.135
2015    6       21     0  25    5.3670   380.3    9.477      35.165
2015    6       21     0  31    5.3746   380.3    9.491      35.195
2015    6       21     0  37    5.3822   380.4    9.505      35.225
2015    6       21     0  43    5.3898   380.4    9.519      35.255
2015    6       21     0  49    5.3974   380.4    9.533      35.285
2015    6       21     0  55    5.4051   380.5    9.547      35.315
2015    6       21     1   1    5.4127   380.5    9.561      35.345
2015    6       21     1   7    5.4204   380.5    9.574      35.375
2015    6       21     1  13    5.4281   380.6    9.588      35.404
2015    6       21     1  19    5.4359   380.6    9.602      35.433
2015    6       21     1  25    5.4436   380.6    9.615      35.462
2015    6       21     1  31    5.4514   380.7    9.629      35.491
2015    6       21     1  37    5.4593   380.7    9.643      35.520
2015    6       21     1  43    5.4671   380.7    9.657      35.548
2015    6       21     1  49    5.4750   380.8    9.671      35.577
2015    6       21     1  55    5.4830   380.8    9.685      35.606
2015    6       21     2   1    5.4910   380.8    9.699      35.635
2015    6       21     2   7    5.4990   380.9    9.713      35.664
2015    6       21     2  13    5.5071   380.9    9.727      35.694
2015    6       21     2  19    5.5152   381.0    9.742      35.723
2015    6       21     2  25    5.5233   381.0    9.756      35.753
2015    6       21     2  31    5.5316   381.0    9.771      35.783
2015    6       21     2  37    5.5398   381.1    9.787      35.814
2015    6       21     2  43    5.5481   381.1    9.802      35.846
2015    6       21     2  49    5.5565   381.2    9.818      35.877
2015    6       21     2  55    5.5650   381.2    9.834      35.910
2015    6       21     3   1    5.5735   381.2    9.850      35.944
2015    6       21     3   7    5.5821   381.3    9.867      35.978
2015    6       21     3  13    5.5907   381.3    9.884      36.014
2015    6       21     3  19    5.5995   381.4    9.902      36.050
2015    6       21     3  25    5.6083   381.4    9.920      36.087
2015    6       21     3  31    5.6173   381.4    9.939      36.125
2015    6       21     3  37    5.6263   381.5    9.958      36.165
2015    6       21     3  43    5.6355   381.5    9.977      36.207
2015    6       21     3  49    5.6447   381.6    9.997      36.251
2015    6       21     3  55    5.6540   381.7   10.017      36.298
2015    6       21     4   1    5.6635   381.7   10.037      36.346
2015    6       21     4   7    5.6730   381.8   10.057      36.398
2015    6       21     4  13    5.6825   381.9   10.078      36.451
2015    6       21     4  19    5.6922   382.0   10.098      36.507
2015    6       21     4  25    5.7018   382.0   10.119      36.564
2015    6       21     4  31    5.7115   382.1   10.139      36.623
2015    6       21     4  37    5.7212   382.2   10.159      36.683
2015    6       21     4  43    5.7309   382.3   10.179      36.744
2015    6       21     4  49    5.7407   382.4   10.199      36.807
2015    6       21     4  55    5.7504   382.5   10.218      36.871
2015    6       21     5   1    5.7600   382.6   10.237      36.935
2015    6       21     5   7    5.7697   382.7   10.256      37.000
2015    6       21     5  13    5.7793   382.8   10.274      37.066
2015    6       21     5  19    5.7888   382.9   10.291      37.131
2015    6       21     5  25    5.7983   383.1   10.308      37.196
2015    6       21     5  31    5.8077   383.2   10.325      37.260
2015    6       21     5  37    5.8170   383.3   10.341      37.324
2015    6       21     5  43    5.8263   383.4   10.357      37.386
2015    6       21     5  49    5.8356   383.5   10.372      37.448
2015    6       21     5  55    5.8448   383.6   10.387      37.508
2015    6       21     6   1    5.8539   383.8   10.401      37.568
2015    6       21     6   7    5.8630   383.9   10.415      37.627
2015    6       21     6  13    5.8720   384.0   10.429      37.685
2015    6       21     6  19    5.8810   384.1   10.442      37.742
2015    6       21     6  25    5.8900   384.3   10.455      37.799
2015    6       21     6  31    5.8990   384.4   10.468      37.854
2015    6       21     6  37    5.9079   384.5   10.480      37.910
2015    6       21     6  43    5.9168   384.7   10.492      37.964
2015    6       21     6  49    5.9256   384.8   10.504      38.018
2015    6       21     6  55    5.9345   384.9   10.516      38.072
2015    6       21     7   1    5.9433   385.1   10.527      38.124
2015    6       21     7   7    5.9521   385.2   10.538      38.177
2015    6       21     7  13    5.9609   385.4   10.549      38.229
2015    6       21     7  19    5.9697   385.5   10.560      38.280
2015    6       21     7  25    5.9785   385.6   10.570      38.331
2015    6       21     7  31    5.9872   385.8   10.581      38.382
2015    6       21     7  37    5.9960   385.9   10.591      38.432
2015    6       21     7  43    6.0047   386.1   10.601      38.482
2015    6       21     7  49    6.0135   386.2   10.611      38.532
2015    6       21     7  55    6.0222   386.4   10.621      38.581
2015    6       21     8   1    6.0309   386.5   10.631      38.630
2015    6       21     8   7    6.0397   386.6   10.640      38.679
2015    6       21     8  13    6.0484   386.8   10.650      38.728
2015    6       21     8  19    6.0572   386.9   10.659      38.777
2015    6       21     8  25    6.0660   387.1   10.669      38.826
2015    6       21     8  31    6.0748   387.2   10.678      38.875
2015    6       21     8  37    6.0837   387.4   10.688      38.924
2015    6       21     8  43    6.0925   387.5   10.697      38.973
2015    6       21     8  49    6.1014   387.7   10.707      39.022
2015    6       21     8  55    6.1104   387.8   10.716      39.071
2015    6       21     9   1    6.1194   388.0   10.726      39.121
2015    6       21     9   7    6.1284   388.1   10.735      39.171
2015    6       21     9  13    6.1374   388.3   10.745      39.221
2015    6       21     9  19    6.1465   388.4   10.754      39.272
2015    6       21     9  25    6.1556   388.6   10.764      39.323
2015    6       21     9  31    6.1648   388.8   10.774      39.374
2015    6       21     9  37    6.1739   388.9   10.784      39.426
2015    6       21     9  43    6.1832   389.1   10.793      39.479
2015    6       21     9  49    6.1924   389.2   10.803      39.532
2015    6       21     9  55    6.2017   389.4   10.813      39.586
2015    6       21    10   1    6.2110   389.5   10.823      39.640
2015    6       21    10   7    6.2204   389.7   10.833      39.696
2015    6       21    10  13    6.2298   389.9   10.844      39.752
2015    6       21    10  19    6.2392   390.0   10.854      39.808
2015    6       21    10  25    6.2487   390.2   10.865      39.866
2015    6       21    10  31    6.2582   390.3   10.875      39.924
2015    6       21    10  37    6.2677   390.5   10.886      39.983
2015    6       21    10  43    6.2773   390.7   10.897      40.043
2015    6       21    10  49    6.2869   390.8   10.908      40.105
2015    6       21    10  55    6.2965   391.0   10.920      40.169
2015    6       21    11   1    6.3062   391.1   10.931      40.235
2015    6       21    11   7    6.3159   391.3   10.942      40.302
2015    6       21    11  13    6.3256   391.5   10.953      40.370
2015    6       21    11  19    6.3353   391.7   10.964      40.440
2015    6       21    11  25    6.3450   391.8   10.975      40.511
2015    6       21    11  31    6.3547   392.0   10.986      40.584
2015    6       21    11  37    6.3644   392.2   10.997      40.657
2015    6       21    11  43    6.3740   392.4   11.008      40.731
2015    6       21    11  49    6.3836   392.5   11.018      40.805
2015    6       21    11  55    6.3932   392.7   11.029      40.881
2015    6       21    12   1    6.4028   392.9   11.039      40.958
2015    6       21    12   7    6.4122   393.1   11.048      41.035
2015    6       21    12  13    6.4217   393.3   11.058      41.113
2015    6       21    12  19    6.4310   393.5   11.067      41.191
2015    6       21    12  25    6.4403   393.7   11.076      41.270
2015    6       21    12  31    6.4495   393.8   11.084      41.348
2015    6       21    12  37    6.4586   394.0   11.093      41.425
2015    6       21    12  43    6.4676   394.2   11.101      41.502
2015    6       21    12  49    6.4766   394.4   11.108      41.579
2015    6       21    12  55    6.4855   394.6   11.116      41.655
2015    6       21    13   1    6.4943   394.8   11.123      41.730
2015    6       21    13   7    6.5030   395.0   11.129      41.805
2015    6       21    13  13    6.5117   395.2   11.136      41.879
2015    6       21    13  19    6.5202   395.4   11.142      41.952
2015    6       21    13  25    6.5287   395.7   11.148      42.025
2015    6       21    13  31    6.5372   395.9   11.153      42.097
2015    6       21    13  37    6.5455   396.1   11.158      42.168
2015    6       21    13  43    6.5538   396.3   11.163      42.238
2015    6       21    13  49    6.5620   396.5   11.168      42.308
2015    6       21    13  55    6.5702   396.7   11.172      42.377
2015    6       21    14   1    6.5783   396.9   11.176      42.446
2015    6       21    14   7    6.5863   397.1   11.180      42.514
2015    6       21    14  13    6.5943   397.4   11.184      42.581
2015    6       21    14  19    6.6022   397.6   11.187      42.648
2015    6       21    14  25    6.6101   397.8   11.191      42.714
2015    6       21    14  31    6.6179   398.0   11.194      42.780
2015    6       21    14  37    6.6257   398.2   11.197      42.845
2015    6       21    14  43    6.6334   398.4   11.199      42.910
2015    6       21    14  49    6.6411   398.7   11.202      42.975
2015    6       21    14  55    6.6487   398.9   11.204      43.039
2015    6       21    15   1    6.6564   399.1   11.207      43.103
2015    6       21    15   7    6.6640   399.3   11.209      43.166
2015    6       21    15  13    6.6715   399.5   11.211      43.229
2015    6       21    15  19    6.6791   399.8   11.213      43.292
2015    6       21    15  25    6.6866   400.0   11.215      43.355
2015    6       21    15  31    6.6941   400.2   11.217      43.417
2015    6       21    15  37    6.7016   400.4   11.219      43.479
2015    6       21    15  43    6.7091   400.7   11.221      43.542
2015    6       21    15  49    6.7166   400.9   11.223      43.604
2015    6       21    15  55    6.7241   401.1   11.225      43.667
2015    6       21    16   1    6.7317   401.3   11.228      43.729
2015    6       21    16   7    6.7392   401.6   11.230      43.792
2015    6       21    16  13    6.7468   401.8   11.232      43.856
2015    6       21    16  19    6.7545   402.0   11.235      43.919
2015    6       21    16  25    6.7622   402.2   11.238      43.984
2015    6       21    16  31    6.7699   402.5   11.241      44.048
2015    6       21    16  37    6.7778   402.7   11.245      44.114
2015    6       21    16  43    6.7857   402.9   11.249      44.180
2015    6       21    16  49    6.7938   403.2   11.253      44.247
2015    6       21    16  55    6.8019   403.4   11.258      44.315
2015    6       21    17   1    6.8102   403.6   11.263      44.385
2015    6       21    17   7    6.8185   403.9   11.268      44.457
2015    6       21    17  13    6.8270   404.1   11.274      44.530
2015    6       21    17  19    6.8357   404.4   11.281      44.604
2015    6       21    17  25    6.8445   404.6   11.289      44.681
2015    6       21    17  31    6.8534   404.9   11.297      44.761
2015    6       21    17  37    6.8625   405.1   11.305      44.846
2015    6       21    17  43    6.8717   405.4   11.314      44.935
2015    6       21    17  49    6.8809   405.7   11.322      45.028
2015    6       21    17  55    6.8902   406.0   11.331      45.126
2015    6       21    18   1    6.8995   406.2   11.340      45.226
2015    6       21    18   7    6.9088   406.5   11.349      45.330
2015    6       21    18  13    6.9181   406.8   11.358      45.437
2015    6       21    18  19    6.9273   407.2   11.367      45.546
2015    6       21    18  25    6.9365   407.5   11.375      45.656
2015    6       21    18  31    6.9455   407.8   11.383      45.768
2015    6       21    18  37    6.9544   408.1   11.390      45.881
2015    6       21    18  43    6.9632   408.4   11.396      45.995
2015    6       21    18  49    6.9717   408.7   11.402      46.110
2015    6       21    18  55    6.9801   409.1   11.406      46.224
2015    6       21    19   1    6.9882   409.4   11.410      46.336
2015    6       21    19   7    6.9962   409.7   11.413      46.446
2015    6       21    19  13    7.0039   410.0   11.415      46.554
2015    6       21    19  19    7.0115   410.4   11.417      46.660
2015    6       21    19  25    7.0189   410.7   11.418      46.764
2015    6       21    19  31    7.0261   411.0   11.418      46.866
2015    6       21    19  37    7.0332   411.3   11.417      46.967
2015    6       21    19  43    7.0400   411.7   11.415      47.065
2015    6       21    19  49    7.0467   412.0   11.413      47.162
2015    6       21    19  55    7.0533   412.3   11.410      47.257
2015    6       21    20   1    7.0597   412.6   11.407      47.350
2015    6       21    20   7    7.0660   413.0   11.403      47.442
2015    6       21    20  13    7.0721   413.3   11.399      47.533
2015    6       21    20  19    7.0781   413.6   11.394      47.622
2015    6       21    20  25    7.0840   413.9   11.388      47.710
2015    6       21    20  31    7.0897   414.3   11.382      47.797
2015    6       21    20  37    7.0953   414.6   11.376      47.883
2015    6       21    20  43    7.1009   414.9   11.369      47.968
2015    6       21    20  49    7.1063   415.2   11.361      48.051
2015    6       21    20  55    7.1116   415.6   11.354      48.134
2015    6       21    21   1    7.1169   415.9   11.346      48.216
2015    6       21    21   7    7.1220   416.2   11.337      48.296
2015    6       21    21  13    7.1271   416.5   11.328      48.377
2015    6       21    21  19    7.1322   416.8   11.320      48.456
2015    6       21    21  25    7.1371   417.1   11.310      48.535
2015    6       21    21  31    7.1421   417.4   11.301      48.613
2015    6       21    21  37    7.1469   417.7   11.291      48.691
2015    6       21    21  43    7.1518   418.0   11.282      48.769
2015    6       21    21  49    7.1566   418.4   11.272      48.845
2015    6       21    21  55    7.1614   418.7   11.262      48.922
2015    6       21    22   1    7.1662   419.0   11.251      48.998
2015    6       21    22   7    7.1710   419.3   11.241      49.074
2015    6       21    22  13    7.1757   419.6   11.231      49.150
2015    6       21    22  19    7.1805   419.9   11.220      49.225
2015    6       21    22  25    7.1852   420.2   11.210      49.301
2015    6       21    22  31    7.1899   420.5   11.199      49.376
2015    6       21    22  37    7.1947   420.8   11.188      49.451
2015    6       21    22  43    7.1994   421.1   11.178      49.526
2015    6       21    22  49    7.2041   421.4   11.167      49.601
2015    6       21    22  55    7.2089   421.7   11.156      49.676
2015    6       21    23   1    7.2136   422.0   11.145      49.751
2015    6       21    23   7    7.2184   422.3   11.135      49.826
2015    6       21    23  13    7.2232   422.6   11.124      49.900
2015    6       21    23  19    7.2279   422.9   11.113      49.975
2015    6       21    23  25    7.2327   423.3   11.103      50.049
2015    6       21    23  31    7.2375   423.6   11.092      50.124
2015    6       21    23  37    7.2424   423.9   11.082      50.199
2015    6       21    23  43    7.2473   424.2   11.072      50.273
2015    6       21    23  49    7.2522   424.5   11.062      50.348
2015    6       21    23  55    7.2571   424.8   11.052      50.423
2015    6       22     0   1    7.2621   425.1   11.043      50.498
2015    6       22     0   7    7.2672   425.5   11.034      50.573
2015    6       22     0  13    7.2723   425.8   11.025      50.649
2015    6       22     0  19    7.2775   426.1   11.017      50.725
2015    6       22     0  25    7.2829   426.4   11.009      50.803
2015    6       22     0  31    7.2882   426.7   11.002      50.881
2015    6       22     0  37    7.2938   427.0   10.995      50.959
2015    6       22     0  43    7.2994   427.4   10.990      51.037
2015    6       22     0  49    7.3052   427.7   10.984      51.117
2015    6       22     0  55    7.3111   428.0   10.980      51.201
2015    6       22     1   1    7.3171   428.3   10.975      51.288
2015    6       22     1   7    7.3232   428.7   10.971      51.378
2015    6       22     1  13    7.3293   429.0   10.968      51.470
2015    6       22     1  19    7.3355   429.4   10.964      51.564
2015    6       22     1  25    7.3417   429.7   10.961      51.661
2015    6       22     1  31    7.3479   430.1   10.958      51.760
2015    6       22     1  37    7.3541   430.5   10.955      51.860
2015    6       22     1  43    7.3602   430.8   10.951      51.961
2015    6       22     1  49    7.3662   431.2   10.947      52.063
2015    6       22     1  55    7.3721   431.6   10.943      52.166
2015    6       22     2   1    7.3779   432.0   10.938      52.270
2015    6       22     2   7    7.3834   432.4   10.933      52.376
2015    6       22     2  13    7.3889   432.8   10.926      52.482
2015    6       22     2  19    7.3941   433.2   10.919      52.586
2015    6       22     2  25    7.3991   433.6   10.911      52.689
2015    6       22     2  31    7.4039   434.0   10.903      52.789
2015    6       22     2  37    7.4085   434.4   10.894      52.889
2015    6       22     2  43    7.4129   434.8   10.884      52.987
2015    6       22     2  49    7.4172   435.2   10.873      53.083
2015    6       22     2  55    7.4212   435.6   10.862      53.178
2015    6       22     3   1    7.4251   436.0   10.850      53.271
2015    6       22     3   7    7.4287   436.5   10.837      53.363
2015    6       22     3  13    7.4323   436.9   10.824      53.453
2015    6       22     3  19    7.4356   437.3   10.811      53.542
2015    6       22     3  25    7.4388   437.7   10.796      53.630
2015    6       22     3  31    7.4419   438.1   10.782      53.716
2015    6       22     3  37    7.4448   438.5   10.767      53.801
2015    6       22     3  43    7.4476   439.0   10.751      53.885
2015    6       22     3  49    7.4502   439.4   10.735      53.967
2015    6       22     3  55    7.4527   439.8   10.719      54.048
2015    6       22     4   1    7.4551   440.2   10.702      54.129
2015    6       22     4   7    7.4574   440.6   10.684      54.207
2015    6       22     4  13    7.4596   441.1   10.667      54.285
2015    6       22     4  19    7.4616   441.5   10.649      54.361
2015    6       22     4  25    7.4636   441.9   10.630      54.436
2015    6       22     4  31    7.4654   442.3   10.612      54.511
2015    6       22     4  37    7.4672   442.8   10.593      54.584
2015    6       22     4  43    7.4689   443.2   10.573      54.658
2015    6       22     4  49    7.4705   443.6   10.554      54.732
2015    6       22     4  55    7.4721   444.1   10.533      54.805
2015    6       22     5   1    7.4735   444.5   10.513      54.879
2015    6       22     5   7    7.4748   444.9   10.492      54.952
2015    6       22     5  13    7.4760   445.4   10.470      55.025
2015    6       22     5  19    7.4770   445.8   10.448      55.098
2015    6       22     5  25    7.4779   446.2   10.425      55.171
2015    6       22     5  31    7.4786   446.7   10.401      55.243
2015    6       22     5  37    7.4791   447.1   10.376      55.315
2015    6       22     5  43    7.4793   447.6   10.351      55.384
2015    6       22     5  49    7.4793   448.0   10.325      55.454
2015    6       22     5  55    7.4790   448.5   10.297      55.523
2015    6       22     6   1    7.4784   448.9   10.268      55.587
2015    6       22     6   7    7.4773   449.3   10.238      55.646
2015    6       22     6  13    7.4760   449.8   10.208      55.700
2015    6       22     6  19    7.4744   450.2   10.177      55.750
2015    6       22     6  25    7.4725   450.6   10.146      55.797
2015    6       22     6  31    7.4703   451.0   10.114      55.839
2015    6       22     6  37    7.4680   451.4   10.081      55.878
2015    6       22     6  43    7.4655   451.8   10.049      55.913
2015    6       22     6  49    7.4629   452.2   10.017      55.946
2015    6       22     6  55    7.4601   452.6    9.984      55.976
2015    6       22     7   1    7.4574   453.0    9.952      56.005
2015    6       22     7   7    7.4545   453.4    9.920      56.032
2015    6       22     7  13    7.4517   453.8    9.889      56.056
2015    6       22     7  19    7.4489   454.2    9.858      56.079
2015    6       22     7  25    7.4462   454.6    9.828      56.102
2015    6       22     7  31    7.4436   455.0    9.799      56.127
2015    6       22     7  37    7.4411   455.4    9.770      56.153
2015    6       22     7  43    7.4387   455.8    9.741      56.181
2015    6       22     7  49    7.4364   456.2    9.713      56.209
2015    6       22     7  55    7.4340   456.5    9.686      56.238
2015    6       22     8   1    7.4318   456.9    9.659      56.268
2015    6       22     8   7    7.4296   457.3    9.632      56.299
2015    6       22     8  13    7.4276   457.7    9.606      56.331
2015    6       22     8  19    7.4255   458.1    9.580      56.364
2015    6       22     8  25    7.4234   458.5    9.555      56.398
2015    6       22     8  31    7.4214   458.9    9.530      56.432
2015    6       22     8  37    7.4195   459.3    9.505      56.468
2015    6       22     8  43    7.4175   459.6    9.481      56.504
2015    6       22     8  49    7.4155   460.0    9.457      56.541
2015    6       22     8  55    7.4135   460.4    9.434      56.578
2015    6       22     9   1    7.4116   460.8    9.410      56.617
2015    6       22     9   7    7.4096   461.2    9.387      56.656
2015    6       22     9  13    7.4076   461.6    9.364      56.695
2015    6       22     9  19    7.4055   462.0    9.342      56.734
2015    6       22     9  25    7.4034   462.4    9.319      56.774
2015    6       22     9  31    7.4012   462.8    9.297      56.814
2015    6       22     9  37    7.3990   463.1    9.274      56.854
2015    6       22     9  43    7.3967   463.5    9.252      56.894
2015    6       22     9  49    7.3944   463.9    9.230      56.933
2015    6       22     9  55    7.3919   464.3    9.207      56.971
2015    6       22    10   1    7.3894   464.7    9.185      57.010
2015    6       22    10   7    7.3867   465.1    9.162      57.048
2015    6       22    10  13    7.3840   465.5    9.140      57.085
2015    6       22    10  19    7.3811   465.9    9.117      57.121
2015    6       22    10  25    7.3782   466.3    9.094      57.155
2015    6       22    10  31    7.3751   466.7    9.071      57.188
2015    6       22    10  37    7.3719   467.1    9.048      57.220
2015    6       22    10  43    7.3686   467.5    9.025      57.250
2015    6       22    10  49    7.3651   467.9    9.003      57.279
2015    6       22    10  55    7.3616   468.3    8.980      57.307
2015    6       22    11   1    7.3580   468.7    8.957      57.334
2015    6       22    11   7    7.3542   469.1    8.934      57.359
2015    6       22    11  13    7.3504   469.5    8.912      57.385
2015    6       22    11  19    7.3466   469.9    8.889      57.409
2015    6       22    11  25    7.3427   470.3    8.867      57.432
2015    6       22    11  31    7.3387   470.6    8.845      57.455
2015    6       22    11  37    7.3347   471.0    8.823      57.477
2015    6       22    11  43    7.3307   471.4    8.801      57.499
2015    6       22    11  49    7.3266   471.8    8.779      57.521
2015    6       22    11  55    7.3226   472.2    8.758      57.543
2015    6       22    12   1    7.3185   472.6    8.736      57.566
2015    6       22    12   7    7.3144   473.0    8.715      57.590
2015    6       22    12  13    7.3103   473.4    8.693      57.614
2015    6       22    12  19    7.3060   473.8    8.672      57.641
2015    6       22    12  25    7.3018   474.2    8.650      57.667
2015    6       22    12  31    7.2974   474.7    8.628      57.695
2015    6       22    12  37    7.2929   475.1    8.605      57.724
2015    6       22    12  43    7.2882   475.5    8.581      57.753
2015    6       22    12  49    7.2834   476.0    8.557      57.782
2015    6       22    12  55    7.2783   476.4    8.533      57.809
2015    6       22    13   1    7.2729   476.9    8.507      57.834
2015    6       22    13   7    7.2671   477.4    8.480      57.858
2015    6       22    13  13    7.2609   477.8    8.452      57.880
2015    6       22    13  19    7.2543   478.3    8.423      57.897
2015    6       22    13  25    7.2474   478.8    8.392      57.906
2015    6       22    13  31    7.2400   479.2    8.361      57.909
2015    6       22    13  37    7.2323   479.6    8.330      57.905
2015    6       22    13  43    7.2243   480.1    8.298      57.895
2015    6       22    13  49    7.2161   480.5    8.266      57.879
2015    6       22    13  55    7.2077   480.9    8.233      57.857
2015    6       22    14   1    7.1991   481.2    8.201      57.830
2015    6       22    14   7    7.1905   481.6    8.169      57.800
2015    6       22    14  13    7.1819   482.0    8.138      57.767
2015    6       22    14  19    7.1734   482.3    8.107      57.731
2015    6       22    14  25    7.1649   482.7    8.076      57.694
2015    6       22    14  31    7.1564   483.0    8.047      57.655
2015    6       22    14  37    7.1481   483.3    8.018      57.614
2015    6       22    14  43    7.1399   483.7    7.990      57.576
2015    6       22    14  49    7.1320   484.0    7.963      57.541
2015    6       22    14  55    7.1242   484.3    7.937      57.510
2015    6       22    15   1    7.1165   484.7    7.912      57.482
2015    6       22    15   7    7.1090   485.0    7.887      57.457
2015    6       22    15  13    7.1016   485.3    7.863      57.434
2015    6       22    15  19    7.0943   485.7    7.840      57.412
2015    6       22    15  25    7.0871   486.0    7.817      57.392
2015    6       22    15  31    7.0799   486.3    7.794      57.374
2015    6       22    15  37    7.0728   486.6    7.773      57.358
2015    6       22    15  43    7.0657   487.0    7.751      57.343
2015    6       22    15  49    7.0586   487.3    7.730      57.330
2015    6       22    15  55    7.0515   487.6    7.709      57.319
2015    6       22    16   1    7.0445   488.0    7.688      57.309
2015    6       22    16   7    7.0375   488.3    7.667      57.299
2015    6       22    16  13    7.0305   488.6    7.647      57.289
2015    6       22    16  19    7.0236   488.9    7.628      57.280
2015    6       22    16  25    7.0166   489.2    7.608      57.271
2015    6       22    16  31    7.0097   489.5    7.589      57.262
2015    6       22    16  37    7.0028   489.8    7.570      57.254
2015    6       22    16  43    6.9960   490.1    7.551      57.247
2015    6       22    16  49    6.9891   490.4    7.533      57.240
2015    6       22    16  55    6.9823   490.7    7.515      57.235
2015    6       22    17   1    6.9756   491.0    7.497      57.230
2015    6       22    17   7    6.9688   491.3    7.479      57.226
2015    6       22    17  13    6.9622   491.6    7.462      57.222
2015    6       22    17  19    6.9555   491.9    7.445      57.220
2015    6       22    17  25    6.9488   492.2    7.428      57.218
2015    6       22    17  31    6.9421   492.5    7.411      57.217
2015    6       22    17  37    6.9354   492.9    7.394      57.217
2015    6       22    17  43    6.9287   493.2    7.377      57.217
2015    6       22    17  49    6.9220   493.5    7.360      57.217
2015    6       22    17  55    6.9152   493.8    7.343      57.217
2015    6       22    18   1    6.9084   494.2    7.327      57.216
2015    6       22    18   7    6.9014   494.5    7.309      57.215
2015    6       22    18  13    6.8944   494.8    7.292      57.215
2015    6       22    18  19    6.8872   495.2    7.274      57.212
2015    6       22    18  25    6.8799   495.5    7.256      57.208
2015    6       22    18  31    6.8724   495.9    7.238      57.202
2015    6       22    18  37    6.8649   496.2    7.220      57.192
2015    6       22    18  43    6.8572   496.5    7.201      57.181
2015    6       22    18  49    6.8495   496.8    7.183      57.166
2015    6       22    18  55    6.8416   497.1    7.165      57.150
2015    6       22    19   1    6.8338   497.4    7.146      57.131
2015    6       22    19   7    6.8259   497.7    7.128      57.111
2015    6       22    19  13    6.8180   497.9    7.110      57.090
2015    6       22    19  19    6.8102   498.2    7.093      57.067
2015    6       22    19  25    6.8023   498.5    7.075      57.045
2015    6       22    19  31    6.7946   498.7    7.059      57.022
2015    6       22    19  37    6.7869   499.0    7.042      57.002
2015    6       22    19  43    6.7793   499.2    7.026      56.985
2015    6       22    19  49    6.7717   499.5    7.010      56.970
2015    6       22    19  55    6.7643   499.8    6.995      56.958
2015    6       22    20   1    6.7569   500.0    6.979      56.947
2015    6       22    20   7    6.7496   500.3    6.964      56.938
2015    6       22    20  13    6.7423   500.6    6.949      56.929
2015    6       22    20  19    6.7351   500.9    6.935      56.922
2015    6       22    20  25    6.7278   501.1    6.920      56.915
2015    6       22    20  31    6.7206   501.4    6.906      56.908
2015    6       22    20  37    6.7134   501.7    6.891      56.900
2015    6       22    20  43    6.7063   502.0    6.877      56.892
2015    6       22    20  49    6.6991   502.2    6.863      56.882
2015    6       22    20  55    6.6920   502.5    6.849      56.871
2015    6       22    21   1    6.6849   502.7    6.835      56.860
2015    6       22    21   7    6.6779   502.9    6.822      56.849
2015    6       22    21  13    6.6708   503.2    6.808      56.837
2015    6       22    21  19    6.6639   503.4    6.795      56.827
2015    6       22    21  25    6.6570   503.7    6.781      56.819
2015    6       22    21  31    6.6502   503.9    6.768      56.813
2015    6       22    21  37    6.6434   504.2    6.755      56.807
2015    6       22    21  43    6.6368   504.5    6.743      56.803
2015    6       22    21  49    6.6302   504.7    6.730      56.800
2015    6       22    21  55    6.6237   505.0    6.718      56.796
2015    6       22    22   1    6.6173   505.3    6.706      56.793
2015    6       22    22   7    6.6109   505.5    6.693      56.789
2015    6       22    22  13    6.6044   505.8    6.681      56.786
2015    6       22    22  19    6.5981   506.1    6.669      56.782
2015    6       22    22  25    6.5916   506.3    6.656      56.779
2015    6       22    22  31    6.5853   506.6    6.644      56.777
2015    6       22    22  37    6.5788   506.9    6.631      56.774
2015    6       22    22  43    6.5724   507.2    6.619      56.771
2015    6       22    22  49    6.5658   507.5    6.606      56.768
2015    6       22    22  55    6.5593   507.7    6.593      56.766
2015    6       22    23   1    6.5527   508.0    6.579      56.763
2015    6       22    23   7    6.5461   508.3    6.566      56.759
2015    6       22    23  13    6.5394   508.6    6.553      56.755
2015    6       22    23  19    6.5328   508.9    6.539      56.750
2015    6       22    23  25    6.5261   509.2    6.526      56.745
2015    6       22    23  31    6.5195   509.5    6.512      56.738
2015    6       22    23  37    6.5129   509.8    6.499      56.730
2015    6       22    23  43    6.5064   510.1    6.485      56.721
2015    6       22    23  49    6.4999   510.3    6.472      56.711
2015    6       22    23  55    6.4935   510.6    6.459      56.701
2015    6       23     0   1    6.4872   510.8    6.446      56.689
