year    month   day   hour  minute  B_enl V_enl   n_enl       T_enl
[year] [month] [day] [hour][minute] [nT]  [km/s]  [cm-3]      [kK]
2015    6       14     0   3    5.6054   419.4    9.181      43.218
2015    6       14     0   9    5.6143   419.6    9.181      43.293
2015    6       14     0  15    5.6232   419.9    9.180      43.367
2015    6       14     0  21    5.6321   420.1    9.179      43.439
2015    6       14     0  27    5.6410   420.3    9.177      43.510
2015    6       14     0  33    5.6499   420.5    9.176      43.580
2015    6       14     0  39    5.6588   420.7    9.174      43.650
2015    6       14     0  45    5.6678   420.9    9.173      43.718
2015    6       14     0  51    5.6767   421.2    9.171      43.786
2015    6       14     0  57    5.6857   421.4    9.170      43.854
2015    6       14     1   3    5.6948   421.6    9.168      43.921
2015    6       14     1   9    5.7039   421.8    9.167      43.989
2015    6       14     1  15    5.7130   422.0    9.166      44.056
2015    6       14     1  21    5.7222   422.2    9.165      44.123
2015    6       14     1  28    5.7315   422.4    9.164      44.191
2015    6       14     1  34    5.7409   422.7    9.163      44.259
2015    6       14     1  40    5.7503   422.9    9.163      44.328
2015    6       14     1  46    5.7599   423.1    9.163      44.397
2015    6       14     1  52    5.7695   423.3    9.164      44.467
2015    6       14     1  58    5.7793   423.6    9.165      44.537
2015    6       14     2   4    5.7891   423.8    9.167      44.609
2015    6       14     2  10    5.7991   424.0    9.169      44.682
2015    6       14     2  16    5.8091   424.2    9.172      44.756
2015    6       14     2  22    5.8193   424.5    9.176      44.831
2015    6       14     2  28    5.8295   424.7    9.181      44.908
2015    6       14     2  34    5.8399   425.0    9.186      44.986
2015    6       14     2  40    5.8504   425.2    9.193      45.067
2015    6       14     2  46    5.8612   425.4    9.201      45.148
2015    6       14     2  52    5.8720   425.7    9.211      45.230
2015    6       14     2  58    5.8830   425.9    9.221      45.315
2015    6       14     3   4    5.8941   426.1    9.234      45.403
2015    6       14     3  10    5.9053   426.4    9.247      45.497
2015    6       14     3  16    5.9166   426.7    9.262      45.595
2015    6       14     3  22    5.9280   426.9    9.278      45.699
2015    6       14     3  28    5.9395   427.2    9.295      45.807
2015    6       14     3  34    5.9511   427.5    9.313      45.919
2015    6       14     3  40    5.9626   427.7    9.333      46.037
2015    6       14     3  46    5.9742   428.0    9.353      46.159
2015    6       14     3  52    5.9858   428.3    9.375      46.287
2015    6       14     3  58    5.9974   428.6    9.397      46.420
2015    6       14     4   4    6.0090   428.9    9.420      46.558
2015    6       14     4  10    6.0206   429.2    9.444      46.700
2015    6       14     4  16    6.0320   429.5    9.469      46.850
2015    6       14     4  22    6.0434   429.8    9.494      47.008
2015    6       14     4  28    6.0547   430.1    9.519      47.173
2015    6       14     4  34    6.0659   430.4    9.544      47.343
2015    6       14     4  40    6.0770   430.8    9.570      47.518
2015    6       14     4  46    6.0879   431.1    9.594      47.696
2015    6       14     4  52    6.0987   431.5    9.619      47.879
2015    6       14     4  58    6.1093   431.8    9.642      48.066
2015    6       14     5   4    6.1197   432.2    9.665      48.255
2015    6       14     5  11    6.1300   432.6    9.687      48.445
2015    6       14     5  17    6.1401   433.0    9.708      48.637
2015    6       14     5  23    6.1500   433.3    9.728      48.828
2015    6       14     5  29    6.1597   433.7    9.747      49.019
2015    6       14     5  35    6.1692   434.2    9.764      49.211
2015    6       14     5  41    6.1786   434.6    9.780      49.404
2015    6       14     5  47    6.1877   435.0    9.794      49.593
2015    6       14     5  53    6.1967   435.4    9.807      49.779
2015    6       14     5  59    6.2055   435.8    9.818      49.962
2015    6       14     6   5    6.2142   436.3    9.827      50.143
2015    6       14     6  11    6.2227   436.7    9.835      50.320
2015    6       14     6  17    6.2311   437.2    9.841      50.494
2015    6       14     6  23    6.2392   437.6    9.846      50.664
2015    6       14     6  29    6.2472   438.1    9.849      50.831
2015    6       14     6  35    6.2550   438.5    9.851      50.994
2015    6       14     6  41    6.2627   439.0    9.850      51.153
2015    6       14     6  47    6.2702   439.4    9.849      51.309
2015    6       14     6  53    6.2775   439.9    9.845      51.462
2015    6       14     6  59    6.2846   440.4    9.841      51.611
2015    6       14     7   5    6.2915   440.8    9.835      51.755
2015    6       14     7  11    6.2983   441.3    9.828      51.895
2015    6       14     7  17    6.3050   441.7    9.819      52.032
2015    6       14     7  23    6.3116   442.2    9.810      52.165
2015    6       14     7  29    6.3181   442.6    9.800      52.296
2015    6       14     7  35    6.3244   443.1    9.789      52.424
2015    6       14     7  42    6.3308   443.5    9.777      52.550
2015    6       14     7  48    6.3370   444.0    9.765      52.675
2015    6       14     7  54    6.3433   444.4    9.751      52.798
2015    6       14     8   0    6.3494   444.9    9.738      52.920
2015    6       14     8   6    6.3556   445.3    9.724      53.042
2015    6       14     8  12    6.3617   445.7    9.710      53.163
2015    6       14     8  18    6.3679   446.2    9.695      53.285
2015    6       14     8  24    6.3740   446.6    9.680      53.408
2015    6       14     8  30    6.3802   447.1    9.665      53.531
2015    6       14     8  36    6.3863   447.5    9.650      53.655
2015    6       14     8  42    6.3924   448.0    9.634      53.780
2015    6       14     8  48    6.3985   448.4    9.618      53.906
2015    6       14     8  54    6.4046   448.9    9.602      54.033
2015    6       14     9   0    6.4106   449.3    9.586      54.161
2015    6       14     9   6    6.4166   449.8    9.570      54.290
2015    6       14     9  12    6.4226   450.2    9.554      54.421
2015    6       14     9  18    6.4286   450.7    9.538      54.552
2015    6       14     9  24    6.4345   451.1    9.521      54.685
2015    6       14     9  30    6.4404   451.6    9.505      54.818
2015    6       14     9  36    6.4462   452.1    9.489      54.951
2015    6       14     9  42    6.4520   452.5    9.472      55.086
2015    6       14     9  48    6.4577   453.0    9.456      55.220
2015    6       14     9  54    6.4634   453.5    9.440      55.354
2015    6       14    10   0    6.4690   454.0    9.424      55.488
2015    6       14    10   6    6.4746   454.4    9.408      55.622
2015    6       14    10  12    6.4802   454.9    9.392      55.755
2015    6       14    10  18    6.4857   455.4    9.377      55.888
2015    6       14    10  24    6.4911   455.9    9.361      56.019
2015    6       14    10  30    6.4966   456.3    9.347      56.151
2015    6       14    10  36    6.5019   456.8    9.332      56.281
2015    6       14    10  42    6.5073   457.3    9.318      56.410
2015    6       14    10  48    6.5126   457.8    9.305      56.539
2015    6       14    10  54    6.5179   458.2    9.293      56.666
2015    6       14    11   0    6.5231   458.7    9.281      56.793
2015    6       14    11   6    6.5284   459.2    9.270      56.919
2015    6       14    11  12    6.5336   459.6    9.260      57.046
2015    6       14    11  18    6.5389   460.1    9.251      57.173
2015    6       14    11  24    6.5442   460.6    9.244      57.298
2015    6       14    11  30    6.5496   461.0    9.238      57.421
2015    6       14    11  36    6.5550   461.4    9.233      57.546
2015    6       14    11  42    6.5603   461.9    9.229      57.676
2015    6       14    11  48    6.5657   462.4    9.227      57.809
2015    6       14    11  54    6.5709   462.9    9.225      57.947
2015    6       14    12   1    6.5761   463.3    9.224      58.088
2015    6       14    12   7    6.5810   463.8    9.223      58.232
2015    6       14    12  13    6.5859   464.3    9.222      58.380
2015    6       14    12  19    6.5905   464.9    9.221      58.532
2015    6       14    12  25    6.5949   465.4    9.220      58.685
2015    6       14    12  31    6.5988   465.9    9.219      58.837
2015    6       14    12  37    6.6026   466.4    9.217      58.989
2015    6       14    12  43    6.6061   467.0    9.215      59.141
2015    6       14    12  49    6.6093   467.5    9.212      59.292
2015    6       14    12  55    6.6121   468.0    9.208      59.445
2015    6       14    13   1    6.6148   468.6    9.203      59.597
2015    6       14    13   7    6.6172   469.1    9.198      59.747
2015    6       14    13  13    6.6195   469.7    9.192      59.896
2015    6       14    13  19    6.6217   470.2    9.186      60.042
2015    6       14    13  25    6.6238   470.8    9.179      60.187
2015    6       14    13  31    6.6258   471.3    9.171      60.330
2015    6       14    13  37    6.6279   471.8    9.163      60.470
2015    6       14    13  43    6.6298   472.4    9.155      60.608
2015    6       14    13  49    6.6319   472.9    9.146      60.746
2015    6       14    13  55    6.6338   473.5    9.136      60.884
2015    6       14    14   1    6.6358   474.0    9.126      61.021
2015    6       14    14   7    6.6377   474.6    9.115      61.160
2015    6       14    14  13    6.6396   475.2    9.104      61.298
2015    6       14    14  19    6.6414   475.8    9.091      61.437
2015    6       14    14  25    6.6432   476.4    9.079      61.576
2015    6       14    14  31    6.6448   477.0    9.065      61.715
2015    6       14    14  37    6.6464   477.6    9.051      61.854
2015    6       14    14  43    6.6478   478.2    9.036      61.994
2015    6       14    14  49    6.6491   478.8    9.021      62.134
2015    6       14    14  55    6.6503   479.4    9.005      62.275
2015    6       14    15   1    6.6514   480.0    8.988      62.416
2015    6       14    15   7    6.6524   480.7    8.970      62.558
2015    6       14    15  13    6.6532   481.3    8.952      62.701
2015    6       14    15  19    6.6539   481.9    8.933      62.845
2015    6       14    15  25    6.6546   482.5    8.914      62.990
2015    6       14    15  31    6.6550   483.2    8.894      63.137
2015    6       14    15  37    6.6553   483.8    8.873      63.285
2015    6       14    15  43    6.6555   484.4    8.852      63.433
2015    6       14    15  49    6.6555   485.1    8.830      63.582
2015    6       14    15  55    6.6553   485.7    8.806      63.731
2015    6       14    16   1    6.6550   486.3    8.783      63.880
2015    6       14    16   7    6.6545   487.0    8.758      64.029
2015    6       14    16  13    6.6538   487.6    8.733      64.178
2015    6       14    16  19    6.6529   488.2    8.706      64.327
2015    6       14    16  26    6.6518   488.9    8.679      64.475
2015    6       14    16  32    6.6504   489.5    8.651      64.622
2015    6       14    16  38    6.6488   490.1    8.622      64.769
2015    6       14    16  44    6.6469   490.8    8.593      64.913
2015    6       14    16  50    6.6448   491.4    8.562      65.053
2015    6       14    16  56    6.6423   492.1    8.531      65.192
2015    6       14    17   2    6.6396   492.7    8.498      65.328
2015    6       14    17   8    6.6365   493.4    8.465      65.461
2015    6       14    17  14    6.6332   494.0    8.431      65.587
2015    6       14    17  20    6.6295   494.7    8.396      65.707
2015    6       14    17  26    6.6256   495.4    8.361      65.821
2015    6       14    17  32    6.6213   496.0    8.325      65.929
2015    6       14    17  38    6.6168   496.7    8.289      66.032
2015    6       14    17  44    6.6119   497.4    8.252      66.131
2015    6       14    17  50    6.6068   498.1    8.215      66.225
2015    6       14    17  56    6.6013   498.8    8.177      66.315
2015    6       14    18   2    6.5956   499.5    8.139      66.401
2015    6       14    18   8    6.5894   500.2    8.101      66.483
2015    6       14    18  14    6.5831   500.9    8.063      66.561
2015    6       14    18  20    6.5763   501.6    8.024      66.634
2015    6       14    18  26    6.5694   502.3    7.985      66.703
2015    6       14    18  32    6.5619   503.0    7.945      66.766
2015    6       14    18  38    6.5542   503.7    7.905      66.826
2015    6       14    18  44    6.5461   504.4    7.865      66.881
2015    6       14    18  50    6.5377   505.1    7.825      66.933
2015    6       14    18  56    6.5290   505.8    7.785      66.981
2015    6       14    19   2    6.5201   506.5    7.746      67.025
2015    6       14    19   8    6.5109   507.2    7.706      67.066
2015    6       14    19  14    6.5015   507.9    7.666      67.104
2015    6       14    19  20    6.4918   508.6    7.627      67.140
2015    6       14    19  26    6.4821   509.3    7.588      67.175
2015    6       14    19  32    6.4720   510.0    7.550      67.208
2015    6       14    19  38    6.4619   510.7    7.512      67.240
2015    6       14    19  44    6.4515   511.4    7.474      67.271
2015    6       14    19  50    6.4411   512.1    7.437      67.305
2015    6       14    19  56    6.4305   512.8    7.399      67.342
2015    6       14    20   2    6.4197   513.5    7.362      67.376
2015    6       14    20   8    6.4087   514.2    7.325      67.409
2015    6       14    20  14    6.3976   514.9    7.289      67.440
2015    6       14    20  20    6.3862   515.6    7.252      67.469
2015    6       14    20  26    6.3748   516.3    7.216      67.496
2015    6       14    20  32    6.3631   516.9    7.180      67.520
2015    6       14    20  38    6.3516   517.6    7.145      67.542
2015    6       14    20  45    6.3398   518.3    7.110      67.562
2015    6       14    20  51    6.3282   518.9    7.076      67.579
2015    6       14    20  57    6.3164   519.5    7.042      67.593
2015    6       14    21   3    6.3048   520.1    7.008      67.604
2015    6       14    21   9    6.2931   520.7    6.976      67.610
2015    6       14    21  15    6.2817   521.3    6.944      67.613
2015    6       14    21  21    6.2702   521.9    6.913      67.615
2015    6       14    21  27    6.2590   522.4    6.883      67.615
2015    6       14    21  33    6.2478   523.0    6.853      67.614
2015    6       14    21  39    6.2368   523.5    6.824      67.612
2015    6       14    21  45    6.2257   524.0    6.796      67.611
2015    6       14    21  51    6.2148   524.6    6.768      67.609
2015    6       14    21  57    6.2038   525.1    6.741      67.608
2015    6       14    22   3    6.1930   525.6    6.714      67.608
2015    6       14    22   9    6.1821   526.2    6.687      67.612
2015    6       14    22  15    6.1713   526.7    6.661      67.619
2015    6       14    22  21    6.1604   527.2    6.635      67.629
2015    6       14    22  27    6.1497   527.8    6.610      67.642
2015    6       14    22  33    6.1387   528.3    6.584      67.658
2015    6       14    22  39    6.1279   528.9    6.558      67.676
2015    6       14    22  45    6.1169   529.4    6.532      67.697
2015    6       14    22  51    6.1059   530.0    6.506      67.719
2015    6       14    22  57    6.0947   530.5    6.480      67.742
2015    6       14    23   3    6.0836   531.1    6.454      67.765
2015    6       14    23   9    6.0723   531.6    6.428      67.789
2015    6       14    23  15    6.0610   532.2    6.401      67.813
2015    6       14    23  21    6.0494   532.7    6.374      67.835
2015    6       14    23  27    6.0379   533.2    6.347      67.855
2015    6       14    23  33    6.0261   533.8    6.319      67.870
2015    6       14    23  40    6.0143   534.3    6.291      67.883
2015    6       14    23  46    6.0023   534.9    6.262      67.893
2015    6       14    23  52    5.9903   535.4    6.234      67.899
2015    6       14    23  58    5.9781   535.9    6.204      67.902
2015    6       15     0   4    5.9659   536.5    6.175      67.901
2015    6       15     0  10    5.9534   537.0    6.145      67.895
2015    6       15     0  16    5.9409   537.5    6.115      67.886
2015    6       15     0  22    5.9281   538.1    6.084      67.872
2015    6       15     0  28    5.9153   538.6    6.053      67.853
2015    6       15     0  34    5.9022   539.2    6.022      67.828
2015    6       15     0  40    5.8890   539.7    5.990      67.792
2015    6       15     0  46    5.8756   540.3    5.959      67.749
2015    6       15     0  52    5.8622   540.8    5.927      67.699
2015    6       15     0  58    5.8484   541.4    5.896      67.642
2015    6       15     1   4    5.8346   542.0    5.864      67.580
2015    6       15     1  10    5.8205   542.5    5.833      67.513
2015    6       15     1  16    5.8063   543.1    5.802      67.442
2015    6       15     1  22    5.7919   543.6    5.771      67.367
2015    6       15     1  28    5.7773   544.2    5.739      67.290
2015    6       15     1  34    5.7625   544.8    5.708      67.210
2015    6       15     1  40    5.7476   545.3    5.677      67.126
2015    6       15     1  46    5.7324   545.9    5.647      67.037
2015    6       15     1  52    5.7171   546.4    5.616      66.945
2015    6       15     1  58    5.7014   547.0    5.584      66.853
2015    6       15     2   4    5.6857   547.6    5.553      66.759
2015    6       15     2  10    5.6696   548.2    5.521      66.659
2015    6       15     2  16    5.6534   548.7    5.490      66.554
2015    6       15     2  22    5.6369   549.3    5.458      66.445
2015    6       15     2  28    5.6204   549.8    5.427      66.331
2015    6       15     2  34    5.6037   550.3    5.395      66.213
2015    6       15     2  40    5.5870   550.8    5.365      66.092
2015    6       15     2  46    5.5701   551.3    5.334      65.968
2015    6       15     2  52    5.5533   551.8    5.304      65.842
2015    6       15     2  58    5.5365   552.2    5.274      65.715
2015    6       15     3   4    5.5197   552.7    5.244      65.587
2015    6       15     3  10    5.5029   553.1    5.216      65.458
2015    6       15     3  16    5.4862   553.5    5.188      65.328
2015    6       15     3  22    5.4695   554.0    5.160      65.200
2015    6       15     3  28    5.4530   554.4    5.134      65.076
2015    6       15     3  34    5.4365   554.8    5.108      64.954
2015    6       15     3  40    5.4202   555.2    5.082      64.836
2015    6       15     3  47    5.4039   555.6    5.057      64.718
2015    6       15     3  53    5.3877   556.0    5.032      64.603
2015    6       15     3  59    5.3716   556.4    5.007      64.487
2015    6       15     4   5    5.3556   556.7    4.983      64.373
2015    6       15     4  11    5.3397   557.1    4.959      64.259
2015    6       15     4  17    5.3238   557.4    4.936      64.144
2015    6       15     4  23    5.3080   557.8    4.913      64.029
2015    6       15     4  29    5.2923   558.1    4.890      63.913
2015    6       15     4  35    5.2768   558.4    4.868      63.796
2015    6       15     4  41    5.2613   558.7    4.846      63.677
2015    6       15     4  47    5.2460   559.0    4.824      63.556
2015    6       15     4  53    5.2307   559.2    4.803      63.435
2015    6       15     4  59    5.2156   559.5    4.781      63.311
2015    6       15     5   5    5.2006   559.7    4.761      63.186
2015    6       15     5  11    5.1857   560.0    4.740      63.059
2015    6       15     5  17    5.1709   560.2    4.720      62.931
2015    6       15     5  23    5.1561   560.4    4.700      62.800
2015    6       15     5  29    5.1415   560.6    4.681      62.669
2015    6       15     5  35    5.1269   560.9    4.661      62.535
2015    6       15     5  41    5.1125   561.1    4.642      62.400
2015    6       15     5  47    5.0981   561.3    4.624      62.263
2015    6       15     5  53    5.0838   561.4    4.605      62.126
2015    6       15     5  59    5.0696   561.6    4.587      61.987
2015    6       15     6   5    5.0554   561.8    4.569      61.847
2015    6       15     6  11    5.0414   562.0    4.552      61.706
2015    6       15     6  17    5.0274   562.1    4.534      61.565
2015    6       15     6  23    5.0135   562.3    4.517      61.424
2015    6       15     6  29    4.9996   562.4    4.500      61.283
2015    6       15     6  36    4.9859   562.5    4.484      61.142
2015    6       15     6  42    4.9722   562.7    4.468      61.002
2015    6       15     6  48    4.9587   562.8    4.452      60.862
2015    6       15     6  54    4.9452   562.9    4.436      60.724
2015    6       15     7   0    4.9319   563.0    4.421      60.587
2015    6       15     7   6    4.9186   563.1    4.406      60.452
2015    6       15     7  12    4.9055   563.2    4.391      60.317
2015    6       15     7  18    4.8925   563.3    4.377      60.184
2015    6       15     7  24    4.8796   563.4    4.363      60.053
2015    6       15     7  30    4.8668   563.4    4.350      59.923
2015    6       15     7  36    4.8541   563.5    4.337      59.794
2015    6       15     7  42    4.8415   563.5    4.324      59.667
2015    6       15     7  48    4.8291   563.6    4.312      59.541
2015    6       15     7  54    4.8167   563.6    4.300      59.417
2015    6       15     8   0    4.8045   563.7    4.288      59.294
2015    6       15     8   6    4.7924   563.7    4.277      59.173
2015    6       15     8  12    4.7805   563.7    4.266      59.053
2015    6       15     8  18    4.7686   563.7    4.255      58.935
2015    6       15     8  24    4.7569   563.7    4.245      58.818
2015    6       15     8  30    4.7452   563.7    4.235      58.703
2015    6       15     8  36    4.7336   563.7    4.226      58.590
2015    6       15     8  42    4.7221   563.7    4.216      58.479
2015    6       15     8  48    4.7107   563.7    4.207      58.370
2015    6       15     8  54    4.6993   563.7    4.198      58.263
2015    6       15     9   0    4.6881   563.7    4.190      58.158
2015    6       15     9   6    4.6768   563.7    4.181      58.055
2015    6       15     9  12    4.6657   563.7    4.173      57.953
2015    6       15     9  18    4.6546   563.7    4.164      57.852
2015    6       15     9  24    4.6436   563.7    4.156      57.754
2015    6       15     9  30    4.6326   563.7    4.148      57.656
2015    6       15     9  36    4.6217   563.7    4.140      57.561
2015    6       15     9  42    4.6108   563.7    4.132      57.467
2015    6       15     9  48    4.6001   563.7    4.124      57.373
2015    6       15     9  54    4.5894   563.7    4.116      57.282
2015    6       15    10   0    4.5788   563.7    4.108      57.191
2015    6       15    10   6    4.5682   563.7    4.101      57.102
2015    6       15    10  12    4.5577   563.7    4.093      57.013
2015    6       15    10  18    4.5473   563.7    4.085      56.926
2015    6       15    10  24    4.5370   563.7    4.077      56.838
2015    6       15    10  30    4.5267   563.7    4.069      56.751
2015    6       15    10  36    4.5165   563.7    4.061      56.663
2015    6       15    10  43    4.5063   563.8    4.053      56.576
2015    6       15    10  49    4.4962   563.8    4.045      56.489
2015    6       15    10  55    4.4862   563.8    4.037      56.402
2015    6       15    11   1    4.4762   563.8    4.029      56.315
2015    6       15    11   7    4.4663   563.9    4.020      56.228
2015    6       15    11  13    4.4564   563.9    4.012      56.142
2015    6       15    11  19    4.4466   563.9    4.004      56.055
2015    6       15    11  25    4.4369   563.9    3.996      55.968
2015    6       15    11  31    4.4272   563.9    3.987      55.882
2015    6       15    11  37    4.4176   563.9    3.979      55.794
2015    6       15    11  43    4.4080   563.9    3.971      55.707
2015    6       15    11  49    4.3986   563.9    3.962      55.619
2015    6       15    11  55    4.3892   563.9    3.954      55.531
2015    6       15    12   1    4.3799   563.9    3.946      55.443
2015    6       15    12   7    4.3707   563.9    3.938      55.354
2015    6       15    12  13    4.3616   563.8    3.930      55.266
2015    6       15    12  19    4.3525   563.8    3.922      55.177
2015    6       15    12  25    4.3436   563.8    3.915      55.088
2015    6       15    12  31    4.3347   563.7    3.907      54.999
2015    6       15    12  37    4.3259   563.7    3.900      54.910
2015    6       15    12  43    4.3172   563.6    3.892      54.821
2015    6       15    12  49    4.3086   563.6    3.885      54.732
2015    6       15    12  55    4.3000   563.5    3.878      54.642
2015    6       15    13   1    4.2915   563.5    3.871      54.552
2015    6       15    13   7    4.2831   563.4    3.864      54.461
2015    6       15    13  13    4.2748   563.4    3.857      54.370
2015    6       15    13  19    4.2665   563.3    3.851      54.278
2015    6       15    13  25    4.2583   563.2    3.844      54.186
2015    6       15    13  31    4.2501   563.2    3.837      54.094
2015    6       15    13  38    4.2420   563.1    3.831      54.002
2015    6       15    13  44    4.2339   563.1    3.824      53.909
2015    6       15    13  50    4.2260   563.0    3.818      53.817
2015    6       15    13  56    4.2180   562.9    3.811      53.724
2015    6       15    14   2    4.2102   562.8    3.805      53.632
2015    6       15    14   8    4.2024   562.8    3.799      53.541
2015    6       15    14  14    4.1947   562.7    3.792      53.450
2015    6       15    14  20    4.1871   562.6    3.786      53.359
2015    6       15    14  26    4.1795   562.5    3.780      53.269
2015    6       15    14  32    4.1720   562.4    3.774      53.179
2015    6       15    14  38    4.1645   562.4    3.767      53.089
2015    6       15    14  44    4.1571   562.3    3.761      53.000
2015    6       15    14  50    4.1498   562.2    3.755      52.910
2015    6       15    14  56    4.1425   562.1    3.750      52.821
2015    6       15    15   2    4.1353   562.0    3.744      52.730
2015    6       15    15   8    4.1282   561.9    3.738      52.640
2015    6       15    15  14    4.1211   561.8    3.733      52.549
2015    6       15    15  20    4.1141   561.7    3.727      52.458
2015    6       15    15  26    4.1071   561.6    3.722      52.367
2015    6       15    15  32    4.1002   561.4    3.716      52.276
2015    6       15    15  38    4.0933   561.3    3.711      52.185
2015    6       15    15  44    4.0865   561.2    3.706      52.094
2015    6       15    15  50    4.0797   561.1    3.701      52.003
2015    6       15    15  56    4.0730   561.0    3.697      51.913
2015    6       15    16   2    4.0663   560.9    3.692      51.824
2015    6       15    16   8    4.0596   560.7    3.687      51.736
2015    6       15    16  14    4.0530   560.6    3.683      51.649
2015    6       15    16  20    4.0464   560.5    3.678      51.564
2015    6       15    16  26    4.0398   560.4    3.674      51.479
2015    6       15    16  32    4.0333   560.3    3.669      51.395
2015    6       15    16  38    4.0268   560.2    3.665      51.313
2015    6       15    16  44    4.0203   560.0    3.661      51.232
2015    6       15    16  50    4.0138   559.9    3.656      51.152
2015    6       15    16  56    4.0074   559.8    3.652      51.073
2015    6       15    17   2    4.0010   559.7    3.648      50.995
2015    6       15    17   8    3.9946   559.5    3.643      50.918
2015    6       15    17  14    3.9882   559.4    3.639      50.843
2015    6       15    17  20    3.9819   559.3    3.635      50.768
2015    6       15    17  26    3.9756   559.2    3.631      50.694
2015    6       15    17  32    3.9693   559.0    3.626      50.620
2015    6       15    17  38    3.9630   558.9    3.622      50.547
2015    6       15    17  44    3.9568   558.8    3.618      50.474
2015    6       15    17  50    3.9506   558.6    3.614      50.401
2015    6       15    17  56    3.9445   558.5    3.610      50.329
2015    6       15    18   2    3.9384   558.4    3.606      50.257
2015    6       15    18   9    3.9323   558.2    3.602      50.186
2015    6       15    18  15    3.9262   558.1    3.598      50.116
2015    6       15    18  21    3.9202   558.0    3.594      50.046
2015    6       15    18  27    3.9143   557.8    3.590      49.977
2015    6       15    18  33    3.9083   557.7    3.587      49.908
2015    6       15    18  39    3.9025   557.5    3.583      49.840
2015    6       15    18  45    3.8966   557.4    3.580      49.772
2015    6       15    18  51    3.8909   557.2    3.576      49.705
2015    6       15    18  57    3.8851   557.1    3.573      49.639
2015    6       15    19   3    3.8794   556.9    3.570      49.574
2015    6       15    19   9    3.8738   556.8    3.567      49.509
2015    6       15    19  15    3.8682   556.6    3.564      49.445
2015    6       15    19  21    3.8626   556.4    3.561      49.382
2015    6       15    19  27    3.8571   556.3    3.558      49.319
2015    6       15    19  33    3.8516   556.1    3.555      49.257
2015    6       15    19  39    3.8462   555.9    3.553      49.196
2015    6       15    19  45    3.8408   555.8    3.550      49.136
2015    6       15    19  51    3.8355   555.6    3.548      49.075
2015    6       15    19  57    3.8302   555.4    3.546      49.016
2015    6       15    20   3    3.8249   555.3    3.543      48.956
2015    6       15    20   9    3.8197   555.1    3.541      48.897
2015    6       15    20  15    3.8145   554.9    3.539      48.837
2015    6       15    20  21    3.8093   554.8    3.537      48.778
2015    6       15    20  27    3.8042   554.6    3.535      48.718
2015    6       15    20  33    3.7990   554.4    3.533      48.657
2015    6       15    20  39    3.7940   554.2    3.531      48.596
2015    6       15    20  45    3.7889   554.0    3.529      48.535
2015    6       15    20  51    3.7839   553.8    3.527      48.473
2015    6       15    20  57    3.7788   553.7    3.525      48.410
2015    6       15    21   3    3.7738   553.5    3.524      48.347
2015    6       15    21   9    3.7689   553.3    3.522      48.283
2015    6       15    21  16    3.7639   553.1    3.520      48.219
2015    6       15    21  22    3.7590   552.9    3.518      48.154
2015    6       15    21  28    3.7541   552.7    3.516      48.089
2015    6       15    21  34    3.7493   552.5    3.514      48.024
2015    6       15    21  40    3.7445   552.3    3.512      47.958
2015    6       15    21  46    3.7396   552.1    3.510      47.891
2015    6       15    21  52    3.7348   551.9    3.508      47.825
2015    6       15    21  58    3.7301   551.7    3.506      47.758
2015    6       15    22   4    3.7254   551.6    3.504      47.690
2015    6       15    22  10    3.7207   551.4    3.502      47.623
2015    6       15    22  16    3.7160   551.2    3.500      47.555
2015    6       15    22  22    3.7113   551.0    3.498      47.486
2015    6       15    22  28    3.7067   550.8    3.496      47.418
2015    6       15    22  34    3.7021   550.6    3.494      47.349
2015    6       15    22  40    3.6975   550.4    3.492      47.280
2015    6       15    22  46    3.6929   550.2    3.490      47.211
2015    6       15    22  52    3.6884   550.0    3.488      47.142
2015    6       15    22  58    3.6839   549.8    3.485      47.072
2015    6       15    23   4    3.6794   549.6    3.483      47.003
2015    6       15    23  10    3.6749   549.4    3.481      46.933
2015    6       15    23  16    3.6705   549.2    3.479      46.863
2015    6       15    23  22    3.6661   549.0    3.476      46.794
2015    6       15    23  28    3.6617   548.8    3.474      46.724
2015    6       15    23  34    3.6573   548.6    3.472      46.654
2015    6       15    23  40    3.6530   548.4    3.470      46.583
2015    6       15    23  46    3.6486   548.2    3.467      46.513
2015    6       15    23  52    3.6443   548.0    3.465      46.443
2015    6       15    23  58    3.6400   547.8    3.463      46.373
2015    6       16     0   4    3.6358   547.6    3.460      46.303
2015    6       16     0  10    3.6315   547.4    3.458      46.234
2015    6       16     0  16    3.6273   547.1    3.456      46.164
2015    6       16     0  22    3.6231   546.9    3.454      46.095
2015    6       16     0  28    3.6190   546.7    3.451      46.026
2015    6       16     0  34    3.6148   546.5    3.449      45.958
2015    6       16     0  40    3.6107   546.3    3.447      45.889
2015    6       16     0  46    3.6066   546.1    3.445      45.822
2015    6       16     0  52    3.6025   545.9    3.443      45.754
2015    6       16     0  58    3.5985   545.7    3.441      45.687
2015    6       16     1   4    3.5945   545.4    3.439      45.621
2015    6       16     1  10    3.5905   545.2    3.437      45.555
2015    6       16     1  16    3.5865   545.0    3.435      45.490
2015    6       16     1  22    3.5826   544.8    3.433      45.425
2015    6       16     1  28    3.5787   544.6    3.431      45.361
2015    6       16     1  34    3.5748   544.3    3.429      45.298
2015    6       16     1  41    3.5710   544.1    3.427      45.236
2015    6       16     1  47    3.5672   543.9    3.426      45.174
2015    6       16     1  53    3.5634   543.7    3.424      45.113
2015    6       16     1  59    3.5596   543.5    3.422      45.053
2015    6       16     2   5    3.5559   543.2    3.421      44.993
2015    6       16     2  11    3.5522   543.0    3.420      44.934
2015    6       16     2  17    3.5486   542.8    3.418      44.877
2015    6       16     2  23    3.5449   542.6    3.417      44.819
2015    6       16     2  29    3.5413   542.3    3.416      44.763
2015    6       16     2  35    3.5378   542.1    3.415      44.708
2015    6       16     2  41    3.5342   541.9    3.413      44.653
2015    6       16     2  47    3.5307   541.7    3.412      44.599
2015    6       16     2  53    3.5272   541.4    3.411      44.546
2015    6       16     2  59    3.5237   541.2    3.411      44.493
2015    6       16     3   5    3.5203   541.0    3.410      44.441
2015    6       16     3  11    3.5169   540.8    3.409      44.389
2015    6       16     3  17    3.5135   540.5    3.408      44.338
2015    6       16     3  23    3.5101   540.3    3.407      44.286
2015    6       16     3  29    3.5067   540.1    3.407      44.235
2015    6       16     3  35    3.5033   539.8    3.406      44.183
2015    6       16     3  41    3.4999   539.6    3.405      44.131
2015    6       16     3  47    3.4965   539.4    3.405      44.079
2015    6       16     3  53    3.4932   539.1    3.404      44.027
2015    6       16     3  59    3.4898   538.9    3.403      43.975
2015    6       16     4   5    3.4865   538.7    3.403      43.922
2015    6       16     4  11    3.4831   538.4    3.402      43.868
2015    6       16     4  17    3.4798   538.2    3.402      43.815
2015    6       16     4  23    3.4764   538.0    3.401      43.761
2015    6       16     4  29    3.4731   537.7    3.401      43.707
2015    6       16     4  35    3.4698   537.5    3.400      43.653
2015    6       16     4  41    3.4665   537.2    3.400      43.599
2015    6       16     4  47    3.4632   537.0    3.399      43.544
2015    6       16     4  53    3.4599   536.8    3.399      43.490
2015    6       16     5   0    3.4566   536.5    3.398      43.435
2015    6       16     5   6    3.4534   536.3    3.398      43.381
2015    6       16     5  12    3.4501   536.0    3.398      43.327
2015    6       16     5  18    3.4469   535.8    3.397      43.273
2015    6       16     5  24    3.4437   535.5    3.397      43.219
2015    6       16     5  30    3.4405   535.3    3.397      43.165
2015    6       16     5  36    3.4373   535.0    3.397      43.112
2015    6       16     5  42    3.4342   534.8    3.397      43.059
2015    6       16     5  48    3.4311   534.5    3.397      43.006
2015    6       16     5  54    3.4280   534.3    3.397      42.954
2015    6       16     6   0    3.4250   534.0    3.397      42.902
2015    6       16     6   6    3.4219   533.8    3.398      42.850
2015    6       16     6  12    3.4189   533.5    3.398      42.800
2015    6       16     6  18    3.4160   533.3    3.398      42.749
2015    6       16     6  24    3.4130   533.0    3.399      42.699
2015    6       16     6  30    3.4101   532.7    3.399      42.650
2015    6       16     6  36    3.4072   532.5    3.400      42.601
2015    6       16     6  42    3.4043   532.2    3.401      42.552
2015    6       16     6  48    3.4015   532.0    3.401      42.503
2015    6       16     6  54    3.3987   531.7    3.402      42.455
2015    6       16     7   0    3.3958   531.5    3.402      42.406
2015    6       16     7   6    3.3930   531.2    3.403      42.357
2015    6       16     7  12    3.3902   531.0    3.403      42.309
2015    6       16     7  18    3.3874   530.7    3.404      42.260
2015    6       16     7  24    3.3847   530.5    3.404      42.211
2015    6       16     7  30    3.3819   530.2    3.405      42.161
2015    6       16     7  36    3.3791   530.0    3.405      42.112
2015    6       16     7  42    3.3763   529.7    3.405      42.062
2015    6       16     7  48    3.3736   529.5    3.405      42.011
2015    6       16     7  54    3.3708   529.2    3.405      41.960
2015    6       16     8   0    3.3680   529.0    3.405      41.909
2015    6       16     8   6    3.3653   528.7    3.405      41.857
2015    6       16     8  12    3.3625   528.5    3.405      41.805
2015    6       16     8  18    3.3598   528.3    3.405      41.752
2015    6       16     8  24    3.3570   528.0    3.404      41.699
2015    6       16     8  30    3.3542   527.8    3.404      41.646
2015    6       16     8  36    3.3515   527.5    3.404      41.592
2015    6       16     8  42    3.3487   527.3    3.403      41.538
2015    6       16     8  48    3.3460   527.0    3.403      41.483
2015    6       16     8  54    3.3432   526.8    3.402      41.428
2015    6       16     9   0    3.3405   526.5    3.401      41.373
2015    6       16     9   6    3.3378   526.3    3.401      41.317
2015    6       16     9  12    3.3350   526.0    3.400      41.261
2015    6       16     9  18    3.3323   525.8    3.399      41.205
2015    6       16     9  24    3.3296   525.5    3.398      41.148
2015    6       16     9  31    3.3269   525.3    3.398      41.091
2015    6       16     9  37    3.3242   525.0    3.397      41.034
2015    6       16     9  43    3.3215   524.8    3.396      40.977
2015    6       16     9  49    3.3188   524.5    3.395      40.920
2015    6       16     9  55    3.3161   524.3    3.394      40.863
2015    6       16    10   1    3.3135   524.0    3.393      40.805
2015    6       16    10   7    3.3108   523.8    3.392      40.748
2015    6       16    10  13    3.3082   523.5    3.391      40.690
2015    6       16    10  19    3.3055   523.3    3.390      40.633
2015    6       16    10  25    3.3029   523.0    3.389      40.575
2015    6       16    10  31    3.3003   522.8    3.388      40.518
2015    6       16    10  37    3.2976   522.5    3.387      40.460
2015    6       16    10  43    3.2950   522.2    3.386      40.403
2015    6       16    10  49    3.2924   522.0    3.385      40.345
2015    6       16    10  55    3.2898   521.7    3.384      40.288
2015    6       16    11   1    3.2872   521.5    3.383      40.230
2015    6       16    11   7    3.2847   521.2    3.382      40.173
2015    6       16    11  13    3.2821   521.0    3.381      40.116
2015    6       16    11  19    3.2795   520.7    3.380      40.058
2015    6       16    11  25    3.2770   520.4    3.379      40.001
2015    6       16    11  31    3.2744   520.2    3.378      39.944
2015    6       16    11  37    3.2719   519.9    3.377      39.887
2015    6       16    11  43    3.2693   519.6    3.376      39.830
2015    6       16    11  49    3.2668   519.4    3.376      39.774
2015    6       16    11  55    3.2643   519.1    3.375      39.717
2015    6       16    12   1    3.2618   518.8    3.374      39.661
2015    6       16    12   7    3.2593   518.6    3.373      39.605
2015    6       16    12  13    3.2568   518.3    3.372      39.549
2015    6       16    12  19    3.2544   518.0    3.372      39.494
2015    6       16    12  25    3.2519   517.8    3.371      39.439
2015    6       16    12  31    3.2495   517.5    3.371      39.385
2015    6       16    12  37    3.2471   517.2    3.370      39.331
2015    6       16    12  43    3.2447   516.9    3.370      39.277
2015    6       16    12  49    3.2423   516.7    3.369      39.224
2015    6       16    12  56    3.2400   516.4    3.369      39.172
2015    6       16    13   2    3.2376   516.1    3.369      39.120
2015    6       16    13   8    3.2353   515.8    3.369      39.069
2015    6       16    13  14    3.2331   515.6    3.369      39.019
2015    6       16    13  20    3.2308   515.3    3.369      38.969
2015    6       16    13  26    3.2286   515.0    3.369      38.921
2015    6       16    13  32    3.2264   514.7    3.369      38.873
2015    6       16    13  38    3.2242   514.5    3.369      38.826
2015    6       16    13  44    3.2220   514.2    3.370      38.779
2015    6       16    13  50    3.2199   513.9    3.370      38.733
2015    6       16    13  56    3.2178   513.6    3.371      38.688
2015    6       16    14   2    3.2157   513.3    3.372      38.644
2015    6       16    14   8    3.2136   513.1    3.372      38.599
2015    6       16    14  14    3.2115   512.8    3.373      38.556
2015    6       16    14  20    3.2094   512.5    3.374      38.512
2015    6       16    14  26    3.2074   512.2    3.375      38.469
2015    6       16    14  32    3.2054   511.9    3.376      38.426
2015    6       16    14  38    3.2033   511.7    3.377      38.383
2015    6       16    14  44    3.2013   511.4    3.378      38.341
2015    6       16    14  50    3.1993   511.1    3.379      38.298
2015    6       16    14  56    3.1973   510.8    3.380      38.256
2015    6       16    15   2    3.1953   510.5    3.381      38.214
2015    6       16    15   8    3.1933   510.3    3.382      38.172
2015    6       16    15  14    3.1914   510.0    3.383      38.130
2015    6       16    15  20    3.1894   509.7    3.384      38.088
2015    6       16    15  26    3.1875   509.4    3.385      38.046
2015    6       16    15  32    3.1855   509.1    3.386      38.005
2015    6       16    15  38    3.1836   508.9    3.387      37.963
2015    6       16    15  44    3.1817   508.6    3.389      37.922
2015    6       16    15  50    3.1798   508.3    3.390      37.881
2015    6       16    15  56    3.1779   508.0    3.391      37.839
2015    6       16    16   2    3.1761   507.8    3.393      37.798
2015    6       16    16   8    3.1742   507.5    3.394      37.757
2015    6       16    16  14    3.1724   507.2    3.396      37.716
2015    6       16    16  20    3.1705   506.9    3.397      37.675
2015    6       16    16  26    3.1687   506.6    3.399      37.633
2015    6       16    16  32    3.1669   506.3    3.400      37.592
2015    6       16    16  38    3.1651   506.1    3.402      37.551
2015    6       16    16  44    3.1633   505.8    3.403      37.509
2015    6       16    16  50    3.1615   505.5    3.404      37.467
2015    6       16    16  56    3.1597   505.2    3.406      37.425
2015    6       16    17   2    3.1579   504.9    3.407      37.383
2015    6       16    17   8    3.1561   504.6    3.409      37.341
2015    6       16    17  15    3.1543   504.4    3.410      37.298
2015    6       16    17  21    3.1526   504.1    3.411      37.255
2015    6       16    17  27    3.1508   503.8    3.413      37.212
2015    6       16    17  33    3.1491   503.5    3.414      37.169
2015    6       16    17  39    3.1473   503.2    3.415      37.125
2015    6       16    17  45    3.1456   502.9    3.417      37.081
2015    6       16    17  51    3.1439   502.6    3.418      37.037
2015    6       16    17  57    3.1422   502.3    3.419      36.993
2015    6       16    18   3    3.1404   502.1    3.420      36.949
2015    6       16    18   9    3.1388   501.8    3.421      36.904
2015    6       16    18  15    3.1371   501.5    3.422      36.860
2015    6       16    18  21    3.1355   501.2    3.424      36.815
2015    6       16    18  27    3.1338   500.9    3.425      36.770
2015    6       16    18  33    3.1322   500.6    3.426      36.725
2015    6       16    18  39    3.1306   500.3    3.427      36.680
2015    6       16    18  45    3.1290   500.0    3.428      36.635
2015    6       16    18  51    3.1274   499.7    3.429      36.590
2015    6       16    18  57    3.1259   499.4    3.430      36.545
2015    6       16    19   3    3.1243   499.2    3.430      36.501
2015    6       16    19   9    3.1228   498.9    3.431      36.456
2015    6       16    19  15    3.1213   498.6    3.432      36.411
2015    6       16    19  21    3.1197   498.3    3.433      36.365
2015    6       16    19  27    3.1182   498.0    3.434      36.320
2015    6       16    19  33    3.1167   497.7    3.435      36.275
2015    6       16    19  39    3.1152   497.4    3.436      36.230
2015    6       16    19  45    3.1137   497.2    3.436      36.184
2015    6       16    19  51    3.1122   496.9    3.437      36.139
2015    6       16    19  57    3.1107   496.6    3.438      36.093
2015    6       16    20   3    3.1092   496.3    3.439      36.047
2015    6       16    20   9    3.1077   496.0    3.439      36.001
2015    6       16    20  15    3.1061   495.7    3.440      35.954
2015    6       16    20  21    3.1046   495.4    3.441      35.908
2015    6       16    20  27    3.1031   495.2    3.441      35.861
2015    6       16    20  33    3.1016   494.9    3.442      35.815
2015    6       16    20  39    3.1001   494.6    3.443      35.768
2015    6       16    20  45    3.0985   494.3    3.443      35.721
2015    6       16    20  51    3.0970   494.0    3.444      35.675
2015    6       16    20  57    3.0955   493.7    3.444      35.628
2015    6       16    21   3    3.0940   493.4    3.445      35.581
2015    6       16    21   9    3.0925   493.1    3.446      35.535
2015    6       16    21  15    3.0910   492.8    3.446      35.488
2015    6       16    21  22    3.0895   492.5    3.447      35.442
2015    6       16    21  28    3.0880   492.2    3.448      35.396
2015    6       16    21  34    3.0866   491.9    3.449      35.350
2015    6       16    21  40    3.0851   491.6    3.449      35.304
2015    6       16    21  46    3.0837   491.3    3.450      35.259
2015    6       16    21  52    3.0823   491.0    3.451      35.215
2015    6       16    21  58    3.0808   490.7    3.452      35.170
2015    6       16    22   4    3.0795   490.4    3.453      35.126
2015    6       16    22  10    3.0781   490.1    3.455      35.083
2015    6       16    22  16    3.0767   489.8    3.456      35.040
2015    6       16    22  22    3.0754   489.5    3.457      34.998
2015    6       16    22  28    3.0741   489.2    3.459      34.957
2015    6       16    22  34    3.0729   488.9    3.461      34.916
2015    6       16    22  40    3.0716   488.6    3.462      34.877
2015    6       16    22  46    3.0704   488.3    3.464      34.838
2015    6       16    22  52    3.0692   487.9    3.466      34.799
2015    6       16    22  58    3.0681   487.6    3.469      34.762
2015    6       16    23   4    3.0670   487.3    3.471      34.725
2015    6       16    23  10    3.0659   487.0    3.474      34.690
2015    6       16    23  16    3.0649   486.7    3.476      34.655
2015    6       16    23  22    3.0639   486.4    3.479      34.621
2015    6       16    23  28    3.0629   486.1    3.482      34.588
2015    6       16    23  34    3.0619   485.8    3.485      34.555
2015    6       16    23  40    3.0610   485.5    3.489      34.523
2015    6       16    23  46    3.0601   485.2    3.492      34.492
2015    6       16    23  52    3.0593   484.8    3.496      34.462
2015    6       16    23  58    3.0585   484.5    3.499      34.431
2015    6       17     0   4    3.0577   484.2    3.503      34.402
2015    6       17     0  10    3.0569   483.9    3.507      34.373
2015    6       17     0  16    3.0561   483.6    3.511      34.344
2015    6       17     0  22    3.0554   483.3    3.515      34.315
2015    6       17     0  28    3.0547   483.0    3.519      34.287
2015    6       17     0  34    3.0540   482.7    3.523      34.259
2015    6       17     0  40    3.0533   482.4    3.527      34.231
2015    6       17     0  46    3.0527   482.1    3.532      34.204
2015    6       17     0  52    3.0521   481.8    3.536      34.176
2015    6       17     0  58    3.0515   481.4    3.540      34.149
2015    6       17     1   4    3.0510   481.1    3.545      34.121
2015    6       17     1  10    3.0504   480.8    3.549      34.094
2015    6       17     1  17    3.0499   480.5    3.554      34.067
2015    6       17     1  23    3.0494   480.2    3.558      34.040
2015    6       17     1  29    3.0489   479.9    3.563      34.013
2015    6       17     1  35    3.0485   479.6    3.567      33.986
2015    6       17     1  41    3.0480   479.3    3.572      33.960
2015    6       17     1  47    3.0476   479.0    3.576      33.933
2015    6       17     1  53    3.0473   478.7    3.581      33.907
2015    6       17     1  59    3.0469   478.4    3.586      33.880
2015    6       17     2   5    3.0465   478.1    3.590      33.854
2015    6       17     2  11    3.0462   477.8    3.595      33.828
2015    6       17     2  17    3.0459   477.5    3.600      33.801
2015    6       17     2  23    3.0456   477.2    3.604      33.775
2015    6       17     2  29    3.0453   476.9    3.609      33.749
2015    6       17     2  35    3.0450   476.6    3.614      33.724
2015    6       17     2  41    3.0448   476.3    3.619      33.698
2015    6       17     2  47    3.0445   476.0    3.624      33.672
2015    6       17     2  53    3.0443   475.7    3.628      33.647
2015    6       17     2  59    3.0441   475.4    3.633      33.622
2015    6       17     3   5    3.0439   475.1    3.638      33.597
2015    6       17     3  11    3.0437   474.8    3.643      33.572
2015    6       17     3  17    3.0436   474.5    3.648      33.547
2015    6       17     3  23    3.0434   474.2    3.653      33.523
2015    6       17     3  29    3.0433   473.9    3.659      33.499
2015    6       17     3  35    3.0432   473.6    3.664      33.476
2015    6       17     3  41    3.0431   473.3    3.669      33.453
2015    6       17     3  47    3.0430   473.0    3.674      33.430
2015    6       17     3  53    3.0429   472.7    3.680      33.408
2015    6       17     3  59    3.0429   472.4    3.685      33.386
2015    6       17     4   5    3.0428   472.1    3.691      33.365
2015    6       17     4  11    3.0428   471.9    3.697      33.344
2015    6       17     4  17    3.0427   471.6    3.703      33.325
2015    6       17     4  23    3.0427   471.3    3.708      33.305
2015    6       17     4  29    3.0427   471.0    3.714      33.286
2015    6       17     4  35    3.0428   470.7    3.721      33.268
2015    6       17     4  41    3.0428   470.4    3.727      33.251
2015    6       17     4  47    3.0429   470.2    3.733      33.234
2015    6       17     4  53    3.0429   469.9    3.740      33.218
2015    6       17     4  59    3.0430   469.6    3.746      33.203
2015    6       17     5   5    3.0431   469.3    3.753      33.189
2015    6       17     5  11    3.0432   469.0    3.760      33.175
2015    6       17     5  17    3.0434   468.8    3.767      33.162
2015    6       17     5  23    3.0435   468.5    3.774      33.150
2015    6       17     5  29    3.0437   468.2    3.781      33.138
2015    6       17     5  35    3.0439   467.9    3.789      33.127
2015    6       17     5  41    3.0441   467.7    3.796      33.116
2015    6       17     5  47    3.0443   467.4    3.804      33.106
2015    6       17     5  54    3.0446   467.1    3.811      33.097
2015    6       17     6   0    3.0448   466.9    3.819      33.089
2015    6       17     6   6    3.0451   466.6    3.827      33.080
2015    6       17     6  12    3.0454   466.3    3.834      33.072
2015    6       17     6  18    3.0456   466.1    3.842      33.065
2015    6       17     6  24    3.0460   465.8    3.850      33.058
2015    6       17     6  30    3.0463   465.6    3.858      33.051
2015    6       17     6  36    3.0466   465.3    3.867      33.045
2015    6       17     6  42    3.0469   465.0    3.875      33.039
2015    6       17     6  48    3.0473   464.8    3.883      33.033
2015    6       17     6  54    3.0477   464.5    3.891      33.027
2015    6       17     7   0    3.0480   464.3    3.899      33.021
2015    6       17     7   6    3.0484   464.0    3.908      33.016
2015    6       17     7  12    3.0488   463.8    3.916      33.011
2015    6       17     7  18    3.0493   463.5    3.924      33.005
2015    6       17     7  24    3.0497   463.3    3.932      33.000
2015    6       17     7  30    3.0501   463.0    3.941      32.995
2015    6       17     7  36    3.0506   462.8    3.949      32.990
2015    6       17     7  42    3.0511   462.5    3.957      32.985
2015    6       17     7  48    3.0516   462.3    3.966      32.979
2015    6       17     7  54    3.0521   462.0    3.974      32.974
2015    6       17     8   0    3.0526   461.8    3.982      32.969
2015    6       17     8   6    3.0532   461.5    3.990      32.963
2015    6       17     8  12    3.0537   461.3    3.999      32.958
2015    6       17     8  18    3.0543   461.0    4.007      32.952
2015    6       17     8  24    3.0549   460.8    4.015      32.947
2015    6       17     8  30    3.0555   460.5    4.023      32.941
2015    6       17     8  36    3.0562   460.3    4.032      32.935
2015    6       17     8  42    3.0568   460.0    4.040      32.928
2015    6       17     8  48    3.0575   459.8    4.048      32.922
2015    6       17     8  54    3.0582   459.6    4.056      32.916
2015    6       17     9   0    3.0589   459.3    4.064      32.909
2015    6       17     9   6    3.0596   459.1    4.072      32.902
2015    6       17     9  12    3.0603   458.8    4.080      32.894
2015    6       17     9  18    3.0610   458.6    4.088      32.887
2015    6       17     9  25    3.0618   458.3    4.096      32.879
2015    6       17     9  31    3.0625   458.1    4.104      32.871
2015    6       17     9  37    3.0632   457.8    4.112      32.862
2015    6       17     9  43    3.0640   457.6    4.120      32.854
2015    6       17     9  49    3.0647   457.3    4.127      32.844
2015    6       17     9  55    3.0654   457.1    4.135      32.835
2015    6       17    10   1    3.0662   456.8    4.143      32.825
2015    6       17    10   7    3.0670   456.6    4.150      32.815
2015    6       17    10  13    3.0677   456.3    4.158      32.804
2015    6       17    10  19    3.0685   456.0    4.165      32.794
2015    6       17    10  25    3.0693   455.8    4.173      32.782
2015    6       17    10  31    3.0701   455.5    4.180      32.771
2015    6       17    10  37    3.0710   455.3    4.187      32.758
2015    6       17    10  43    3.0718   455.0    4.195      32.746
2015    6       17    10  49    3.0727   454.7    4.202      32.733
2015    6       17    10  55    3.0736   454.5    4.209      32.720
2015    6       17    11   1    3.0745   454.2    4.216      32.706
2015    6       17    11   7    3.0754   453.9    4.224      32.692
2015    6       17    11  13    3.0763   453.7    4.231      32.678
2015    6       17    11  19    3.0773   453.4    4.238      32.664
2015    6       17    11  25    3.0783   453.1    4.245      32.649
2015    6       17    11  31    3.0793   452.8    4.252      32.634
2015    6       17    11  37    3.0803   452.6    4.260      32.619
2015    6       17    11  43    3.0814   452.3    4.267      32.604
2015    6       17    11  49    3.0825   452.0    4.274      32.589
2015    6       17    11  55    3.0836   451.8    4.281      32.574
2015    6       17    12   1    3.0848   451.5    4.289      32.559
2015    6       17    12   7    3.0859   451.2    4.296      32.544
2015    6       17    12  13    3.0871   450.9    4.303      32.529
2015    6       17    12  19    3.0884   450.7    4.311      32.514
2015    6       17    12  25    3.0896   450.4    4.318      32.499
2015    6       17    12  31    3.0909   450.1    4.326      32.484
2015    6       17    12  37    3.0923   449.9    4.333      32.469
2015    6       17    12  43    3.0936   449.6    4.341      32.454
2015    6       17    12  49    3.0950   449.3    4.348      32.439
2015    6       17    12  55    3.0964   449.1    4.356      32.425
2015    6       17    13   1    3.0979   448.8    4.363      32.410
2015    6       17    13   7    3.0993   448.5    4.371      32.396
2015    6       17    13  13    3.1008   448.3    4.379      32.381
2015    6       17    13  19    3.1023   448.0    4.387      32.367
2015    6       17    13  25    3.1038   447.7    4.394      32.352
2015    6       17    13  31    3.1054   447.5    4.402      32.338
2015    6       17    13  37    3.1070   447.2    4.410      32.323
2015    6       17    13  43    3.1086   446.9    4.417      32.309
2015    6       17    13  49    3.1102   446.7    4.425      32.294
2015    6       17    13  55    3.1118   446.4    4.433      32.280
2015    6       17    14   1    3.1134   446.1    4.441      32.265
2015    6       17    14   7    3.1151   445.9    4.448      32.250
2015    6       17    14  14    3.1168   445.6    4.456      32.235
2015    6       17    14  20    3.1185   445.4    4.464      32.220
2015    6       17    14  26    3.1202   445.1    4.471      32.205
2015    6       17    14  32    3.1219   444.8    4.479      32.190
2015    6       17    14  38    3.1236   444.6    4.486      32.174
2015    6       17    14  44    3.1254   444.3    4.494      32.159
2015    6       17    14  50    3.1271   444.1    4.502      32.144
2015    6       17    14  56    3.1289   443.8    4.509      32.128
2015    6       17    15   2    3.1307   443.5    4.516      32.112
2015    6       17    15   8    3.1325   443.3    4.524      32.096
2015    6       17    15  14    3.1343   443.0    4.531      32.081
2015    6       17    15  20    3.1362   442.8    4.539      32.065
2015    6       17    15  26    3.1380   442.5    4.546      32.049
2015    6       17    15  32    3.1399   442.2    4.553      32.033
2015    6       17    15  38    3.1419   442.0    4.560      32.017
2015    6       17    15  44    3.1438   441.7    4.568      32.001
2015    6       17    15  50    3.1458   441.5    4.575      31.985
2015    6       17    15  56    3.1477   441.2    4.582      31.969
2015    6       17    16   2    3.1498   441.0    4.589      31.953
2015    6       17    16   8    3.1518   440.7    4.596      31.937
2015    6       17    16  14    3.1538   440.5    4.603      31.920
2015    6       17    16  20    3.1559   440.2    4.610      31.904
2015    6       17    16  26    3.1580   440.0    4.617      31.888
2015    6       17    16  32    3.1602   439.7    4.624      31.872
2015    6       17    16  38    3.1623   439.4    4.631      31.855
2015    6       17    16  44    3.1645   439.2    4.638      31.839
2015    6       17    16  50    3.1667   438.9    4.645      31.823
2015    6       17    16  56    3.1690   438.7    4.652      31.806
2015    6       17    17   2    3.1713   438.4    4.659      31.789
2015    6       17    17   8    3.1736   438.2    4.665      31.773
2015    6       17    17  14    3.1759   437.9    4.672      31.756
2015    6       17    17  20    3.1783   437.7    4.679      31.739
2015    6       17    17  26    3.1807   437.4    4.686      31.722
2015    6       17    17  32    3.1831   437.2    4.692      31.705
2015    6       17    17  38    3.1856   436.9    4.699      31.688
2015    6       17    17  44    3.1881   436.7    4.705      31.671
2015    6       17    17  50    3.1906   436.5    4.712      31.653
2015    6       17    17  57    3.1932   436.2    4.719      31.636
2015    6       17    18   3    3.1958   436.0    4.725      31.618
2015    6       17    18   9    3.1984   435.7    4.732      31.600
2015    6       17    18  15    3.2010   435.5    4.738      31.582
2015    6       17    18  21    3.2037   435.2    4.745      31.564
2015    6       17    18  27    3.2064   435.0    4.751      31.546
2015    6       17    18  33    3.2091   434.7    4.757      31.528
2015    6       17    18  39    3.2119   434.5    4.764      31.510
2015    6       17    18  45    3.2147   434.3    4.770      31.491
2015    6       17    18  51    3.2175   434.0    4.776      31.473
2015    6       17    18  57    3.2204   433.8    4.783      31.454
2015    6       17    19   3    3.2232   433.5    4.789      31.435
2015    6       17    19   9    3.2261   433.3    4.795      31.416
2015    6       17    19  15    3.2291   433.0    4.801      31.397
2015    6       17    19  21    3.2321   432.8    4.808      31.378
2015    6       17    19  27    3.2351   432.6    4.814      31.358
2015    6       17    19  33    3.2381   432.3    4.820      31.339
2015    6       17    19  39    3.2411   432.1    4.826      31.319
2015    6       17    19  45    3.2442   431.9    4.832      31.300
2015    6       17    19  51    3.2473   431.6    4.839      31.280
2015    6       17    19  57    3.2505   431.4    4.845      31.260
2015    6       17    20   3    3.2536   431.1    4.851      31.241
2015    6       17    20   9    3.2569   430.9    4.857      31.221
2015    6       17    20  15    3.2601   430.7    4.863      31.201
2015    6       17    20  21    3.2633   430.4    4.869      31.181
2015    6       17    20  27    3.2666   430.2    4.876      31.162
2015    6       17    20  33    3.2700   430.0    4.882      31.142
2015    6       17    20  39    3.2733   429.7    4.888      31.122
2015    6       17    20  45    3.2767   429.5    4.894      31.102
2015    6       17    20  51    3.2801   429.3    4.901      31.082
2015    6       17    20  57    3.2835   429.0    4.907      31.062
2015    6       17    21   3    3.2869   428.8    4.913      31.042
2015    6       17    21   9    3.2903   428.6    4.920      31.023
2015    6       17    21  15    3.2938   428.3    4.926      31.003
2015    6       17    21  21    3.2973   428.1    4.932      30.983
2015    6       17    21  27    3.3007   427.9    4.939      30.963
2015    6       17    21  33    3.3042   427.7    4.945      30.944
2015    6       17    21  39    3.3077   427.4    4.951      30.924
2015    6       17    21  45    3.3112   427.2    4.958      30.904
2015    6       17    21  51    3.3147   427.0    4.964      30.884
2015    6       17    21  57    3.3182   426.8    4.971      30.865
2015    6       17    22   3    3.3218   426.5    4.977      30.845
2015    6       17    22   9    3.3253   426.3    4.984      30.826
2015    6       17    22  15    3.3288   426.1    4.990      30.806
2015    6       17    22  21    3.3323   425.9    4.997      30.787
2015    6       17    22  27    3.3358   425.7    5.004      30.767
2015    6       17    22  34    3.3393   425.4    5.010      30.748
2015    6       17    22  40    3.3428   425.2    5.017      30.729
2015    6       17    22  46    3.3463   425.0    5.023      30.710
2015    6       17    22  52    3.3498   424.8    5.030      30.691
2015    6       17    22  58    3.3532   424.6    5.037      30.672
2015    6       17    23   4    3.3567   424.4    5.043      30.653
2015    6       17    23  10    3.3601   424.1    5.050      30.635
2015    6       17    23  16    3.3636   423.9    5.057      30.616
2015    6       17    23  22    3.3670   423.7    5.063      30.598
2015    6       17    23  28    3.3705   423.5    5.070      30.580
2015    6       17    23  34    3.3739   423.3    5.077      30.562
2015    6       17    23  40    3.3773   423.1    5.084      30.544
2015    6       17    23  46    3.3807   422.9    5.090      30.527
2015    6       17    23  52    3.3841   422.7    5.097      30.509
2015    6       17    23  58    3.3875   422.4    5.104      30.493
2015    6       18     0   4    3.3910   422.2    5.111      30.476
2015    6       18     0  10    3.3944   422.0    5.118      30.460
2015    6       18     0  16    3.3978   421.8    5.124      30.444
2015    6       18     0  22    3.4012   421.6    5.131      30.429
2015    6       18     0  28    3.4047   421.4    5.138      30.414
2015    6       18     0  34    3.4081   421.2    5.145      30.399
2015    6       18     0  40    3.4116   421.0    5.152      30.385
2015    6       18     0  46    3.4150   420.8    5.159      30.371
2015    6       18     0  52    3.4185   420.6    5.166      30.358
2015    6       18     0  58    3.4219   420.4    5.173      30.345
2015    6       18     1   4    3.4255   420.2    5.180      30.332
2015    6       18     1  10    3.4289   420.0    5.187      30.320
2015    6       18     1  16    3.4325   419.8    5.194      30.308
2015    6       18     1  22    3.4360   419.6    5.201      30.297
2015    6       18     1  28    3.4395   419.4    5.209      30.286
2015    6       18     1  34    3.4431   419.2    5.216      30.275
2015    6       18     1  40    3.4467   419.0    5.223      30.265
2015    6       18     1  46    3.4502   418.8    5.230      30.255
2015    6       18     1  52    3.4538   418.6    5.237      30.245
2015    6       18     1  58    3.4574   418.5    5.245      30.236
2015    6       18     2   4    3.4611   418.3    5.252      30.227
2015    6       18     2  10    3.4647   418.1    5.259      30.219
2015    6       18     2  16    3.4683   417.9    5.266      30.210
2015    6       18     2  22    3.4719   417.7    5.274      30.203
2015    6       18     2  28    3.4755   417.5    5.281      30.195
2015    6       18     2  34    3.4791   417.4    5.288      30.188
2015    6       18     2  40    3.4828   417.2    5.296      30.181
2015    6       18     2  46    3.4864   417.0    5.303      30.174
2015    6       18     2  52    3.4900   416.8    5.310      30.167
2015    6       18     2  58    3.4936   416.6    5.318      30.161
2015    6       18     3   4    3.4972   416.5    5.325      30.155
2015    6       18     3  11    3.5008   416.3    5.332      30.149
2015    6       18     3  17    3.5044   416.1    5.340      30.143
2015    6       18     3  23    3.5079   415.9    5.347      30.137
2015    6       18     3  29    3.5115   415.8    5.354      30.132
2015    6       18     3  35    3.5151   415.6    5.362      30.127
2015    6       18     3  41    3.5186   415.4    5.369      30.122
2015    6       18     3  47    3.5222   415.3    5.377      30.117
2015    6       18     3  53    3.5257   415.1    5.384      30.112
2015    6       18     3  59    3.5293   414.9    5.392      30.107
2015    6       18     4   5    3.5328   414.8    5.399      30.103
2015    6       18     4  11    3.5363   414.6    5.407      30.098
2015    6       18     4  17    3.5399   414.4    5.414      30.094
2015    6       18     4  23    3.5434   414.3    5.422      30.090
2015    6       18     4  29    3.5469   414.1    5.429      30.086
2015    6       18     4  35    3.5504   414.0    5.437      30.082
2015    6       18     4  41    3.5540   413.8    5.445      30.079
2015    6       18     4  47    3.5575   413.7    5.452      30.075
2015    6       18     4  53    3.5610   413.5    5.460      30.072
2015    6       18     4  59    3.5646   413.3    5.468      30.069
2015    6       18     5   5    3.5681   413.2    5.476      30.066
2015    6       18     5  11    3.5716   413.0    5.484      30.064
2015    6       18     5  17    3.5752   412.9    5.492      30.062
2015    6       18     5  23    3.5787   412.7    5.500      30.060
2015    6       18     5  29    3.5823   412.6    5.508      30.059
2015    6       18     5  35    3.5859   412.5    5.517      30.058
2015    6       18     5  41    3.5894   412.3    5.525      30.057
2015    6       18     5  47    3.5930   412.2    5.534      30.057
2015    6       18     5  53    3.5966   412.0    5.542      30.058
2015    6       18     5  59    3.6002   411.9    5.551      30.058
2015    6       18     6   5    3.6038   411.8    5.560      30.060
2015    6       18     6  11    3.6074   411.6    5.570      30.062
2015    6       18     6  17    3.6110   411.5    5.579      30.065
2015    6       18     6  23    3.6145   411.4    5.588      30.068
2015    6       18     6  29    3.6181   411.2    5.598      30.072
2015    6       18     6  35    3.6217   411.1    5.608      30.077
2015    6       18     6  41    3.6252   411.0    5.618      30.083
2015    6       18     6  47    3.6287   410.9    5.628      30.089
2015    6       18     6  53    3.6322   410.8    5.638      30.096
2015    6       18     6  59    3.6357   410.7    5.649      30.104
2015    6       18     7   5    3.6391   410.5    5.659      30.112
2015    6       18     7  12    3.6425   410.4    5.670      30.122
2015    6       18     7  18    3.6459   410.3    5.681      30.132
2015    6       18     7  24    3.6493   410.2    5.693      30.143
2015    6       18     7  30    3.6526   410.1    5.704      30.154
2015    6       18     7  36    3.6559   410.0    5.716      30.166
2015    6       18     7  42    3.6591   409.9    5.727      30.180
2015    6       18     7  48    3.6623   409.9    5.739      30.193
2015    6       18     7  54    3.6655   409.8    5.751      30.207
2015    6       18     8   0    3.6686   409.7    5.763      30.222
2015    6       18     8   6    3.6717   409.6    5.776      30.238
2015    6       18     8  12    3.6747   409.5    5.788      30.253
2015    6       18     8  18    3.6777   409.4    5.800      30.270
2015    6       18     8  24    3.6807   409.4    5.813      30.287
2015    6       18     8  30    3.6836   409.3    5.826      30.303
2015    6       18     8  36    3.6865   409.2    5.838      30.321
2015    6       18     8  42    3.6894   409.1    5.851      30.338
2015    6       18     8  48    3.6922   409.1    5.864      30.355
2015    6       18     8  54    3.6949   409.0    5.876      30.373
2015    6       18     9   0    3.6977   408.9    5.889      30.391
2015    6       18     9   6    3.7004   408.9    5.902      30.409
2015    6       18     9  12    3.7031   408.8    5.914      30.426
2015    6       18     9  18    3.7057   408.7    5.927      30.443
2015    6       18     9  24    3.7083   408.6    5.940      30.461
2015    6       18     9  30    3.7109   408.6    5.952      30.478
2015    6       18     9  36    3.7135   408.5    5.965      30.494
2015    6       18     9  42    3.7161   408.4    5.977      30.511
2015    6       18     9  48    3.7186   408.4    5.990      30.527
2015    6       18     9  54    3.7212   408.3    6.002      30.543
2015    6       18    10   0    3.7237   408.2    6.015      30.559
2015    6       18    10   6    3.7262   408.2    6.027      30.574
2015    6       18    10  12    3.7287   408.1    6.039      30.589
2015    6       18    10  18    3.7312   408.0    6.051      30.604
2015    6       18    10  24    3.7337   408.0    6.064      30.618
2015    6       18    10  30    3.7361   407.9    6.076      30.633
2015    6       18    10  36    3.7386   407.8    6.088      30.646
2015    6       18    10  42    3.7411   407.8    6.100      30.660
2015    6       18    10  48    3.7435   407.7    6.112      30.673
2015    6       18    10  54    3.7460   407.6    6.124      30.686
2015    6       18    11   0    3.7485   407.6    6.136      30.699
2015    6       18    11   6    3.7510   407.5    6.148      30.712
2015    6       18    11  12    3.7535   407.4    6.160      30.725
2015    6       18    11  18    3.7560   407.4    6.173      30.737
2015    6       18    11  24    3.7585   407.3    6.185      30.750
2015    6       18    11  30    3.7611   407.2    6.197      30.763
2015    6       18    11  36    3.7636   407.2    6.209      30.775
2015    6       18    11  42    3.7662   407.1    6.221      30.788
2015    6       18    11  48    3.7688   407.0    6.233      30.801
2015    6       18    11  54    3.7714   407.0    6.246      30.814
2015    6       18    12   0    3.7741   406.9    6.258      30.827
2015    6       18    12   6    3.7768   406.9    6.270      30.840
2015    6       18    12  13    3.7795   406.8    6.283      30.854
2015    6       18    12  19    3.7823   406.7    6.295      30.868
2015    6       18    12  25    3.7850   406.7    6.308      30.883
2015    6       18    12  31    3.7878   406.6    6.320      30.898
2015    6       18    12  37    3.7906   406.6    6.333      30.914
2015    6       18    12  43    3.7935   406.5    6.345      30.931
2015    6       18    12  49    3.7963   406.4    6.358      30.949
2015    6       18    12  55    3.7992   406.4    6.370      30.966
2015    6       18    13   1    3.8020   406.3    6.382      30.985
2015    6       18    13   7    3.8049   406.3    6.394      31.003
2015    6       18    13  13    3.8078   406.2    6.406      31.022
2015    6       18    13  19    3.8106   406.2    6.418      31.042
2015    6       18    13  25    3.8135   406.1    6.430      31.061
2015    6       18    13  31    3.8164   406.1    6.441      31.081
2015    6       18    13  37    3.8192   406.0    6.453      31.101
2015    6       18    13  43    3.8221   406.0    6.464      31.121
2015    6       18    13  49    3.8250   405.9    6.475      31.142
2015    6       18    13  55    3.8278   405.9    6.486      31.162
2015    6       18    14   1    3.8307   405.9    6.497      31.182
2015    6       18    14   7    3.8335   405.8    6.508      31.202
2015    6       18    14  13    3.8364   405.8    6.518      31.222
2015    6       18    14  19    3.8392   405.7    6.529      31.242
2015    6       18    14  25    3.8421   405.7    6.539      31.262
2015    6       18    14  31    3.8449   405.6    6.549      31.282
2015    6       18    14  37    3.8477   405.6    6.559      31.302
2015    6       18    14  43    3.8506   405.5    6.569      31.322
2015    6       18    14  49    3.8534   405.5    6.578      31.342
2015    6       18    14  55    3.8562   405.5    6.587      31.363
2015    6       18    15   1    3.8590   405.4    6.597      31.383
2015    6       18    15   7    3.8618   405.4    6.606      31.404
2015    6       18    15  13    3.8646   405.3    6.614      31.425
2015    6       18    15  19    3.8674   405.3    6.623      31.446
2015    6       18    15  25    3.8701   405.3    6.632      31.467
2015    6       18    15  31    3.8729   405.2    6.640      31.488
2015    6       18    15  37    3.8756   405.2    6.648      31.509
2015    6       18    15  43    3.8783   405.2    6.656      31.530
2015    6       18    15  49    3.8810   405.1    6.664      31.551
2015    6       18    15  55    3.8837   405.1    6.671      31.572
2015    6       18    16   1    3.8864   405.1    6.679      31.592
2015    6       18    16   7    3.8891   405.0    6.686      31.613
2015    6       18    16  13    3.8918   405.0    6.694      31.633
2015    6       18    16  20    3.8944   405.0    6.701      31.652
2015    6       18    16  26    3.8970   404.9    6.708      31.672
2015    6       18    16  32    3.8996   404.9    6.714      31.691
2015    6       18    16  38    3.9022   404.9    6.721      31.710
2015    6       18    16  44    3.9048   404.8    6.728      31.729
2015    6       18    16  50    3.9074   404.8    6.734      31.747
2015    6       18    16  56    3.9100   404.8    6.740      31.764
2015    6       18    17   2    3.9125   404.7    6.746      31.782
2015    6       18    17   8    3.9150   404.7    6.752      31.799
2015    6       18    17  14    3.9176   404.7    6.758      31.815
2015    6       18    17  20    3.9201   404.7    6.764      31.832
2015    6       18    17  26    3.9226   404.6    6.770      31.848
2015    6       18    17  32    3.9250   404.6    6.775      31.863
2015    6       18    17  38    3.9275   404.6    6.781      31.879
2015    6       18    17  44    3.9299   404.6    6.786      31.894
2015    6       18    17  50    3.9324   404.5    6.791      31.909
2015    6       18    17  56    3.9348   404.5    6.796      31.923
2015    6       18    18   2    3.9372   404.5    6.801      31.937
2015    6       18    18   8    3.9396   404.5    6.806      31.951
2015    6       18    18  14    3.9420   404.5    6.811      31.965
2015    6       18    18  20    3.9444   404.4    6.816      31.978
2015    6       18    18  26    3.9468   404.4    6.821      31.991
2015    6       18    18  32    3.9492   404.4    6.825      32.003
2015    6       18    18  38    3.9515   404.4    6.830      32.016
2015    6       18    18  44    3.9539   404.4    6.835      32.028
2015    6       18    18  50    3.9562   404.3    6.839      32.040
2015    6       18    18  56    3.9586   404.3    6.844      32.051
2015    6       18    19   2    3.9609   404.3    6.848      32.063
2015    6       18    19   8    3.9633   404.3    6.852      32.074
2015    6       18    19  14    3.9656   404.3    6.857      32.084
2015    6       18    19  20    3.9680   404.2    6.861      32.095
2015    6       18    19  26    3.9703   404.2    6.865      32.106
2015    6       18    19  32    3.9726   404.2    6.869      32.116
2015    6       18    19  38    3.9750   404.2    6.874      32.127
2015    6       18    19  44    3.9773   404.2    6.878      32.137
2015    6       18    19  50    3.9796   404.2    6.882      32.147
2015    6       18    19  56    3.9819   404.1    6.886      32.157
2015    6       18    20   2    3.9842   404.1    6.890      32.168
2015    6       18    20   8    3.9865   404.1    6.894      32.178
2015    6       18    20  14    3.9887   404.1    6.897      32.189
2015    6       18    20  20    3.9910   404.1    6.901      32.199
2015    6       18    20  26    3.9932   404.1    6.905      32.209
2015    6       18    20  32    3.9954   404.1    6.908      32.220
2015    6       18    20  38    3.9976   404.1    6.912      32.230
2015    6       18    20  44    3.9998   404.1    6.915      32.241
2015    6       18    20  50    4.0020   404.0    6.918      32.251
2015    6       18    20  56    4.0041   404.0    6.922      32.261
2015    6       18    21   3    4.0063   404.0    6.925      32.272
2015    6       18    21   9    4.0084   404.0    6.928      32.282
2015    6       18    21  15    4.0105   404.0    6.931      32.292
2015    6       18    21  21    4.0126   404.0    6.933      32.302
2015    6       18    21  27    4.0147   404.0    6.936      32.311
2015    6       18    21  33    4.0168   404.0    6.939      32.321
2015    6       18    21  39    4.0188   404.0    6.942      32.330
2015    6       18    21  45    4.0209   404.0    6.944      32.339
2015    6       18    21  51    4.0229   403.9    6.947      32.348
2015    6       18    21  57    4.0249   403.9    6.949      32.356
2015    6       18    22   3    4.0270   403.9    6.951      32.365
2015    6       18    22   9    4.0290   403.9    6.954      32.373
2015    6       18    22  15    4.0310   403.9    6.956      32.382
2015    6       18    22  21    4.0329   403.9    6.958      32.390
2015    6       18    22  27    4.0349   403.9    6.960      32.398
2015    6       18    22  33    4.0369   403.9    6.962      32.406
2015    6       18    22  39    4.0388   403.9    6.964      32.413
2015    6       18    22  45    4.0408   403.8    6.966      32.421
2015    6       18    22  51    4.0427   403.8    6.968      32.428
2015    6       18    22  57    4.0446   403.8    6.970      32.435
2015    6       18    23   3    4.0465   403.8    6.972      32.443
2015    6       18    23   9    4.0484   403.8    6.973      32.450
2015    6       18    23  15    4.0503   403.8    6.975      32.457
2015    6       18    23  21    4.0522   403.8    6.977      32.463
2015    6       18    23  27    4.0541   403.8    6.979      32.470
2015    6       18    23  33    4.0559   403.8    6.980      32.477
2015    6       18    23  39    4.0578   403.7    6.982      32.483
2015    6       18    23  45    4.0596   403.7    6.983      32.489
2015    6       18    23  51    4.0614   403.7    6.985      32.496
2015    6       18    23  57    4.0632   403.7    6.986      32.502
2015    6       19     0   3    4.0650   403.7    6.988      32.508
2015    6       19     0   9    4.0668   403.7    6.989      32.514
2015    6       19     0  15    4.0686   403.7    6.991      32.519
2015    6       19     0  21    4.0704   403.7    6.992      32.525
2015    6       19     0  27    4.0721   403.7    6.994      32.531
2015    6       19     0  33    4.0739   403.6    6.995      32.536
2015    6       19     0  39    4.0757   403.6    6.997      32.542
2015    6       19     0  45    4.0774   403.6    6.998      32.547
2015    6       19     0  51    4.0791   403.6    6.999      32.553
2015    6       19     0  57    4.0808   403.6    7.001      32.558
2015    6       19     1   3    4.0826   403.6    7.002      32.563
2015    6       19     1   9    4.0843   403.6    7.004      32.569
2015    6       19     1  15    4.0860   403.6    7.005      32.574
2015    6       19     1  21    4.0877   403.5    7.006      32.579
2015    6       19     1  27    4.0894   403.5    7.008      32.585
2015    6       19     1  33    4.0911   403.5    7.009      32.590
2015    6       19     1  39    4.0927   403.5    7.010      32.596
2015    6       19     1  45    4.0944   403.5    7.011      32.601
2015    6       19     1  51    4.0961   403.5    7.013      32.607
2015    6       19     1  57    4.0977   403.5    7.014      32.612
2015    6       19     2   3    4.0994   403.5    7.015      32.618
2015    6       19     2  10    4.1010   403.5    7.016      32.623
2015    6       19     2  16    4.1026   403.5    7.017      32.629
2015    6       19     2  22    4.1043   403.4    7.018      32.635
2015    6       19     2  28    4.1059   403.4    7.019      32.640
2015    6       19     2  34    4.1075   403.4    7.020      32.646
2015    6       19     2  40    4.1091   403.4    7.021      32.651
2015    6       19     2  46    4.1107   403.4    7.022      32.657
2015    6       19     2  52    4.1122   403.4    7.023      32.662
2015    6       19     2  58    4.1138   403.4    7.024      32.668
2015    6       19     3   4    4.1154   403.4    7.025      32.673
2015    6       19     3  10    4.1169   403.4    7.026      32.679
2015    6       19     3  16    4.1185   403.4    7.027      32.684
2015    6       19     3  22    4.1200   403.4    7.028      32.689
2015    6       19     3  28    4.1215   403.3    7.028      32.695
2015    6       19     3  34    4.1230   403.3    7.029      32.700
2015    6       19     3  40    4.1245   403.3    7.030      32.706
2015    6       19     3  46    4.1260   403.3    7.031      32.711
2015    6       19     3  52    4.1275   403.3    7.032      32.717
2015    6       19     3  58    4.1290   403.3    7.033      32.722
2015    6       19     4   4    4.1305   403.3    7.033      32.728
2015    6       19     4  10    4.1320   403.3    7.034      32.734
2015    6       19     4  16    4.1335   403.3    7.035      32.739
2015    6       19     4  22    4.1350   403.3    7.036      32.745
2015    6       19     4  28    4.1365   403.3    7.037      32.752
2015    6       19     4  34    4.1380   403.3    7.038      32.758
2015    6       19     4  40    4.1395   403.2    7.039      32.764
2015    6       19     4  46    4.1409   403.2    7.041      32.770
2015    6       19     4  52    4.1424   403.2    7.042      32.777
2015    6       19     4  58    4.1439   403.2    7.043      32.784
2015    6       19     5   4    4.1453   403.2    7.044      32.791
2015    6       19     5  10    4.1468   403.2    7.045      32.799
2015    6       19     5  16    4.1482   403.2    7.047      32.806
2015    6       19     5  22    4.1496   403.2    7.048      32.814
2015    6       19     5  28    4.1510   403.2    7.049      32.822
2015    6       19     5  34    4.1524   403.2    7.050      32.830
2015    6       19     5  40    4.1538   403.2    7.051      32.838
2015    6       19     5  46    4.1552   403.2    7.053      32.846
2015    6       19     5  52    4.1565   403.2    7.054      32.855
2015    6       19     5  58    4.1578   403.2    7.055      32.863
2015    6       19     6   4    4.1591   403.2    7.056      32.871
2015    6       19     6  10    4.1604   403.2    7.057      32.879
2015    6       19     6  16    4.1616   403.2    7.058      32.888
2015    6       19     6  23    4.1628   403.2    7.059      32.896
2015    6       19     6  29    4.1640   403.2    7.060      32.904
2015    6       19     6  35    4.1652   403.2    7.061      32.912
2015    6       19     6  41    4.1663   403.2    7.062      32.920
2015    6       19     6  47    4.1674   403.2    7.063      32.928
2015    6       19     6  53    4.1685   403.2    7.064      32.935
2015    6       19     6  59    4.1696   403.2    7.065      32.943
2015    6       19     7   5    4.1706   403.2    7.066      32.950
2015    6       19     7  11    4.1716   403.2    7.067      32.957
2015    6       19     7  17    4.1726   403.1    7.067      32.964
2015    6       19     7  23    4.1736   403.1    7.068      32.971
2015    6       19     7  29    4.1746   403.1    7.069      32.978
2015    6       19     7  35    4.1755   403.1    7.070      32.985
2015    6       19     7  41    4.1764   403.1    7.070      32.992
2015    6       19     7  47    4.1773   403.1    7.071      32.999
2015    6       19     7  53    4.1782   403.1    7.072      33.006
2015    6       19     7  59    4.1791   403.1    7.073      33.012
2015    6       19     8   5    4.1799   403.1    7.073      33.019
2015    6       19     8  11    4.1807   403.1    7.074      33.026
2015    6       19     8  17    4.1815   403.1    7.075      33.032
2015    6       19     8  23    4.1823   403.1    7.075      33.039
2015    6       19     8  29    4.1830   403.1    7.076      33.045
2015    6       19     8  35    4.1838   403.1    7.077      33.051
2015    6       19     8  41    4.1845   403.1    7.077      33.058
2015    6       19     8  47    4.1852   403.1    7.078      33.064
2015    6       19     8  53    4.1859   403.1    7.079      33.070
2015    6       19     8  59    4.1866   403.1    7.079      33.077
2015    6       19     9   5    4.1872   403.1    7.080      33.083
2015    6       19     9  11    4.1878   403.1    7.080      33.089
2015    6       19     9  17    4.1884   403.1    7.081      33.095
2015    6       19     9  23    4.1890   403.1    7.081      33.100
2015    6       19     9  29    4.1896   403.1    7.082      33.106
2015    6       19     9  35    4.1902   403.0    7.082      33.112
2015    6       19     9  41    4.1908   403.0    7.082      33.117
2015    6       19     9  47    4.1913   403.0    7.083      33.123
2015    6       19     9  53    4.1918   403.0    7.083      33.128
2015    6       19     9  59    4.1924   403.0    7.083      33.133
2015    6       19    10   5    4.1929   403.0    7.083      33.138
2015    6       19    10  11    4.1934   403.0    7.084      33.142
2015    6       19    10  17    4.1939   403.0    7.084      33.147
2015    6       19    10  23    4.1944   403.0    7.084      33.151
2015    6       19    10  29    4.1949   403.0    7.084      33.156
2015    6       19    10  35    4.1953   403.0    7.084      33.160
2015    6       19    10  41    4.1958   403.0    7.084      33.164
2015    6       19    10  47    4.1963   402.9    7.084      33.168
2015    6       19    10  53    4.1967   402.9    7.084      33.171
2015    6       19    10  59    4.1971   402.9    7.083      33.175
2015    6       19    11   5    4.1976   402.9    7.083      33.178
2015    6       19    11  11    4.1980   402.9    7.083      33.182
2015    6       19    11  17    4.1984   402.9    7.083      33.185
2015    6       19    11  23    4.1988   402.9    7.083      33.188
2015    6       19    11  29    4.1992   402.9    7.082      33.191
2015    6       19    11  36    4.1996   402.9    7.082      33.194
2015    6       19    11  42    4.2000   402.9    7.082      33.197
2015    6       19    11  48    4.2004   402.9    7.081      33.199
2015    6       19    11  54    4.2008   402.8    7.081      33.202
2015    6       19    12   0    4.2011   402.8    7.080      33.204
2015    6       19    12   6    4.2015   402.8    7.080      33.207
2015    6       19    12  12    4.2019   402.8    7.079      33.209
2015    6       19    12  18    4.2022   402.8    7.079      33.212
2015    6       19    12  24    4.2025   402.8    7.078      33.214
2015    6       19    12  30    4.2028   402.8    7.078      33.217
2015    6       19    12  36    4.2032   402.8    7.077      33.219
2015    6       19    12  42    4.2035   402.8    7.077      33.221
2015    6       19    12  48    4.2038   402.7    7.076      33.223
2015    6       19    12  54    4.2040   402.7    7.076      33.226
2015    6       19    13   0    4.2043   402.7    7.075      33.228
2015    6       19    13   6    4.2046   402.7    7.075      33.230
2015    6       19    13  12    4.2049   402.7    7.074      33.232
2015    6       19    13  18    4.2051   402.7    7.073      33.235
2015    6       19    13  24    4.2054   402.7    7.073      33.237
2015    6       19    13  30    4.2056   402.6    7.072      33.239
2015    6       19    13  36    4.2058   402.6    7.072      33.242
2015    6       19    13  42    4.2061   402.6    7.071      33.244
2015    6       19    13  48    4.2063   402.6    7.071      33.246
2015    6       19    13  54    4.2065   402.6    7.070      33.249
2015    6       19    14   0    4.2067   402.6    7.070      33.251
2015    6       19    14   6    4.2069   402.6    7.069      33.254
2015    6       19    14  12    4.2071   402.5    7.069      33.256
2015    6       19    14  18    4.2073   402.5    7.068      33.259
2015    6       19    14  24    4.2075   402.5    7.068      33.262
2015    6       19    14  30    4.2077   402.5    7.068      33.265
2015    6       19    14  36    4.2079   402.5    7.067      33.268
2015    6       19    14  42    4.2081   402.4    7.067      33.271
2015    6       19    14  48    4.2083   402.4    7.067      33.274
2015    6       19    14  54    4.2085   402.4    7.067      33.278
2015    6       19    15   0    4.2087   402.4    7.066      33.282
2015    6       19    15   6    4.2090   402.4    7.066      33.285
2015    6       19    15  12    4.2092   402.3    7.066      33.289
2015    6       19    15  18    4.2094   402.3    7.066      33.293
2015    6       19    15  24    4.2096   402.3    7.066      33.297
2015    6       19    15  30    4.2099   402.3    7.066      33.301
2015    6       19    15  36    4.2101   402.3    7.066      33.306
2015    6       19    15  42    4.2103   402.2    7.066      33.310
2015    6       19    15  48    4.2105   402.2    7.066      33.314
2015    6       19    15  54    4.2107   402.2    7.066      33.318
2015    6       19    16   0    4.2109   402.2    7.066      33.323
2015    6       19    16   6    4.2111   402.1    7.066      33.327
2015    6       19    16  12    4.2113   402.1    7.066      33.331
2015    6       19    16  18    4.2115   402.1    7.066      33.335
2015    6       19    16  24    4.2116   402.1    7.066      33.339
2015    6       19    16  30    4.2118   402.1    7.066      33.342
2015    6       19    16  36    4.2119   402.0    7.066      33.346
2015    6       19    16  42    4.2120   402.0    7.066      33.349
2015    6       19    16  49    4.2121   402.0    7.066      33.351
2015    6       19    16  55    4.2122   402.0    7.065      33.353
2015    6       19    17   1    4.2122   402.0    7.065      33.355
2015    6       19    17   7    4.2123   401.9    7.065      33.357
2015    6       19    17  13    4.2123   401.9    7.064      33.358
2015    6       19    17  19    4.2123   401.9    7.064      33.359
2015    6       19    17  25    4.2122   401.9    7.063      33.360
2015    6       19    17  31    4.2122   401.8    7.062      33.360
2015    6       19    17  37    4.2121   401.8    7.062      33.359
2015    6       19    17  43    4.2121   401.8    7.061      33.359
2015    6       19    17  49    4.2120   401.8    7.060      33.358
2015    6       19    17  55    4.2119   401.7    7.059      33.356
2015    6       19    18   1    4.2117   401.7    7.058      33.355
2015    6       19    18   7    4.2116   401.7    7.057      33.353
2015    6       19    18  13    4.2115   401.7    7.056      33.350
2015    6       19    18  19    4.2113   401.6    7.054      33.348
2015    6       19    18  25    4.2111   401.6    7.053      33.345
2015    6       19    18  31    4.2110   401.6    7.052      33.341
2015    6       19    18  37    4.2108   401.6    7.050      33.338
2015    6       19    18  43    4.2106   401.5    7.049      33.334
2015    6       19    18  49    4.2104   401.5    7.047      33.330
2015    6       19    18  55    4.2101   401.5    7.046      33.325
2015    6       19    19   1    4.2099   401.4    7.044      33.320
2015    6       19    19   7    4.2096   401.4    7.042      33.315
2015    6       19    19  13    4.2094   401.4    7.041      33.310
2015    6       19    19  19    4.2091   401.3    7.039      33.304
2015    6       19    19  25    4.2088   401.3    7.037      33.299
2015    6       19    19  31    4.2085   401.3    7.035      33.293
2015    6       19    19  37    4.2082   401.3    7.033      33.286
2015    6       19    19  43    4.2079   401.2    7.031      33.280
2015    6       19    19  49    4.2076   401.2    7.029      33.273
2015    6       19    19  55    4.2073   401.2    7.027      33.266
2015    6       19    20   1    4.2069   401.1    7.025      33.259
2015    6       19    20   7    4.2066   401.1    7.023      33.251
2015    6       19    20  13    4.2063   401.1    7.021      33.244
2015    6       19    20  19    4.2059   401.0    7.018      33.236
2015    6       19    20  25    4.2055   401.0    7.016      33.228
2015    6       19    20  31    4.2052   401.0    7.014      33.219
2015    6       19    20  37    4.2048   400.9    7.012      33.211
2015    6       19    20  43    4.2044   400.9    7.009      33.202
2015    6       19    20  49    4.2040   400.9    7.007      33.193
2015    6       19    20  55    4.2036   400.8    7.004      33.184
2015    6       19    21   1    4.2032   400.8    7.002      33.175
2015    6       19    21   7    4.2028   400.7    7.000      33.165
2015    6       19    21  13    4.2024   400.7    6.997      33.155
2015    6       19    21  20    4.2020   400.7    6.995      33.145
2015    6       19    21  26    4.2015   400.6    6.992      33.135
2015    6       19    21  32    4.2011   400.6    6.990      33.125
2015    6       19    21  38    4.2006   400.5    6.987      33.114
2015    6       19    21  44    4.2002   400.5    6.984      33.104
2015    6       19    21  50    4.1997   400.5    6.982      33.093
2015    6       19    21  56    4.1993   400.4    6.979      33.082
2015    6       19    22   2    4.1988   400.4    6.976      33.071
2015    6       19    22   8    4.1983   400.3    6.974      33.059
2015    6       19    22  14    4.1978   400.3    6.971      33.048
2015    6       19    22  20    4.1974   400.3    6.968      33.036
2015    6       19    22  26    4.1969   400.2    6.966      33.025
2015    6       19    22  32    4.1963   400.2    6.963      33.013
2015    6       19    22  38    4.1958   400.1    6.960      33.001
2015    6       19    22  44    4.1953   400.1    6.958      32.989
2015    6       19    22  50    4.1948   400.0    6.955      32.977
2015    6       19    22  56    4.1943   400.0    6.952      32.964
2015    6       19    23   2    4.1937   400.0    6.949      32.952
2015    6       19    23   8    4.1932   399.9    6.947      32.939
2015    6       19    23  14    4.1927   399.9    6.944      32.927
2015    6       19    23  20    4.1921   399.8    6.941      32.914
2015    6       19    23  26    4.1916   399.8    6.939      32.901
2015    6       19    23  32    4.1910   399.7    6.936      32.888
2015    6       19    23  38    4.1904   399.7    6.933      32.875
2015    6       19    23  44    4.1898   399.6    6.931      32.862
2015    6       19    23  50    4.1893   399.6    6.928      32.849
2015    6       19    23  56    4.1887   399.5    6.925      32.836
2015    6       20     0   2    4.1881   399.5    6.923      32.823
2015    6       20     0   8    4.1875   399.4    6.920      32.810
2015    6       20     0  14    4.1868   399.4    6.918      32.796
2015    6       20     0  20    4.1862   399.3    6.915      32.782
2015    6       20     0  26    4.1855   399.3    6.913      32.769
2015    6       20     0  32    4.1849   399.2    6.910      32.755
2015    6       20     0  38    4.1842   399.2    6.908      32.740
2015    6       20     0  44    4.1836   399.1    6.906      32.726
2015    6       20     0  50    4.1829   399.1    6.903      32.712
2015    6       20     0  56    4.1822   399.0    6.901      32.697
2015    6       20     1   2    4.1815   398.9    6.899      32.682
2015    6       20     1   8    4.1808   398.9    6.896      32.667
2015    6       20     1  14    4.1801   398.8    6.894      32.652
2015    6       20     1  20    4.1794   398.8    6.892      32.636
2015    6       20     1  26    4.1787   398.7    6.890      32.620
2015    6       20     1  32    4.1779   398.6    6.888      32.605
2015    6       20     1  38    4.1772   398.6    6.886      32.589
2015    6       20     1  44    4.1765   398.5    6.884      32.573
2015    6       20     1  50    4.1758   398.5    6.882      32.557
2015    6       20     1  56    4.1751   398.4    6.881      32.540
2015    6       20     2   2    4.1743   398.3    6.879      32.524
2015    6       20     2   8    4.1736   398.3    6.877      32.508
2015    6       20     2  14    4.1729   398.2    6.876      32.491
2015    6       20     2  21    4.1722   398.1    6.874      32.475
2015    6       20     2  27    4.1716   398.1    6.873      32.458
2015    6       20     2  33    4.1709   398.0    6.872      32.442
2015    6       20     2  39    4.1702   397.9    6.871      32.425
2015    6       20     2  45    4.1696   397.8    6.870      32.409
2015    6       20     2  51    4.1689   397.8    6.869      32.392
2015    6       20     2  57    4.1683   397.7    6.869      32.376
2015    6       20     3   3    4.1678   397.6    6.868      32.360
2015    6       20     3   9    4.1672   397.5    6.868      32.344
2015    6       20     3  15    4.1667   397.5    6.867      32.328
2015    6       20     3  21    4.1662   397.4    6.867      32.312
2015    6       20     3  27    4.1657   397.3    6.868      32.296
2015    6       20     3  33    4.1653   397.2    6.868      32.281
2015    6       20     3  39    4.1649   397.1    6.868      32.267
2015    6       20     3  45    4.1646   397.1    6.869      32.253
2015    6       20     3  51    4.1642   397.0    6.870      32.239
2015    6       20     3  57    4.1640   396.9    6.871      32.225
2015    6       20     4   3    4.1637   396.8    6.872      32.212
2015    6       20     4   9    4.1635   396.8    6.873      32.199
2015    6       20     4  15    4.1633   396.7    6.874      32.185
2015    6       20     4  21    4.1632   396.6    6.875      32.173
2015    6       20     4  27    4.1630   396.5    6.876      32.160
2015    6       20     4  33    4.1629   396.4    6.876      32.147
2015    6       20     4  39    4.1628   396.4    6.877      32.134
2015    6       20     4  45    4.1627   396.3    6.878      32.121
2015    6       20     4  51    4.1626   396.2    6.879      32.108
2015    6       20     4  57    4.1624   396.2    6.880      32.095
2015    6       20     5   3    4.1623   396.1    6.880      32.082
2015    6       20     5   9    4.1622   396.0    6.880      32.069
2015    6       20     5  15    4.1621   395.9    6.880      32.054
2015    6       20     5  21    4.1619   395.9    6.880      32.040
2015    6       20     5  27    4.1618   395.8    6.880      32.025
2015    6       20     5  33    4.1616   395.7    6.880      32.010
2015    6       20     5  39    4.1615   395.6    6.880      31.995
2015    6       20     5  45    4.1613   395.6    6.879      31.979
2015    6       20     5  51    4.1611   395.5    6.879      31.963
2015    6       20     5  57    4.1609   395.4    6.878      31.946
2015    6       20     6   3    4.1607   395.4    6.878      31.929
2015    6       20     6   9    4.1605   395.3    6.877      31.912
2015    6       20     6  15    4.1603   395.2    6.876      31.895
2015    6       20     6  21    4.1601   395.1    6.875      31.877
2015    6       20     6  27    4.1598   395.1    6.874      31.859
2015    6       20     6  33    4.1596   395.0    6.873      31.841
2015    6       20     6  39    4.1594   394.9    6.872      31.822
2015    6       20     6  45    4.1592   394.8    6.870      31.803
2015    6       20     6  51    4.1589   394.8    6.869      31.785
2015    6       20     6  57    4.1587   394.7    6.868      31.765
2015    6       20     7   3    4.1585   394.6    6.867      31.746
2015    6       20     7   9    4.1582   394.5    6.865      31.727
2015    6       20     7  15    4.1580   394.4    6.864      31.707
2015    6       20     7  21    4.1578   394.4    6.863      31.687
2015    6       20     7  27    4.1576   394.3    6.861      31.667
2015    6       20     7  33    4.1574   394.2    6.860      31.647
2015    6       20     7  40    4.1571   394.1    6.858      31.627
2015    6       20     7  46    4.1570   394.0    6.857      31.607
2015    6       20     7  52    4.1567   394.0    6.856      31.587
2015    6       20     7  58    4.1565   393.9    6.854      31.566
2015    6       20     8   4    4.1563   393.8    6.853      31.546
2015    6       20     8  10    4.1562   393.7    6.852      31.525
2015    6       20     8  16    4.1560   393.6    6.850      31.505
2015    6       20     8  22    4.1558   393.6    6.849      31.484
2015    6       20     8  28    4.1556   393.5    6.848      31.464
2015    6       20     8  34    4.1554   393.4    6.847      31.443
2015    6       20     8  40    4.1552   393.3    6.845      31.422
2015    6       20     8  46    4.1550   393.2    6.844      31.401
2015    6       20     8  52    4.1547   393.1    6.843      31.381
2015    6       20     8  58    4.1545   393.1    6.842      31.360
2015    6       20     9   4    4.1543   393.0    6.841      31.339
2015    6       20     9  10    4.1541   392.9    6.840      31.318
2015    6       20     9  16    4.1539   392.8    6.838      31.296
2015    6       20     9  22    4.1536   392.7    6.837      31.275
2015    6       20     9  28    4.1534   392.6    6.836      31.254
2015    6       20     9  34    4.1532   392.5    6.835      31.232
2015    6       20     9  40    4.1529   392.4    6.834      31.211
2015    6       20     9  46    4.1527   392.3    6.833      31.189
2015    6       20     9  52    4.1524   392.2    6.833      31.167
2015    6       20     9  58    4.1521   392.2    6.832      31.145
2015    6       20    10   4    4.1519   392.1    6.831      31.123
2015    6       20    10  10    4.1516   392.0    6.830      31.101
2015    6       20    10  16    4.1514   391.9    6.829      31.079
2015    6       20    10  22    4.1511   391.8    6.829      31.056
2015    6       20    10  28    4.1509   391.7    6.828      31.034
2015    6       20    10  34    4.1507   391.6    6.828      31.012
2015    6       20    10  40    4.1505   391.5    6.827      30.989
2015    6       20    10  46    4.1502   391.4    6.827      30.967
2015    6       20    10  52    4.1501   391.3    6.827      30.945
2015    6       20    10  58    4.1499   391.1    6.826      30.922
2015    6       20    11   4    4.1497   391.0    6.827      30.901
2015    6       20    11  10    4.1496   390.9    6.827      30.879
2015    6       20    11  16    4.1495   390.8    6.827      30.857
2015    6       20    11  22    4.1494   390.7    6.828      30.836
2015    6       20    11  28    4.1494   390.6    6.828      30.815
2015    6       20    11  34    4.1494   390.5    6.829      30.794
2015    6       20    11  40    4.1495   390.4    6.830      30.774
2015    6       20    11  46    4.1496   390.3    6.832      30.755
2015    6       20    11  52    4.1498   390.1    6.833      30.737
2015    6       20    11  58    4.1500   390.0    6.835      30.719
2015    6       20    12   4    4.1502   389.9    6.837      30.701
2015    6       20    12  11    4.1505   389.8    6.839      30.685
2015    6       20    12  17    4.1508   389.7    6.841      30.669
2015    6       20    12  23    4.1512   389.6    6.843      30.653
2015    6       20    12  29    4.1515   389.5    6.846      30.638
2015    6       20    12  35    4.1519   389.4    6.848      30.623
2015    6       20    12  41    4.1524   389.3    6.850      30.609
2015    6       20    12  47    4.1528   389.2    6.853      30.594
2015    6       20    12  53    4.1532   389.1    6.856      30.580
2015    6       20    12  59    4.1537   389.0    6.858      30.567
2015    6       20    13   5    4.1542   388.9    6.861      30.553
2015    6       20    13  11    4.1547   388.8    6.863      30.540
2015    6       20    13  17    4.1551   388.7    6.866      30.527
2015    6       20    13  23    4.1556   388.6    6.868      30.513
2015    6       20    13  29    4.1561   388.5    6.871      30.500
2015    6       20    13  35    4.1566   388.4    6.873      30.486
2015    6       20    13  41    4.1570   388.2    6.875      30.472
2015    6       20    13  47    4.1575   388.1    6.878      30.458
2015    6       20    13  53    4.1580   388.0    6.880      30.444
2015    6       20    13  59    4.1585   387.9    6.883      30.430
2015    6       20    14   5    4.1589   387.8    6.885      30.416
2015    6       20    14  11    4.1594   387.7    6.888      30.402
2015    6       20    14  17    4.1599   387.6    6.890      30.388
2015    6       20    14  23    4.1604   387.5    6.893      30.373
2015    6       20    14  29    4.1609   387.4    6.895      30.359
2015    6       20    14  35    4.1613   387.3    6.898      30.344
2015    6       20    14  41    4.1618   387.2    6.900      30.329
2015    6       20    14  47    4.1623   387.1    6.903      30.314
2015    6       20    14  53    4.1628   387.0    6.905      30.299
2015    6       20    14  59    4.1632   386.9    6.907      30.284
2015    6       20    15   5    4.1637   386.8    6.910      30.269
2015    6       20    15  11    4.1642   386.7    6.912      30.253
2015    6       20    15  17    4.1646   386.6    6.915      30.238
2015    6       20    15  23    4.1651   386.5    6.917      30.222
2015    6       20    15  29    4.1655   386.3    6.919      30.206
2015    6       20    15  35    4.1660   386.2    6.922      30.190
2015    6       20    15  41    4.1665   386.1    6.924      30.174
2015    6       20    15  47    4.1669   386.0    6.926      30.157
2015    6       20    15  53    4.1674   385.9    6.929      30.141
2015    6       20    15  59    4.1678   385.8    6.931      30.124
2015    6       20    16   5    4.1683   385.7    6.933      30.107
2015    6       20    16  11    4.1688   385.6    6.935      30.090
2015    6       20    16  17    4.1692   385.4    6.938      30.073
2015    6       20    16  23    4.1697   385.3    6.940      30.056
2015    6       20    16  29    4.1702   385.2    6.942      30.038
2015    6       20    16  35    4.1708   385.1    6.944      30.021
2015    6       20    16  41    4.1713   385.0    6.947      30.004
2015    6       20    16  47    4.1718   384.8    6.949      29.986
2015    6       20    16  53    4.1724   384.7    6.951      29.969
2015    6       20    16  59    4.1730   384.6    6.953      29.952
2015    6       20    17   6    4.1736   384.5    6.956      29.934
2015    6       20    17  12    4.1743   384.4    6.958      29.917
2015    6       20    17  18    4.1749   384.2    6.960      29.900
2015    6       20    17  24    4.1756   384.1    6.962      29.883
2015    6       20    17  30    4.1764   384.0    6.965      29.866
2015    6       20    17  36    4.1771   383.9    6.967      29.849
2015    6       20    17  42    4.1779   383.7    6.970      29.831
2015    6       20    17  48    4.1787   383.6    6.972      29.815
2015    6       20    17  54    4.1795   383.5    6.974      29.798
2015    6       20    18   0    4.1804   383.4    6.977      29.781
2015    6       20    18   6    4.1813   383.3    6.979      29.765
2015    6       20    18  12    4.1822   383.1    6.982      29.748
2015    6       20    18  18    4.1832   383.0    6.984      29.731
2015    6       20    18  24    4.1841   382.9    6.986      29.715
2015    6       20    18  30    4.1852   382.8    6.989      29.698
2015    6       20    18  36    4.1861   382.6    6.991      29.682
2015    6       20    18  42    4.1872   382.5    6.994      29.665
2015    6       20    18  48    4.1882   382.4    6.996      29.648
2015    6       20    18  54    4.1892   382.3    6.999      29.632
2015    6       20    19   0    4.1903   382.1    7.001      29.615
2015    6       20    19   6    4.1913   382.0    7.004      29.598
2015    6       20    19  12    4.1924   381.9    7.006      29.581
2015    6       20    19  18    4.1935   381.8    7.009      29.564
2015    6       20    19  24    4.1946   381.6    7.011      29.546
2015    6       20    19  30    4.1957   381.5    7.014      29.529
2015    6       20    19  36    4.1968   381.4    7.016      29.512
2015    6       20    19  42    4.1979   381.2    7.019      29.494
2015    6       20    19  48    4.1991   381.1    7.021      29.476
2015    6       20    19  54    4.2002   381.0    7.024      29.459
2015    6       20    20   0    4.2014   380.8    7.027      29.441
2015    6       20    20   6    4.2025   380.7    7.030      29.424
2015    6       20    20  12    4.2037   380.6    7.033      29.406
2015    6       20    20  18    4.2050   380.4    7.035      29.389
2015    6       20    20  24    4.2062   380.3    7.038      29.371
2015    6       20    20  30    4.2074   380.2    7.042      29.354
2015    6       20    20  36    4.2087   380.0    7.045      29.337
2015    6       20    20  42    4.2100   379.9    7.048      29.320
2015    6       20    20  48    4.2113   379.8    7.051      29.303
2015    6       20    20  54    4.2127   379.6    7.055      29.287
2015    6       20    21   0    4.2140   379.5    7.058      29.270
2015    6       20    21   6    4.2154   379.4    7.062      29.254
2015    6       20    21  12    4.2169   379.2    7.066      29.238
2015    6       20    21  18    4.2183   379.1    7.070      29.222
2015    6       20    21  24    4.2198   379.0    7.074      29.206
2015    6       20    21  30    4.2213   378.8    7.078      29.191
2015    6       20    21  36    4.2228   378.7    7.082      29.175
2015    6       20    21  42    4.2243   378.6    7.086      29.160
2015    6       20    21  48    4.2259   378.4    7.091      29.145
2015    6       20    21  54    4.2275   378.3    7.095      29.130
2015    6       20    22   0    4.2290   378.2    7.100      29.116
2015    6       20    22   6    4.2307   378.0    7.105      29.101
2015    6       20    22  12    4.2323   377.9    7.110      29.086
2015    6       20    22  18    4.2340   377.8    7.115      29.072
2015    6       20    22  25    4.2356   377.6    7.120      29.058
2015    6       20    22  31    4.2373   377.5    7.125      29.043
2015    6       20    22  37    4.2390   377.4    7.130      29.029
2015    6       20    22  43    4.2408   377.2    7.135      29.015
2015    6       20    22  49    4.2425   377.1    7.141      29.001
2015    6       20    22  55    4.2443   376.9    7.146      28.987
2015    6       20    23   1    4.2461   376.8    7.152      28.973
2015    6       20    23   7    4.2479   376.7    7.158      28.959
2015    6       20    23  13    4.2497   376.5    7.163      28.946
2015    6       20    23  19    4.2516   376.4    7.169      28.932
2015    6       20    23  25    4.2534   376.2    7.175      28.919
2015    6       20    23  31    4.2554   376.1    7.181      28.905
2015    6       20    23  37    4.2573   376.0    7.188      28.892
2015    6       20    23  43    4.2593   375.8    7.194      28.879
2015    6       20    23  49    4.2613   375.7    7.201      28.866
2015    6       20    23  55    4.2633   375.5    7.207      28.853
2015    6       21     0   1    4.2654   375.4    7.214      28.840
2015    6       21     0   7    4.2675   375.3    7.221      28.828
2015    6       21     0  13    4.2697   375.1    7.228      28.816
2015    6       21     0  19    4.2719   375.0    7.235      28.804
2015    6       21     0  25    4.2742   374.8    7.242      28.793
2015    6       21     0  31    4.2765   374.7    7.249      28.782
2015    6       21     0  37    4.2789   374.5    7.257      28.771
2015    6       21     0  43    4.2813   374.4    7.264      28.760
2015    6       21     0  49    4.2838   374.3    7.272      28.750
2015    6       21     0  55    4.2863   374.1    7.280      28.740
2015    6       21     1   1    4.2889   374.0    7.288      28.730
2015    6       21     1   7    4.2915   373.8    7.296      28.721
2015    6       21     1  13    4.2942   373.7    7.305      28.712
2015    6       21     1  19    4.2969   373.6    7.313      28.703
2015    6       21     1  25    4.2998   373.4    7.322      28.695
2015    6       21     1  31    4.3026   373.3    7.330      28.687
2015    6       21     1  37    4.3055   373.1    7.339      28.679
2015    6       21     1  43    4.3085   373.0    7.348      28.671
2015    6       21     1  49    4.3115   372.9    7.358      28.664
2015    6       21     1  55    4.3146   372.7    7.367      28.657
2015    6       21     2   1    4.3178   372.6    7.376      28.650
2015    6       21     2   7    4.3210   372.5    7.386      28.643
2015    6       21     2  13    4.3242   372.3    7.395      28.637
2015    6       21     2  19    4.3275   372.2    7.405      28.631
2015    6       21     2  25    4.3309   372.1    7.415      28.625
2015    6       21     2  31    4.3343   371.9    7.425      28.619
2015    6       21     2  37    4.3377   371.8    7.435      28.613
2015    6       21     2  43    4.3412   371.7    7.445      28.608
2015    6       21     2  49    4.3448   371.5    7.456      28.602
2015    6       21     2  55    4.3484   371.4    7.466      28.598
2015    6       21     3   2    4.3520   371.3    7.477      28.593
2015    6       21     3   8    4.3557   371.1    7.488      28.588
2015    6       21     3  14    4.3594   371.0    7.498      28.584
2015    6       21     3  20    4.3632   370.9    7.509      28.580
2015    6       21     3  26    4.3670   370.8    7.520      28.576
2015    6       21     3  32    4.3708   370.6    7.532      28.572
2015    6       21     3  38    4.3747   370.5    7.543      28.569
2015    6       21     3  44    4.3786   370.4    7.554      28.566
2015    6       21     3  50    4.3825   370.2    7.566      28.563
2015    6       21     3  56    4.3865   370.1    7.577      28.560
2015    6       21     4   2    4.3905   370.0    7.589      28.557
2015    6       21     4   8    4.3945   369.9    7.601      28.555
2015    6       21     4  14    4.3986   369.7    7.613      28.553
2015    6       21     4  20    4.4027   369.6    7.625      28.551
2015    6       21     4  26    4.4068   369.5    7.638      28.549
2015    6       21     4  32    4.4110   369.4    7.650      28.548
2015    6       21     4  38    4.4152   369.2    7.663      28.547
2015    6       21     4  44    4.4194   369.1    7.675      28.546
2015    6       21     4  50    4.4237   369.0    7.688      28.545
2015    6       21     4  56    4.4280   368.9    7.701      28.545
2015    6       21     5   2    4.4324   368.8    7.714      28.545
2015    6       21     5   8    4.4368   368.6    7.728      28.545
2015    6       21     5  14    4.4413   368.5    7.742      28.545
2015    6       21     5  20    4.4458   368.4    7.755      28.546
2015    6       21     5  26    4.4503   368.3    7.769      28.547
2015    6       21     5  32    4.4549   368.1    7.783      28.549
2015    6       21     5  38    4.4595   368.0    7.798      28.551
2015    6       21     5  44    4.4642   367.9    7.812      28.554
2015    6       21     5  50    4.4689   367.8    7.826      28.557
2015    6       21     5  56    4.4736   367.7    7.841      28.561
2015    6       21     6   2    4.4784   367.6    7.855      28.566
2015    6       21     6   8    4.4832   367.4    7.870      28.571
2015    6       21     6  14    4.4881   367.3    7.885      28.576
2015    6       21     6  20    4.4930   367.2    7.899      28.582
2015    6       21     6  26    4.4978   367.1    7.914      28.589
2015    6       21     6  32    4.5028   367.0    7.929      28.596
2015    6       21     6  38    4.5077   366.9    7.944      28.603
2015    6       21     6  44    4.5128   366.8    7.958      28.610
2015    6       21     6  50    4.5178   366.7    7.973      28.618
2015    6       21     6  56    4.5229   366.6    7.988      28.627
2015    6       21     7   2    4.5279   366.5    8.002      28.635
2015    6       21     7   8    4.5330   366.4    8.017      28.644
2015    6       21     7  14    4.5382   366.3    8.031      28.653
2015    6       21     7  20    4.5433   366.2    8.046      28.662
2015    6       21     7  26    4.5485   366.1    8.060      28.671
2015    6       21     7  32    4.5538   366.0    8.075      28.680
2015    6       21     7  38    4.5590   365.9    8.089      28.689
2015    6       21     7  44    4.5643   365.8    8.104      28.698
2015    6       21     7  50    4.5697   365.7    8.119      28.708
2015    6       21     7  57    4.5751   365.6    8.133      28.717
2015    6       21     8   3    4.5805   365.5    8.148      28.726
2015    6       21     8   9    4.5860   365.4    8.163      28.735
2015    6       21     8  15    4.5915   365.3    8.178      28.745
2015    6       21     8  21    4.5971   365.2    8.193      28.754
2015    6       21     8  27    4.6027   365.2    8.208      28.764
2015    6       21     8  33    4.6084   365.1    8.223      28.773
2015    6       21     8  39    4.6141   365.0    8.238      28.783
2015    6       21     8  45    4.6199   364.9    8.253      28.793
2015    6       21     8  51    4.6257   364.8    8.269      28.803
2015    6       21     8  57    4.6316   364.7    8.284      28.814
2015    6       21     9   3    4.6375   364.6    8.300      28.825
2015    6       21     9   9    4.6435   364.6    8.316      28.835
2015    6       21     9  15    4.6495   364.5    8.332      28.846
2015    6       21     9  21    4.6556   364.4    8.348      28.858
2015    6       21     9  27    4.6617   364.3    8.364      28.869
2015    6       21     9  33    4.6679   364.2    8.380      28.881
2015    6       21     9  39    4.6742   364.2    8.397      28.893
2015    6       21     9  45    4.6805   364.1    8.413      28.906
2015    6       21     9  51    4.6868   364.0    8.430      28.919
2015    6       21     9  57    4.6932   363.9    8.447      28.932
2015    6       21    10   3    4.6996   363.9    8.464      28.946
2015    6       21    10   9    4.7061   363.8    8.481      28.960
2015    6       21    10  15    4.7126   363.7    8.498      28.974
2015    6       21    10  21    4.7192   363.7    8.516      28.989
2015    6       21    10  27    4.7259   363.6    8.533      29.004
2015    6       21    10  33    4.7325   363.5    8.551      29.020
2015    6       21    10  39    4.7393   363.5    8.569      29.036
2015    6       21    10  45    4.7460   363.4    8.587      29.052
2015    6       21    10  51    4.7528   363.3    8.605      29.069
2015    6       21    10  57    4.7597   363.3    8.623      29.087
2015    6       21    11   3    4.7666   363.2    8.642      29.104
2015    6       21    11   9    4.7736   363.2    8.660      29.122
2015    6       21    11  15    4.7805   363.1    8.679      29.141
2015    6       21    11  21    4.7876   363.1    8.698      29.160
2015    6       21    11  27    4.7946   363.0    8.717      29.180
2015    6       21    11  33    4.8018   362.9    8.737      29.200
2015    6       21    11  39    4.8089   362.9    8.756      29.221
2015    6       21    11  45    4.8161   362.8    8.776      29.242
2015    6       21    11  51    4.8234   362.8    8.796      29.264
2015    6       21    11  57    4.8307   362.7    8.816      29.286
2015    6       21    12   3    4.8380   362.7    8.837      29.309
2015    6       21    12   9    4.8454   362.6    8.858      29.332
2015    6       21    12  15    4.8529   362.6    8.879      29.356
2015    6       21    12  21    4.8604   362.5    8.900      29.381
2015    6       21    12  27    4.8680   362.5    8.921      29.406
2015    6       21    12  33    4.8757   362.5    8.943      29.432
2015    6       21    12  39    4.8834   362.4    8.966      29.458
2015    6       21    12  45    4.8911   362.4    8.988      29.486
2015    6       21    12  51    4.8990   362.3    9.011      29.514
2015    6       21    12  57    4.9069   362.3    9.034      29.543
2015    6       21    13   3    4.9148   362.3    9.058      29.573
2015    6       21    13   9    4.9228   362.2    9.081      29.605
2015    6       21    13  16    4.9309   362.2    9.105      29.637
2015    6       21    13  22    4.9391   362.2    9.130      29.671
2015    6       21    13  28    4.9473   362.1    9.154      29.705
2015    6       21    13  34    4.9556   362.1    9.179      29.741
2015    6       21    13  40    4.9639   362.1    9.204      29.777
2015    6       21    13  46    4.9723   362.1    9.229      29.814
2015    6       21    13  52    4.9808   362.1    9.254      29.852
2015    6       21    13  58    4.9893   362.0    9.280      29.893
2015    6       21    14   4    4.9980   362.0    9.305      29.935
2015    6       21    14  10    5.0067   362.0    9.330      29.978
2015    6       21    14  16    5.0154   362.0    9.355      30.023
2015    6       21    14  22    5.0242   362.0    9.380      30.069
2015    6       21    14  28    5.0331   362.0    9.405      30.117
2015    6       21    14  34    5.0420   362.0    9.430      30.165
2015    6       21    14  40    5.0509   362.0    9.454      30.214
2015    6       21    14  46    5.0598   362.0    9.478      30.264
2015    6       21    14  52    5.0687   362.0    9.502      30.314
2015    6       21    14  58    5.0777   362.1    9.525      30.364
2015    6       21    15   4    5.0867   362.1    9.548      30.414
2015    6       21    15  10    5.0957   362.1    9.571      30.465
2015    6       21    15  16    5.1047   362.1    9.593      30.515
2015    6       21    15  22    5.1137   362.1    9.615      30.566
2015    6       21    15  28    5.1227   362.1    9.637      30.617
2015    6       21    15  34    5.1317   362.1    9.658      30.667
2015    6       21    15  40    5.1406   362.2    9.679      30.716
2015    6       21    15  46    5.1496   362.2    9.699      30.765
2015    6       21    15  52    5.1585   362.2    9.719      30.813
2015    6       21    15  58    5.1673   362.2    9.739      30.859
2015    6       21    16   4    5.1762   362.2    9.758      30.905
2015    6       21    16  10    5.1851   362.3    9.777      30.951
2015    6       21    16  16    5.1939   362.3    9.796      30.995
2015    6       21    16  22    5.2027   362.3    9.815      31.039
2015    6       21    16  28    5.2115   362.3    9.833      31.082
2015    6       21    16  34    5.2202   362.3    9.851      31.125
2015    6       21    16  40    5.2290   362.4    9.868      31.167
2015    6       21    16  46    5.2378   362.4    9.886      31.209
2015    6       21    16  52    5.2465   362.4    9.903      31.250
2015    6       21    16  58    5.2552   362.4    9.920      31.290
2015    6       21    17   4    5.2640   362.5    9.937      31.330
2015    6       21    17  10    5.2727   362.5    9.954      31.370
2015    6       21    17  16    5.2814   362.5    9.970      31.409
2015    6       21    17  22    5.2901   362.6    9.986      31.448
2015    6       21    17  28    5.2988   362.6   10.003      31.487
2015    6       21    17  34    5.3076   362.6   10.019      31.526
2015    6       21    17  40    5.3163   362.7   10.035      31.564
2015    6       21    17  46    5.3250   362.7   10.050      31.602
2015    6       21    17  52    5.3337   362.7   10.066      31.641
2015    6       21    17  59    5.3424   362.8   10.082      31.679
2015    6       21    18   5    5.3512   362.8   10.097      31.717
2015    6       21    18  11    5.3599   362.9   10.113      31.755
2015    6       21    18  17    5.3686   362.9   10.128      31.793
2015    6       21    18  23    5.3774   362.9   10.144      31.831
2015    6       21    18  29    5.3861   363.0   10.159      31.869
2015    6       21    18  35    5.3949   363.0   10.174      31.907
2015    6       21    18  41    5.4037   363.1   10.190      31.946
2015    6       21    18  47    5.4125   363.1   10.205      31.984
2015    6       21    18  53    5.4213   363.2   10.220      32.023
2015    6       21    18  59    5.4301   363.2   10.236      32.062
2015    6       21    19   5    5.4390   363.3   10.251      32.101
2015    6       21    19  11    5.4478   363.3   10.266      32.140
2015    6       21    19  17    5.4567   363.4   10.282      32.179
2015    6       21    19  23    5.4656   363.4   10.298      32.218
2015    6       21    19  29    5.4745   363.5   10.313      32.258
2015    6       21    19  35    5.4834   363.5   10.329      32.298
2015    6       21    19  41    5.4924   363.6   10.345      32.338
2015    6       21    19  47    5.5013   363.6   10.361      32.379
2015    6       21    19  53    5.5103   363.7   10.377      32.419
2015    6       21    19  59    5.5193   363.7   10.393      32.460
2015    6       21    20   5    5.5284   363.8   10.409      32.502
2015    6       21    20  11    5.5374   363.9   10.426      32.544
2015    6       21    20  17    5.5465   363.9   10.442      32.586
2015    6       21    20  23    5.5557   364.0   10.459      32.629
2015    6       21    20  29    5.5648   364.0   10.476      32.672
2015    6       21    20  35    5.5741   364.1   10.494      32.716
2015    6       21    20  41    5.5833   364.2   10.511      32.761
2015    6       21    20  47    5.5927   364.2   10.530      32.806
2015    6       21    20  53    5.6021   364.3   10.548      32.852
2015    6       21    20  59    5.6115   364.3   10.567      32.899
2015    6       21    21   5    5.6210   364.4   10.586      32.947
2015    6       21    21  11    5.6306   364.5   10.606      32.995
2015    6       21    21  17    5.6403   364.5   10.626      33.045
2015    6       21    21  23    5.6501   364.6   10.646      33.097
2015    6       21    21  29    5.6600   364.7   10.667      33.150
2015    6       21    21  35    5.6700   364.8   10.688      33.206
2015    6       21    21  41    5.6800   364.9   10.709      33.263
2015    6       21    21  47    5.6902   364.9   10.731      33.322
2015    6       21    21  53    5.7005   365.0   10.753      33.383
2015    6       21    21  59    5.7108   365.1   10.775      33.446
2015    6       21    22   5    5.7213   365.2   10.798      33.509
2015    6       21    22  11    5.7319   365.3   10.821      33.575
2015    6       21    22  17    5.7425   365.4   10.844      33.641
2015    6       21    22  23    5.7532   365.5   10.867      33.711
2015    6       21    22  29    5.7640   365.6   10.890      33.782
2015    6       21    22  35    5.7748   365.7   10.913      33.856
2015    6       21    22  41    5.7856   365.8   10.936      33.932
2015    6       21    22  48    5.7965   365.9   10.958      34.009
2015    6       21    22  54    5.8073   366.0   10.981      34.088
2015    6       21    23   0    5.8182   366.1   11.003      34.168
2015    6       21    23   6    5.8290   366.2   11.025      34.248
2015    6       21    23  12    5.8398   366.4   11.046      34.328
2015    6       21    23  18    5.8505   366.5   11.067      34.409
2015    6       21    23  24    5.8612   366.6   11.087      34.489
2015    6       21    23  30    5.8717   366.7   11.107      34.569
2015    6       21    23  36    5.8822   366.9   11.127      34.649
2015    6       21    23  42    5.8926   367.0   11.145      34.728
2015    6       21    23  48    5.9029   367.2   11.163      34.808
2015    6       21    23  54    5.9131   367.3   11.180      34.887
2015    6       22     0   0    5.9233   367.4   11.197      34.964
2015    6       22     0   6    5.9333   367.6   11.213      35.040
2015    6       22     0  12    5.9432   367.7   11.228      35.115
2015    6       22     0  18    5.9530   367.8   11.243      35.188
2015    6       22     0  24    5.9628   368.0   11.257      35.261
2015    6       22     0  30    5.9725   368.1   11.270      35.331
2015    6       22     0  36    5.9821   368.3   11.283      35.401
2015    6       22     0  42    5.9915   368.4   11.296      35.470
2015    6       22     0  48    6.0010   368.5   11.308      35.538
2015    6       22     0  54    6.0103   368.7   11.319      35.605
2015    6       22     1   0    6.0196   368.8   11.330      35.671
2015    6       22     1   6    6.0289   369.0   11.340      35.736
2015    6       22     1  12    6.0380   369.1   11.350      35.800
2015    6       22     1  18    6.0471   369.3   11.360      35.863
2015    6       22     1  24    6.0562   369.4   11.369      35.926
2015    6       22     1  30    6.0652   369.6   11.378      35.987
2015    6       22     1  36    6.0742   369.7   11.386      36.048
2015    6       22     1  42    6.0831   369.9   11.395      36.109
2015    6       22     1  48    6.0920   370.0   11.402      36.169
2015    6       22     1  54    6.1008   370.2   11.410      36.228
2015    6       22     2   0    6.1096   370.3   11.417      36.286
2015    6       22     2   6    6.1184   370.5   11.424      36.345
2015    6       22     2  12    6.1271   370.6   11.431      36.402
2015    6       22     2  18    6.1358   370.8   11.437      36.459
2015    6       22     2  24    6.1445   371.0   11.443      36.516
2015    6       22     2  30    6.1531   371.1   11.449      36.572
2015    6       22     2  36    6.1618   371.3   11.455      36.628
2015    6       22     2  42    6.1704   371.4   11.460      36.683
2015    6       22     2  48    6.1790   371.6   11.466      36.738
2015    6       22     2  54    6.1875   371.7   11.471      36.793
2015    6       22     3   0    6.1961   371.9   11.476      36.847
2015    6       22     3   6    6.2046   372.1   11.481      36.902
2015    6       22     3  12    6.2132   372.2   11.486      36.956
2015    6       22     3  18    6.2217   372.4   11.490      37.010
2015    6       22     3  24    6.2303   372.6   11.495      37.063
2015    6       22     3  30    6.2389   372.7   11.500      37.117
2015    6       22     3  36    6.2474   372.9   11.504      37.171
2015    6       22     3  42    6.2560   373.1   11.509      37.224
2015    6       22     3  48    6.2647   373.2   11.514      37.278
2015    6       22     3  54    6.2733   373.4   11.518      37.332
2015    6       22     4   0    6.2820   373.5   11.523      37.386
2015    6       22     4   7    6.2907   373.7   11.528      37.440
2015    6       22     4  13    6.2994   373.9   11.533      37.494
2015    6       22     4  19    6.3082   374.0   11.538      37.549
2015    6       22     4  25    6.3170   374.2   11.544      37.604
2015    6       22     4  31    6.3259   374.4   11.549      37.660
2015    6       22     4  37    6.3349   374.5   11.555      37.715
2015    6       22     4  43    6.3439   374.7   11.562      37.772
2015    6       22     4  49    6.3530   374.9   11.568      37.829
2015    6       22     4  55    6.3622   375.1   11.575      37.887
2015    6       22     5   1    6.3715   375.2   11.582      37.946
2015    6       22     5   7    6.3808   375.4   11.590      38.005
2015    6       22     5  13    6.3903   375.6   11.598      38.065
2015    6       22     5  19    6.3999   375.7   11.607      38.126
2015    6       22     5  25    6.4096   375.9   11.616      38.188
2015    6       22     5  31    6.4194   376.1   11.625      38.252
2015    6       22     5  37    6.4292   376.3   11.635      38.318
2015    6       22     5  43    6.4392   376.4   11.645      38.386
2015    6       22     5  49    6.4492   376.6   11.656      38.456
2015    6       22     5  55    6.4592   376.8   11.666      38.527
2015    6       22     6   1    6.4694   377.0   11.677      38.600
2015    6       22     6   7    6.4794   377.2   11.688      38.675
2015    6       22     6  13    6.4896   377.4   11.700      38.751
2015    6       22     6  19    6.4997   377.6   11.711      38.828
2015    6       22     6  25    6.5098   377.8   11.722      38.906
2015    6       22     6  31    6.5198   378.0   11.733      38.986
2015    6       22     6  37    6.5298   378.2   11.744      39.066
2015    6       22     6  43    6.5397   378.4   11.754      39.147
2015    6       22     6  49    6.5495   378.6   11.765      39.229
2015    6       22     6  55    6.5593   378.8   11.775      39.313
2015    6       22     7   1    6.5689   379.0   11.785      39.396
2015    6       22     7   7    6.5784   379.2   11.794      39.480
2015    6       22     7  13    6.5879   379.5   11.803      39.563
2015    6       22     7  19    6.5972   379.7   11.812      39.646
2015    6       22     7  25    6.6064   379.9   11.821      39.728
2015    6       22     7  31    6.6156   380.1   11.830      39.811
2015    6       22     7  37    6.6247   380.3   11.838      39.894
2015    6       22     7  43    6.6336   380.5   11.846      39.977
2015    6       22     7  49    6.6425   380.7   11.854      40.060
2015    6       22     7  55    6.6513   381.0   11.862      40.144
2015    6       22     8   1    6.6600   381.2   11.869      40.228
2015    6       22     8   7    6.6686   381.4   11.875      40.311
2015    6       22     8  13    6.6771   381.6   11.882      40.395
2015    6       22     8  19    6.6856   381.9   11.888      40.479
2015    6       22     8  25    6.6940   382.1   11.894      40.562
2015    6       22     8  31    6.7023   382.3   11.899      40.645
2015    6       22     8  37    6.7105   382.6   11.904      40.727
2015    6       22     8  43    6.7186   382.8   11.908      40.809
2015    6       22     8  49    6.7266   383.0   11.912      40.891
2015    6       22     8  56    6.7346   383.3   11.915      40.972
2015    6       22     9   2    6.7425   383.5   11.918      41.053
2015    6       22     9   8    6.7503   383.8   11.921      41.132
2015    6       22     9  14    6.7580   384.0   11.923      41.211
2015    6       22     9  20    6.7656   384.3   11.924      41.288
2015    6       22     9  26    6.7732   384.5   11.926      41.365
2015    6       22     9  32    6.7807   384.7   11.926      41.441
2015    6       22     9  38    6.7882   385.0   11.927      41.515
2015    6       22     9  44    6.7956   385.2   11.927      41.589
2015    6       22     9  50    6.8029   385.5   11.927      41.662
2015    6       22     9  56    6.8102   385.7   11.926      41.734
2015    6       22    10   2    6.8174   386.0   11.925      41.806
2015    6       22    10   8    6.8246   386.2   11.925      41.877
2015    6       22    10  14    6.8318   386.5   11.923      41.947
2015    6       22    10  20    6.8389   386.7   11.922      42.017
2015    6       22    10  26    6.8460   387.0   11.921      42.087
2015    6       22    10  32    6.8531   387.2   11.919      42.156
2015    6       22    10  38    6.8602   387.5   11.917      42.224
2015    6       22    10  44    6.8673   387.7   11.916      42.293
2015    6       22    10  50    6.8744   388.0   11.914      42.361
2015    6       22    10  56    6.8815   388.2   11.912      42.429
2015    6       22    11   2    6.8887   388.5   11.910      42.496
2015    6       22    11   8    6.8958   388.7   11.909      42.564
2015    6       22    11  14    6.9031   388.9   11.907      42.632
2015    6       22    11  20    6.9103   389.2   11.906      42.699
2015    6       22    11  26    6.9177   389.4   11.905      42.767
2015    6       22    11  32    6.9251   389.7   11.904      42.835
2015    6       22    11  38    6.9326   389.9   11.904      42.904
2015    6       22    11  44    6.9403   390.2   11.904      42.972
2015    6       22    11  50    6.9481   390.4   11.904      43.041
2015    6       22    11  56    6.9561   390.7   11.905      43.112
2015    6       22    12   2    6.9642   390.9   11.906      43.185
2015    6       22    12   8    6.9725   391.2   11.908      43.261
2015    6       22    12  14    6.9809   391.5   11.910      43.338
2015    6       22    12  20    6.9894   391.8   11.912      43.418
2015    6       22    12  26    6.9981   392.0   11.914      43.500
2015    6       22    12  32    7.0068   392.3   11.917      43.584
2015    6       22    12  38    7.0156   392.6   11.919      43.670
2015    6       22    12  44    7.0245   392.9   11.921      43.758
2015    6       22    12  50    7.0334   393.2   11.924      43.847
2015    6       22    12  56    7.0422   393.5   11.926      43.936
2015    6       22    13   2    7.0510   393.8   11.928      44.027
2015    6       22    13   8    7.0598   394.1   11.929      44.119
2015    6       22    13  14    7.0684   394.4   11.930      44.212
2015    6       22    13  20    7.0769   394.7   11.930      44.306
2015    6       22    13  26    7.0853   395.0   11.930      44.399
2015    6       22    13  32    7.0935   395.4   11.930      44.492
2015    6       22    13  39    7.1016   395.7   11.929      44.583
2015    6       22    13  45    7.1096   396.0   11.927      44.674
2015    6       22    13  51    7.1174   396.3   11.926      44.764
2015    6       22    13  57    7.1250   396.6   11.923      44.853
2015    6       22    14   3    7.1325   396.9   11.921      44.942
2015    6       22    14   9    7.1399   397.3   11.918      45.031
2015    6       22    14  15    7.1471   397.6   11.914      45.118
2015    6       22    14  21    7.1542   397.9   11.911      45.205
2015    6       22    14  27    7.1613   398.2   11.907      45.292
2015    6       22    14  33    7.1682   398.5   11.903      45.378
2015    6       22    14  39    7.1750   398.9   11.898      45.464
2015    6       22    14  45    7.1817   399.2   11.894      45.549
2015    6       22    14  51    7.1884   399.5   11.890      45.634
2015    6       22    14  57    7.1950   399.8   11.885      45.720
2015    6       22    15   3    7.2014   400.2   11.880      45.805
2015    6       22    15   9    7.2078   400.5   11.875      45.891
2015    6       22    15  15    7.2142   400.8   11.870      45.977
2015    6       22    15  21    7.2204   401.1   11.865      46.063
2015    6       22    15  27    7.2266   401.5   11.860      46.149
2015    6       22    15  33    7.2327   401.8   11.854      46.235
2015    6       22    15  39    7.2388   402.1   11.849      46.321
2015    6       22    15  45    7.2447   402.4   11.843      46.407
2015    6       22    15  51    7.2506   402.8   11.837      46.493
2015    6       22    15  57    7.2564   403.1   11.831      46.580
2015    6       22    16   3    7.2622   403.4   11.824      46.666
2015    6       22    16   9    7.2679   403.8   11.817      46.752
2015    6       22    16  15    7.2735   404.1   11.810      46.839
2015    6       22    16  21    7.2790   404.4   11.803      46.925
2015    6       22    16  27    7.2845   404.8   11.796      47.010
2015    6       22    16  33    7.2899   405.1   11.788      47.095
2015    6       22    16  39    7.2953   405.4   11.780      47.180
2015    6       22    16  45    7.3006   405.8   11.772      47.265
2015    6       22    16  51    7.3058   406.1   11.764      47.349
2015    6       22    16  57    7.3110   406.4   11.756      47.433
2015    6       22    17   3    7.3162   406.8   11.747      47.517
2015    6       22    17   9    7.3213   407.1   11.738      47.600
2015    6       22    17  15    7.3264   407.4   11.729      47.683
2015    6       22    17  21    7.3315   407.8   11.720      47.766
2015    6       22    17  27    7.3366   408.1   11.711      47.848
2015    6       22    17  33    7.3416   408.4   11.702      47.931
2015    6       22    17  39    7.3467   408.8   11.692      48.013
2015    6       22    17  45    7.3517   409.1   11.683      48.094
2015    6       22    17  51    7.3567   409.4   11.673      48.175
2015    6       22    17  57    7.3617   409.8   11.663      48.256
2015    6       22    18   3    7.3668   410.1   11.654      48.337
2015    6       22    18   9    7.3719   410.4   11.644      48.417
2015    6       22    18  15    7.3770   410.8   11.634      48.498
2015    6       22    18  21    7.3821   411.1   11.624      48.577
2015    6       22    18  27    7.3873   411.4   11.615      48.657
2015    6       22    18  33    7.3925   411.7   11.605      48.736
2015    6       22    18  39    7.3979   412.1   11.596      48.815
2015    6       22    18  45    7.4033   412.4   11.586      48.894
2015    6       22    18  52    7.4088   412.7   11.577      48.974
2015    6       22    18  58    7.4143   413.1   11.569      49.052
2015    6       22    19   4    7.4201   413.4   11.560      49.130
2015    6       22    19  10    7.4259   413.7   11.552      49.209
2015    6       22    19  16    7.4319   414.0   11.545      49.288
2015    6       22    19  22    7.4380   414.4   11.537      49.370
2015    6       22    19  28    7.4443   414.7   11.530      49.454
2015    6       22    19  34    7.4506   415.1   11.523      49.539
2015    6       22    19  40    7.4570   415.4   11.516      49.626
2015    6       22    19  46    7.4634   415.8   11.509      49.715
2015    6       22    19  52    7.4699   416.1   11.503      49.805
2015    6       22    19  58    7.4764   416.5   11.496      49.896
2015    6       22    20   4    7.4829   416.9   11.488      49.989
2015    6       22    20  10    7.4893   417.2   11.481      50.081
2015    6       22    20  16    7.4957   417.6   11.473      50.175
2015    6       22    20  22    7.5019   418.0   11.465      50.269
2015    6       22    20  28    7.5081   418.4   11.456      50.364
2015    6       22    20  34    7.5141   418.8   11.446      50.459
2015    6       22    20  40    7.5199   419.2   11.436      50.555
2015    6       22    20  46    7.5256   419.6   11.425      50.649
2015    6       22    20  52    7.5310   420.0   11.413      50.742
2015    6       22    20  58    7.5363   420.4   11.401      50.833
2015    6       22    21   4    7.5415   420.8   11.388      50.923
2015    6       22    21  10    7.5464   421.2   11.375      51.011
2015    6       22    21  16    7.5512   421.7   11.361      51.098
2015    6       22    21  22    7.5559   422.1   11.346      51.184
2015    6       22    21  28    7.5604   422.5   11.331      51.268
2015    6       22    21  34    7.5647   422.9   11.315      51.351
2015    6       22    21  40    7.5690   423.3   11.299      51.432
2015    6       22    21  46    7.5731   423.8   11.283      51.512
2015    6       22    21  52    7.5770   424.2   11.266      51.590
2015    6       22    21  58    7.5809   424.7   11.248      51.667
2015    6       22    22   4    7.5846   425.1   11.230      51.743
2015    6       22    22  10    7.5882   425.5   11.212      51.818
2015    6       22    22  16    7.5918   426.0   11.193      51.893
2015    6       22    22  22    7.5951   426.5   11.174      51.968
2015    6       22    22  28    7.5983   426.9   11.154      52.041
2015    6       22    22  34    7.6013   427.4   11.134      52.115
2015    6       22    22  40    7.6041   427.8   11.113      52.187
2015    6       22    22  46    7.6067   428.3   11.092      52.260
2015    6       22    22  52    7.6090   428.8   11.069      52.332
2015    6       22    22  58    7.6110   429.3   11.046      52.403
2015    6       22    23   4    7.6127   429.8   11.022      52.471
2015    6       22    23  10    7.6140   430.2   10.998      52.538
2015    6       22    23  16    7.6150   430.7   10.973      52.603
2015    6       22    23  22    7.6158   431.1   10.948      52.666
2015    6       22    23  28    7.6164   431.6   10.923      52.729
2015    6       22    23  34    7.6168   432.0   10.898      52.791
2015    6       22    23  40    7.6170   432.5   10.872      52.853
2015    6       22    23  46    7.6171   432.9   10.847      52.914
2015    6       22    23  53    7.6171   433.4   10.821      52.974
2015    6       22    23  59    7.6170   433.8   10.796      53.035
2015    6       23     0   5    7.6170   434.2   10.771      53.095
2015    6       23     0  11    7.6169   434.7   10.747      53.156
2015    6       23     0  17    7.6169   435.1   10.723      53.217
2015    6       23     0  23    7.6169   435.5   10.699      53.277
2015    6       23     0  29    7.6170   435.9   10.676      53.340
2015    6       23     0  35    7.6174   436.3   10.654      53.404
2015    6       23     0  41    7.6178   436.8   10.632      53.470
2015    6       23     0  47    7.6183   437.2   10.610      53.537
2015    6       23     0  53    7.6190   437.6   10.588      53.605
2015    6       23     0  59    7.6197   438.1   10.567      53.675
2015    6       23     1   5    7.6205   438.5   10.546      53.745
2015    6       23     1  11    7.6213   438.9   10.524      53.816
2015    6       23     1  17    7.6222   439.4   10.503      53.888
2015    6       23     1  23    7.6231   439.8   10.482      53.960
2015    6       23     1  29    7.6241   440.3   10.461      54.033
2015    6       23     1  35    7.6250   440.7   10.440      54.106
2015    6       23     1  41    7.6260   441.1   10.419      54.179
2015    6       23     1  47    7.6270   441.6   10.398      54.252
2015    6       23     1  53    7.6279   442.0   10.376      54.325
2015    6       23     1  59    7.6288   442.5   10.354      54.398
2015    6       23     2   5    7.6297   442.9   10.332      54.471
2015    6       23     2  11    7.6306   443.4   10.310      54.544
2015    6       23     2  17    7.6314   443.9   10.288      54.615
2015    6       23     2  23    7.6321   444.3   10.265      54.686
2015    6       23     2  29    7.6327   444.8   10.242      54.755
2015    6       23     2  35    7.6332   445.2   10.218      54.824
2015    6       23     2  41    7.6335   445.7   10.193      54.892
2015    6       23     2  47    7.6336   446.2   10.168      54.955
2015    6       23     2  53    7.6335   446.6   10.142      55.016
2015    6       23     2  59    7.6332   447.1   10.116      55.074
2015    6       23     3   5    7.6326   447.5   10.090      55.129
2015    6       23     3  11    7.6318   447.9   10.063      55.182
2015    6       23     3  17    7.6308   448.4   10.036      55.232
2015    6       23     3  23    7.6296   448.8   10.009      55.280
2015    6       23     3  29    7.6282   449.2    9.982      55.327
2015    6       23     3  35    7.6268   449.7    9.955      55.373
2015    6       23     3  41    7.6251   450.1    9.928      55.417
2015    6       23     3  47    7.6234   450.5    9.901      55.461
2015    6       23     3  53    7.6216   450.9    9.875      55.503
2015    6       23     3  59    7.6197   451.3    9.849      55.546
2015    6       23     4   5    7.6177   451.8    9.824      55.591
2015    6       23     4  11    7.6157   452.2    9.798      55.636
2015    6       23     4  17    7.6137   452.6    9.773      55.682
2015    6       23     4  23    7.6117   453.1    9.749      55.728
2015    6       23     4  30    7.6095   453.5    9.724      55.776
2015    6       23     4  36    7.6074   454.0    9.699      55.823
2015    6       23     4  42    7.6051   454.4    9.675      55.871
2015    6       23     4  48    7.6028   454.9    9.651      55.919
2015    6       23     4  54    7.6004   455.3    9.626      55.966
2015    6       23     5   0    7.5979   455.8    9.602      56.013
2015    6       23     5   6    7.5953   456.3    9.577      56.060
2015    6       23     5  12    7.5926   456.7    9.552      56.106
2015    6       23     5  18    7.5897   457.2    9.527      56.153
2015    6       23     5  24    7.5867   457.7    9.501      56.198
2015    6       23     5  30    7.5834   458.2    9.475      56.243
2015    6       23     5  36    7.5800   458.7    9.448      56.285
2015    6       23     5  42    7.5762   459.3    9.421      56.326
2015    6       23     5  48    7.5722   459.8    9.393      56.364
2015    6       23     5  54    7.5680   460.3    9.364      56.399
2015    6       23     6   0    7.5635   460.8    9.335      56.432
2015    6       23     6   6    7.5588   461.3    9.306      56.464
2015    6       23     6  12    7.5539   461.8    9.275      56.494
2015    6       23     6  18    7.5487   462.3    9.245      56.520
2015    6       23     6  24    7.5432   462.8    9.213      56.542
2015    6       23     6  30    7.5376   463.3    9.182      56.562
2015    6       23     6  36    7.5318   463.8    9.151      56.579
2015    6       23     6  42    7.5260   464.2    9.120      56.594
2015    6       23     6  48    7.5204   464.7    9.090      56.608
2015    6       23     6  54    7.5147   465.1    9.061      56.623
2015    6       23     7   0    7.5092   465.6    9.032      56.637
2015    6       23     7   6    7.5038   466.0    9.004      56.651
2015    6       23     7  12    7.4986   466.4    8.976      56.665
2015    6       23     7  18    7.4935   466.8    8.950      56.680
2015    6       23     7  24    7.4887   467.2    8.924      56.696
2015    6       23     7  30    7.4840   467.6    8.899      56.715
2015    6       23     7  36    7.4796   467.9    8.876      56.736
2015    6       23     7  42    7.4753   468.3    8.853      56.759
2015    6       23     7  48    7.4713   468.7    8.831      56.789
2015    6       23     7  54    7.4676   469.2    8.810      56.826
2015    6       23     8   0    7.4640   469.6    8.790      56.868
2015    6       23     8   6    7.4606   470.0    8.770      56.915
2015    6       23     8  12    7.4573   470.5    8.751      56.967
2015    6       23     8  18    7.4541   470.9    8.732      57.022
2015    6       23     8  24    7.4509   471.4    8.714      57.080
2015    6       23     8  30    7.4476   471.8    8.695      57.141
2015    6       23     8  36    7.4443   472.3    8.676      57.203
2015    6       23     8  42    7.4409   472.8    8.658      57.267
2015    6       23     8  48    7.4373   473.3    8.639      57.332
2015    6       23     8  54    7.4336   473.7    8.620      57.398
2015    6       23     9   0    7.4298   474.2    8.601      57.465
2015    6       23     9   6    7.4258   474.7    8.582      57.530
2015    6       23     9  12    7.4216   475.2    8.562      57.593
2015    6       23     9  18    7.4171   475.6    8.542      57.655
2015    6       23     9  24    7.4126   476.1    8.522      57.715
2015    6       23     9  30    7.4077   476.6    8.501      57.773
2015    6       23     9  36    7.4026   477.1    8.480      57.828
2015    6       23     9  43    7.3972   477.6    8.458      57.883
2015    6       23     9  49    7.3916   478.1    8.435      57.936
2015    6       23     9  55    7.3857   478.6    8.412      57.987
2015    6       23    10   1    7.3797   479.1    8.388      58.032
2015    6       23    10   7    7.3732   479.6    8.363      58.073
2015    6       23    10  13    7.3666   480.1    8.338      58.110
2015    6       23    10  19    7.3596   480.6    8.313      58.144
2015    6       23    10  25    7.3525   481.1    8.287      58.173
2015    6       23    10  31    7.3450   481.5    8.261      58.200
2015    6       23    10  37    7.3375   482.0    8.235      58.224
2015    6       23    10  43    7.3297   482.5    8.208      58.247
2015    6       23    10  49    7.3218   483.0    8.181      58.269
2015    6       23    10  55    7.3137   483.5    8.155      58.288
2015    6       23    11   1    7.3055   484.0    8.128      58.306
2015    6       23    11   7    7.2969   484.5    8.100      58.324
2015    6       23    11  13    7.2882   485.0    8.073      58.341
2015    6       23    11  19    7.2792   485.5    8.044      58.355
2015    6       23    11  25    7.2701   486.0    8.016      58.365
2015    6       23    11  31    7.2609   486.5    7.988      58.373
2015    6       23    11  37    7.2517   487.0    7.959      58.379
2015    6       23    11  43    7.2424   487.5    7.931      58.382
2015    6       23    11  49    7.2331   488.0    7.903      58.382
2015    6       23    11  55    7.2238   488.4    7.875      58.380
2015    6       23    12   1    7.2146   488.9    7.847      58.377
2015    6       23    12   7    7.2054   489.3    7.820      58.374
2015    6       23    12  13    7.1963   489.8    7.793      58.370
2015    6       23    12  19    7.1875   490.2    7.767      58.364
2015    6       23    12  25    7.1789   490.6    7.741      58.356
2015    6       23    12  31    7.1706   490.9    7.717      58.351
2015    6       23    12  37    7.1626   491.3    7.694      58.351
2015    6       23    12  43    7.1547   491.7    7.672      58.352
2015    6       23    12  49    7.1471   492.1    7.650      58.356
2015    6       23    12  55    7.1396   492.5    7.628      58.363
2015    6       23    13   1    7.1322   492.9    7.607      58.374
2015    6       23    13   7    7.1247   493.3    7.586      58.386
2015    6       23    13  13    7.1173   493.7    7.565      58.398
2015    6       23    13  19    7.1100   494.2    7.544      58.415
2015    6       23    13  25    7.1027   494.6    7.524      58.434
2015    6       23    13  31    7.0954   495.0    7.504      58.455
2015    6       23    13  37    7.0881   495.5    7.484      58.477
2015    6       23    13  43    7.0808   495.9    7.464      58.500
2015    6       23    13  49    7.0736   496.4    7.444      58.524
2015    6       23    13  55    7.0664   496.8    7.424      58.548
2015    6       23    14   1    7.0592   497.2    7.405      58.571
2015    6       23    14   7    7.0521   497.6    7.386      58.593
2015    6       23    14  13    7.0450   498.0    7.367      58.613
2015    6       23    14  19    7.0381   498.4    7.349      58.634
2015    6       23    14  25    7.0313   498.8    7.331      58.656
2015    6       23    14  31    7.0247   499.2    7.314      58.679
2015    6       23    14  37    7.0182   499.5    7.298      58.699
2015    6       23    14  43    7.0118   499.9    7.282      58.718
2015    6       23    14  49    7.0055   500.2    7.266      58.737
2015    6       23    14  55    6.9993   500.5    7.251      58.757
2015    6       23    15   2    6.9932   500.8    7.235      58.778
2015    6       23    15   8    6.9872   501.1    7.221      58.801
2015    6       23    15  14    6.9813   501.5    7.206      58.828
2015    6       23    15  20    6.9754   501.8    7.192      58.861
2015    6       23    15  26    6.9696   502.2    7.179      58.897
2015    6       23    15  32    6.9639   502.6    7.165      58.938
2015    6       23    15  38    6.9582   503.0    7.151      58.981
2015    6       23    15  44    6.9524   503.4    7.138      59.027
2015    6       23    15  50    6.9466   503.8    7.124      59.077
2015    6       23    15  56    6.9407   504.3    7.110      59.128
2015    6       23    16   2    6.9347   504.7    7.096      59.180
2015    6       23    16   8    6.9284   505.2    7.081      59.234
2015    6       23    16  14    6.9218   505.6    7.065      59.290
2015    6       23    16  20    6.9148   506.1    7.049      59.342
2015    6       23    16  26    6.9075   506.6    7.032      59.391
2015    6       23    16  32    6.8999   507.1    7.014      59.437
2015    6       23    16  38    6.8921   507.5    6.996      59.475
2015    6       23    16  44    6.8839   508.0    6.978      59.509
2015    6       23    16  50    6.8756   508.4    6.959      59.536
2015    6       23    16  56    6.8671   508.9    6.940      59.561
2015    6       23    17   2    6.8584   509.3    6.920      59.581
2015    6       23    17   8    6.8497   509.7    6.901      59.598
2015    6       23    17  14    6.8409   510.1    6.881      59.612
2015    6       23    17  20    6.8322   510.5    6.862      59.622
2015    6       23    17  26    6.8236   510.8    6.844      59.628
2015    6       23    17  32    6.8153   511.2    6.826      59.633
2015    6       23    17  38    6.8071   511.6    6.808      59.639
2015    6       23    17  44    6.7991   511.9    6.791      59.645
2015    6       23    17  50    6.7913   512.3    6.775      59.653
2015    6       23    17  56    6.7836   512.6    6.758      59.665
2015    6       23    18   2    6.7761   513.0    6.742      59.680
2015    6       23    18   8    6.7687   513.4    6.726      59.698
2015    6       23    18  14    6.7613   513.9    6.710      59.721
2015    6       23    18  20    6.7540   514.3    6.694      59.748
2015    6       23    18  26    6.7466   514.8    6.677      59.782
2015    6       23    18  32    6.7390   515.3    6.660      59.818
2015    6       23    18  38    6.7313   515.9    6.642      59.851
2015    6       23    18  44    6.7234   516.4    6.623      59.882
2015    6       23    18  50    6.7154   516.9    6.604      59.909
2015    6       23    18  56    6.7074   517.5    6.584      59.934
2015    6       23    19   2    6.6991   518.0    6.564      59.956
2015    6       23    19   8    6.6908   518.5    6.544      59.974
2015    6       23    19  14    6.6824   519.0    6.523      59.987
2015    6       23    19  20    6.6740   519.5    6.502      59.998
2015    6       23    19  27    6.6656   520.0    6.482      60.005
2015    6       23    19  33    6.6571   520.4    6.461      60.007
2015    6       23    19  39    6.6488   520.8    6.441      60.004
2015    6       23    19  45    6.6406   521.2    6.422      59.995
2015    6       23    19  51    6.6327   521.6    6.403      59.986
2015    6       23    19  57    6.6250   521.9    6.385      59.977
2015    6       23    20   3    6.6174   522.3    6.368      59.971
2015    6       23    20   9    6.6102   522.6    6.351      59.965
2015    6       23    20  15    6.6031   522.9    6.335      59.962
2015    6       23    20  21    6.5961   523.3    6.320      59.962
2015    6       23    20  27    6.5893   523.6    6.305      59.964
2015    6       23    20  33    6.5826   524.0    6.290      59.972
2015    6       23    20  39    6.5758   524.4    6.275      59.988
2015    6       23    20  45    6.5692   524.8    6.261      60.008
2015    6       23    20  51    6.5625   525.2    6.246      60.031
2015    6       23    20  57    6.5558   525.6    6.232      60.055
2015    6       23    21   3    6.5491   526.1    6.217      60.082
2015    6       23    21   9    6.5423   526.5    6.202      60.110
2015    6       23    21  15    6.5355   526.9    6.188      60.139
2015    6       23    21  21    6.5286   527.3    6.173      60.167
2015    6       23    21  27    6.5218   527.8    6.158      60.195
2015    6       23    21  33    6.5148   528.2    6.143      60.222
2015    6       23    21  39    6.5079   528.6    6.129      60.248
2015    6       23    21  45    6.5010   528.9    6.115      60.271
2015    6       23    21  51    6.4942   529.3    6.101      60.292
2015    6       23    21  57    6.4875   529.6    6.087      60.313
2015    6       23    22   3    6.4809   529.9    6.074      60.334
2015    6       23    22   9    6.4742   530.3    6.060      60.354
2015    6       23    22  15    6.4677   530.6    6.047      60.377
2015    6       23    22  21    6.4611   530.9    6.034      60.402
2015    6       23    22  27    6.4546   531.3    6.022      60.430
2015    6       23    22  33    6.4481   531.7    6.009      60.460
2015    6       23    22  39    6.4417   532.1    5.997      60.491
2015    6       23    22  45    6.4352   532.5    5.984      60.524
2015    6       23    22  51    6.4288   532.9    5.971      60.557
2015    6       23    22  57    6.4222   533.3    5.958      60.589
2015    6       23    23   3    6.4156   533.7    5.945      60.621
2015    6       23    23   9    6.4088   534.2    5.932      60.654
2015    6       23    23  15    6.4020   534.7    5.919      60.685
2015    6       23    23  21    6.3949   535.1    5.905      60.716
2015    6       23    23  27    6.3877   535.6    5.890      60.747
2015    6       23    23  33    6.3801   536.1    5.874      60.775
2015    6       23    23  39    6.3722   536.6    5.858      60.796
2015    6       23    23  45    6.3640   537.1    5.841      60.812
2015    6       23    23  51    6.3557   537.6    5.824      60.823
2015    6       23    23  57    6.3471   538.1    5.806      60.830
2015    6       24     0   3    6.3384   538.6    5.788      60.831
