year    month   day   hour  minute  B_enl V_enl   n_enl       T_enl
[year] [month] [day] [hour][minute] [nT]  [km/s]  [cm-3]      [kK]
2015    5       31     0   5    3.5248   572.2    3.051      47.254
2015    5       31     0  11    3.5233   572.0    3.052      47.222
2015    5       31     0  17    3.5218   571.7    3.054      47.191
2015    5       31     0  23    3.5203   571.5    3.055      47.161
2015    5       31     0  29    3.5188   571.3    3.056      47.131
2015    5       31     0  35    3.5173   571.1    3.058      47.102
2015    5       31     0  41    3.5159   570.9    3.059      47.074
2015    5       31     0  47    3.5145   570.7    3.060      47.046
2015    5       31     0  53    3.5130   570.5    3.062      47.020
2015    5       31     0  59    3.5116   570.3    3.063      46.994
2015    5       31     1   5    3.5101   570.1    3.065      46.968
2015    5       31     1  11    3.5087   569.9    3.066      46.942
2015    5       31     1  17    3.5072   569.7    3.067      46.915
2015    5       31     1  24    3.5058   569.5    3.069      46.889
2015    5       31     1  30    3.5043   569.3    3.070      46.862
2015    5       31     1  36    3.5028   569.1    3.071      46.835
2015    5       31     1  42    3.5013   568.9    3.072      46.807
2015    5       31     1  48    3.4999   568.7    3.074      46.779
2015    5       31     1  54    3.4984   568.5    3.075      46.751
2015    5       31     2   0    3.4969   568.3    3.076      46.721
2015    5       31     2   6    3.4954   568.1    3.077      46.692
2015    5       31     2  12    3.4939   567.9    3.078      46.662
2015    5       31     2  18    3.4924   567.7    3.079      46.631
2015    5       31     2  24    3.4909   567.5    3.080      46.600
2015    5       31     2  30    3.4894   567.3    3.081      46.568
2015    5       31     2  36    3.4878   567.0    3.082      46.535
2015    5       31     2  42    3.4863   566.8    3.083      46.502
2015    5       31     2  49    3.4848   566.6    3.084      46.469
2015    5       31     2  55    3.4833   566.4    3.084      46.435
2015    5       31     3   1    3.4817   566.2    3.085      46.401
2015    5       31     3   7    3.4802   566.0    3.086      46.366
2015    5       31     3  13    3.4787   565.8    3.087      46.330
2015    5       31     3  19    3.4772   565.6    3.087      46.295
2015    5       31     3  25    3.4757   565.4    3.088      46.258
2015    5       31     3  31    3.4742   565.2    3.089      46.222
2015    5       31     3  37    3.4727   565.0    3.089      46.185
2015    5       31     3  43    3.4712   564.8    3.090      46.147
2015    5       31     3  49    3.4697   564.6    3.091      46.109
2015    5       31     3  55    3.4682   564.4    3.091      46.071
2015    5       31     4   1    3.4667   564.2    3.092      46.033
2015    5       31     4   8    3.4652   564.0    3.092      45.995
2015    5       31     4  14    3.4637   563.7    3.093      45.957
2015    5       31     4  20    3.4623   563.5    3.093      45.919
2015    5       31     4  26    3.4608   563.3    3.094      45.880
2015    5       31     4  32    3.4593   563.1    3.094      45.841
2015    5       31     4  38    3.4578   562.9    3.095      45.802
2015    5       31     4  44    3.4564   562.7    3.095      45.763
2015    5       31     4  50    3.4549   562.5    3.096      45.723
2015    5       31     4  56    3.4534   562.3    3.096      45.683
2015    5       31     5   2    3.4520   562.0    3.096      45.644
2015    5       31     5   8    3.4505   561.8    3.097      45.603
2015    5       31     5  14    3.4491   561.6    3.097      45.563
2015    5       31     5  20    3.4476   561.4    3.098      45.523
2015    5       31     5  26    3.4462   561.2    3.098      45.482
2015    5       31     5  33    3.4448   561.0    3.099      45.441
2015    5       31     5  39    3.4434   560.7    3.099      45.400
2015    5       31     5  45    3.4419   560.5    3.099      45.359
2015    5       31     5  51    3.4405   560.3    3.100      45.318
2015    5       31     5  57    3.4391   560.1    3.100      45.277
2015    5       31     6   3    3.4377   559.9    3.101      45.236
2015    5       31     6   9    3.4364   559.6    3.101      45.194
2015    5       31     6  15    3.4350   559.4    3.102      45.153
2015    5       31     6  21    3.4336   559.2    3.102      45.113
2015    5       31     6  27    3.4322   559.0    3.103      45.072
2015    5       31     6  33    3.4309   558.7    3.104      45.031
2015    5       31     6  39    3.4295   558.5    3.104      44.991
2015    5       31     6  45    3.4282   558.3    3.105      44.951
2015    5       31     6  52    3.4268   558.1    3.106      44.911
2015    5       31     6  58    3.4255   557.8    3.107      44.872
2015    5       31     7   4    3.4241   557.6    3.107      44.833
2015    5       31     7  10    3.4228   557.4    3.108      44.794
2015    5       31     7  16    3.4215   557.2    3.109      44.755
2015    5       31     7  22    3.4202   556.9    3.110      44.717
2015    5       31     7  28    3.4189   556.7    3.111      44.678
2015    5       31     7  34    3.4176   556.5    3.112      44.640
2015    5       31     7  40    3.4163   556.3    3.113      44.603
2015    5       31     7  46    3.4150   556.0    3.114      44.565
2015    5       31     7  52    3.4137   555.8    3.115      44.528
2015    5       31     7  58    3.4124   555.6    3.116      44.490
2015    5       31     8   4    3.4111   555.3    3.117      44.453
2015    5       31     8  10    3.4098   555.1    3.119      44.416
2015    5       31     8  17    3.4086   554.9    3.120      44.379
2015    5       31     8  23    3.4073   554.6    3.121      44.343
2015    5       31     8  29    3.4060   554.4    3.122      44.306
2015    5       31     8  35    3.4048   554.2    3.123      44.270
2015    5       31     8  41    3.4035   553.9    3.125      44.233
2015    5       31     8  47    3.4022   553.7    3.126      44.197
2015    5       31     8  53    3.4010   553.5    3.127      44.161
2015    5       31     8  59    3.3997   553.2    3.128      44.125
2015    5       31     9   5    3.3985   553.0    3.130      44.089
2015    5       31     9  11    3.3973   552.8    3.131      44.053
2015    5       31     9  17    3.3960   552.5    3.133      44.018
2015    5       31     9  23    3.3948   552.3    3.134      43.982
2015    5       31     9  29    3.3936   552.1    3.136      43.947
2015    5       31     9  36    3.3924   551.8    3.137      43.912
2015    5       31     9  42    3.3912   551.6    3.139      43.878
2015    5       31     9  48    3.3900   551.4    3.140      43.843
2015    5       31     9  54    3.3889   551.1    3.142      43.809
2015    5       31    10   0    3.3877   550.9    3.143      43.775
2015    5       31    10   6    3.3866   550.6    3.145      43.742
2015    5       31    10  12    3.3854   550.4    3.147      43.708
2015    5       31    10  18    3.3843   550.2    3.148      43.675
2015    5       31    10  24    3.3832   549.9    3.150      43.642
2015    5       31    10  30    3.3821   549.7    3.152      43.610
2015    5       31    10  36    3.3811   549.5    3.154      43.578
2015    5       31    10  42    3.3800   549.2    3.155      43.546
2015    5       31    10  48    3.3790   549.0    3.157      43.515
2015    5       31    10  54    3.3779   548.8    3.159      43.483
2015    5       31    11   1    3.3769   548.5    3.161      43.452
2015    5       31    11   7    3.3758   548.3    3.163      43.422
2015    5       31    11  13    3.3748   548.0    3.165      43.392
2015    5       31    11  19    3.3738   547.8    3.167      43.361
2015    5       31    11  25    3.3727   547.6    3.168      43.331
2015    5       31    11  31    3.3717   547.3    3.170      43.301
2015    5       31    11  37    3.3707   547.1    3.172      43.272
2015    5       31    11  43    3.3697   546.9    3.174      43.242
2015    5       31    11  49    3.3686   546.7    3.176      43.212
2015    5       31    11  55    3.3676   546.4    3.177      43.181
2015    5       31    12   1    3.3666   546.2    3.179      43.151
2015    5       31    12   7    3.3655   546.0    3.181      43.121
2015    5       31    12  13    3.3645   545.7    3.183      43.091
2015    5       31    12  20    3.3635   545.5    3.184      43.060
2015    5       31    12  26    3.3624   545.3    3.186      43.029
2015    5       31    12  32    3.3614   545.1    3.188      42.998
2015    5       31    12  38    3.3603   544.8    3.189      42.967
2015    5       31    12  44    3.3592   544.6    3.191      42.936
2015    5       31    12  50    3.3582   544.4    3.192      42.904
2015    5       31    12  56    3.3571   544.1    3.194      42.873
2015    5       31    13   2    3.3560   543.9    3.195      42.840
2015    5       31    13   8    3.3550   543.7    3.197      42.808
2015    5       31    13  14    3.3539   543.5    3.198      42.776
2015    5       31    13  20    3.3528   543.2    3.200      42.743
2015    5       31    13  26    3.3517   543.0    3.201      42.710
2015    5       31    13  32    3.3506   542.8    3.203      42.676
2015    5       31    13  38    3.3495   542.5    3.204      42.643
2015    5       31    13  45    3.3485   542.3    3.205      42.609
2015    5       31    13  51    3.3474   542.1    3.206      42.575
2015    5       31    13  57    3.3463   541.9    3.208      42.540
2015    5       31    14   3    3.3452   541.6    3.209      42.505
2015    5       31    14   9    3.3441   541.4    3.210      42.471
2015    5       31    14  15    3.3430   541.2    3.211      42.435
2015    5       31    14  21    3.3419   540.9    3.213      42.400
2015    5       31    14  27    3.3408   540.7    3.214      42.364
2015    5       31    14  33    3.3397   540.5    3.215      42.327
2015    5       31    14  39    3.3386   540.3    3.216      42.291
2015    5       31    14  45    3.3375   540.0    3.217      42.254
2015    5       31    14  51    3.3364   539.8    3.218      42.217
2015    5       31    14  57    3.3354   539.6    3.219      42.179
2015    5       31    15   4    3.3343   539.3    3.220      42.142
2015    5       31    15  10    3.3332   539.1    3.222      42.104
2015    5       31    15  16    3.3321   538.9    3.223      42.066
2015    5       31    15  22    3.3310   538.6    3.224      42.027
2015    5       31    15  28    3.3300   538.4    3.225      41.989
2015    5       31    15  34    3.3289   538.2    3.226      41.950
2015    5       31    15  40    3.3278   537.9    3.227      41.911
2015    5       31    15  46    3.3268   537.7    3.228      41.873
2015    5       31    15  52    3.3257   537.4    3.229      41.834
2015    5       31    15  58    3.3247   537.2    3.230      41.795
2015    5       31    16   4    3.3237   537.0    3.231      41.757
2015    5       31    16  10    3.3226   536.7    3.233      41.718
2015    5       31    16  16    3.3216   536.5    3.234      41.680
2015    5       31    16  22    3.3206   536.2    3.235      41.642
2015    5       31    16  29    3.3196   536.0    3.236      41.603
2015    5       31    16  35    3.3186   535.8    3.238      41.566
2015    5       31    16  41    3.3177   535.5    3.239      41.528
2015    5       31    16  47    3.3167   535.3    3.240      41.490
2015    5       31    16  53    3.3158   535.0    3.242      41.453
2015    5       31    16  59    3.3148   534.8    3.243      41.416
2015    5       31    17   5    3.3139   534.6    3.244      41.380
2015    5       31    17  11    3.3130   534.3    3.246      41.343
2015    5       31    17  17    3.3121   534.1    3.247      41.307
2015    5       31    17  23    3.3112   533.8    3.249      41.271
2015    5       31    17  29    3.3103   533.6    3.251      41.236
2015    5       31    17  35    3.3094   533.3    3.252      41.201
2015    5       31    17  41    3.3086   533.1    3.254      41.166
2015    5       31    17  48    3.3077   532.8    3.256      41.132
2015    5       31    17  54    3.3069   532.6    3.257      41.098
2015    5       31    18   0    3.3060   532.4    3.259      41.064
2015    5       31    18   6    3.3052   532.1    3.261      41.030
2015    5       31    18  12    3.3044   531.9    3.263      40.997
2015    5       31    18  18    3.3036   531.6    3.265      40.964
2015    5       31    18  24    3.3028   531.4    3.266      40.932
2015    5       31    18  30    3.3020   531.1    3.268      40.899
2015    5       31    18  36    3.3012   530.9    3.270      40.867
2015    5       31    18  42    3.3004   530.7    3.272      40.836
2015    5       31    18  48    3.2996   530.4    3.274      40.804
2015    5       31    18  54    3.2988   530.2    3.276      40.773
2015    5       31    19   0    3.2981   529.9    3.278      40.742
2015    5       31    19   6    3.2973   529.7    3.280      40.711
2015    5       31    19  13    3.2966   529.4    3.282      40.680
2015    5       31    19  19    3.2958   529.2    3.284      40.650
2015    5       31    19  25    3.2951   529.0    3.286      40.619
2015    5       31    19  31    3.2943   528.7    3.288      40.589
2015    5       31    19  37    3.2936   528.5    3.291      40.559
2015    5       31    19  43    3.2928   528.2    3.293      40.529
2015    5       31    19  49    3.2920   528.0    3.295      40.499
2015    5       31    19  55    3.2913   527.7    3.297      40.469
2015    5       31    20   1    3.2905   527.5    3.299      40.439
2015    5       31    20   7    3.2898   527.3    3.301      40.409
2015    5       31    20  13    3.2890   527.0    3.303      40.380
2015    5       31    20  19    3.2882   526.8    3.305      40.349
2015    5       31    20  25    3.2875   526.5    3.307      40.319
2015    5       31    20  32    3.2867   526.3    3.309      40.289
2015    5       31    20  38    3.2859   526.1    3.311      40.259
2015    5       31    20  44    3.2851   525.8    3.313      40.229
2015    5       31    20  50    3.2844   525.6    3.315      40.198
2015    5       31    20  56    3.2836   525.3    3.317      40.168
2015    5       31    21   2    3.2828   525.1    3.319      40.137
2015    5       31    21   8    3.2821   524.9    3.321      40.106
2015    5       31    21  14    3.2813   524.6    3.323      40.075
2015    5       31    21  20    3.2805   524.4    3.325      40.044
2015    5       31    21  26    3.2798   524.1    3.327      40.013
2015    5       31    21  32    3.2790   523.9    3.329      39.981
2015    5       31    21  38    3.2782   523.7    3.331      39.950
2015    5       31    21  44    3.2775   523.4    3.333      39.918
2015    5       31    21  50    3.2767   523.2    3.334      39.886
2015    5       31    21  57    3.2760   523.0    3.336      39.854
2015    5       31    22   3    3.2752   522.7    3.338      39.821
2015    5       31    22   9    3.2744   522.5    3.340      39.789
2015    5       31    22  15    3.2737   522.2    3.342      39.756
2015    5       31    22  21    3.2729   522.0    3.343      39.724
2015    5       31    22  27    3.2721   521.8    3.345      39.691
2015    5       31    22  33    3.2714   521.5    3.347      39.658
2015    5       31    22  39    3.2706   521.3    3.348      39.625
2015    5       31    22  45    3.2699   521.1    3.350      39.592
2015    5       31    22  51    3.2691   520.8    3.352      39.558
2015    5       31    22  57    3.2684   520.6    3.353      39.525
2015    5       31    23   3    3.2676   520.3    3.355      39.491
2015    5       31    23   9    3.2669   520.1    3.357      39.458
2015    5       31    23  16    3.2661   519.9    3.358      39.424
2015    5       31    23  22    3.2654   519.6    3.360      39.391
2015    5       31    23  28    3.2647   519.4    3.362      39.357
2015    5       31    23  34    3.2639   519.1    3.363      39.324
2015    5       31    23  40    3.2632   518.9    3.365      39.290
2015    5       31    23  46    3.2624   518.7    3.366      39.257
2015    5       31    23  52    3.2617   518.4    3.368      39.224
2015    5       31    23  58    3.2610   518.2    3.370      39.190
2015    6        1     0   4    3.2603   517.9    3.371      39.157
2015    6        1     0  10    3.2596   517.7    3.373      39.124
2015    6        1     0  16    3.2589   517.5    3.375      39.091
2015    6        1     0  22    3.2582   517.2    3.377      39.058
2015    6        1     0  28    3.2575   517.0    3.378      39.026
2015    6        1     0  34    3.2569   516.7    3.380      38.993
2015    6        1     0  41    3.2562   516.5    3.382      38.961
2015    6        1     0  47    3.2555   516.2    3.384      38.929
2015    6        1     0  53    3.2549   516.0    3.386      38.897
2015    6        1     0  59    3.2542   515.8    3.388      38.865
2015    6        1     1   5    3.2536   515.5    3.390      38.834
2015    6        1     1  11    3.2530   515.3    3.392      38.802
2015    6        1     1  17    3.2524   515.0    3.394      38.771
2015    6        1     1  23    3.2517   514.8    3.396      38.740
2015    6        1     1  29    3.2511   514.5    3.398      38.709
2015    6        1     1  35    3.2506   514.3    3.400      38.679
2015    6        1     1  41    3.2500   514.1    3.402      38.648
2015    6        1     1  47    3.2494   513.8    3.404      38.618
2015    6        1     1  53    3.2488   513.6    3.406      38.588
2015    6        1     2   0    3.2483   513.3    3.408      38.558
2015    6        1     2   6    3.2477   513.1    3.410      38.528
2015    6        1     2  12    3.2472   512.8    3.413      38.498
2015    6        1     2  18    3.2466   512.6    3.415      38.468
2015    6        1     2  24    3.2461   512.4    3.417      38.439
2015    6        1     2  30    3.2456   512.1    3.419      38.409
2015    6        1     2  36    3.2450   511.9    3.422      38.379
2015    6        1     2  42    3.2445   511.6    3.424      38.350
2015    6        1     2  48    3.2440   511.4    3.426      38.320
2015    6        1     2  54    3.2435   511.1    3.428      38.291
2015    6        1     3   0    3.2430   510.9    3.431      38.261
2015    6        1     3   6    3.2425   510.7    3.433      38.232
2015    6        1     3  12    3.2420   510.4    3.435      38.203
2015    6        1     3  18    3.2415   510.2    3.438      38.173
2015    6        1     3  25    3.2410   509.9    3.440      38.144
2015    6        1     3  31    3.2405   509.7    3.442      38.114
2015    6        1     3  37    3.2401   509.4    3.445      38.085
2015    6        1     3  43    3.2396   509.2    3.447      38.055
2015    6        1     3  49    3.2391   509.0    3.449      38.026
2015    6        1     3  55    3.2386   508.7    3.452      37.996
2015    6        1     4   1    3.2382   508.5    3.454      37.967
2015    6        1     4   7    3.2377   508.2    3.456      37.937
2015    6        1     4  13    3.2373   508.0    3.459      37.907
2015    6        1     4  19    3.2368   507.7    3.461      37.878
2015    6        1     4  25    3.2364   507.5    3.463      37.848
2015    6        1     4  31    3.2359   507.2    3.466      37.819
2015    6        1     4  37    3.2355   507.0    3.468      37.789
2015    6        1     4  44    3.2350   506.8    3.470      37.759
2015    6        1     4  50    3.2346   506.5    3.473      37.730
2015    6        1     4  56    3.2342   506.3    3.475      37.700
2015    6        1     5   2    3.2337   506.0    3.477      37.670
2015    6        1     5   8    3.2333   505.8    3.480      37.641
2015    6        1     5  14    3.2329   505.5    3.482      37.611
2015    6        1     5  20    3.2325   505.3    3.484      37.581
2015    6        1     5  26    3.2320   505.1    3.487      37.552
2015    6        1     5  32    3.2316   504.8    3.489      37.522
2015    6        1     5  38    3.2312   504.6    3.491      37.492
2015    6        1     5  44    3.2308   504.3    3.494      37.462
2015    6        1     5  50    3.2304   504.1    3.496      37.432
2015    6        1     5  56    3.2299   503.8    3.498      37.403
2015    6        1     6   2    3.2295   503.6    3.501      37.373
2015    6        1     6   9    3.2291   503.3    3.503      37.343
2015    6        1     6  15    3.2287   503.1    3.505      37.313
2015    6        1     6  21    3.2283   502.9    3.508      37.284
2015    6        1     6  27    3.2279   502.6    3.510      37.254
2015    6        1     6  33    3.2276   502.4    3.513      37.224
2015    6        1     6  39    3.2272   502.1    3.515      37.194
2015    6        1     6  45    3.2268   501.9    3.517      37.165
2015    6        1     6  51    3.2264   501.6    3.520      37.135
2015    6        1     6  57    3.2261   501.4    3.522      37.106
2015    6        1     7   3    3.2257   501.1    3.524      37.076
2015    6        1     7   9    3.2254   500.9    3.527      37.047
2015    6        1     7  15    3.2250   500.7    3.529      37.017
2015    6        1     7  21    3.2247   500.4    3.532      36.988
2015    6        1     7  27    3.2243   500.2    3.534      36.958
2015    6        1     7  34    3.2240   499.9    3.536      36.929
2015    6        1     7  40    3.2237   499.7    3.539      36.900
2015    6        1     7  46    3.2234   499.4    3.541      36.870
2015    6        1     7  52    3.2231   499.2    3.544      36.841
2015    6        1     7  58    3.2228   498.9    3.546      36.812
2015    6        1     8   4    3.2225   498.7    3.549      36.783
2015    6        1     8  10    3.2222   498.4    3.551      36.755
2015    6        1     8  16    3.2219   498.2    3.554      36.726
2015    6        1     8  22    3.2217   498.0    3.556      36.697
2015    6        1     8  28    3.2214   497.7    3.559      36.668
2015    6        1     8  34    3.2212   497.5    3.561      36.640
2015    6        1     8  40    3.2209   497.2    3.564      36.611
2015    6        1     8  46    3.2207   497.0    3.567      36.583
2015    6        1     8  53    3.2205   496.7    3.569      36.554
2015    6        1     8  59    3.2203   496.5    3.572      36.526
2015    6        1     9   5    3.2201   496.2    3.575      36.498
2015    6        1     9  11    3.2199   496.0    3.577      36.470
2015    6        1     9  17    3.2197   495.8    3.580      36.442
2015    6        1     9  23    3.2195   495.5    3.583      36.414
2015    6        1     9  29    3.2193   495.3    3.585      36.386
2015    6        1     9  35    3.2192   495.0    3.588      36.358
2015    6        1     9  41    3.2190   494.8    3.591      36.331
2015    6        1     9  47    3.2189   494.5    3.594      36.303
2015    6        1     9  53    3.2187   494.3    3.596      36.275
2015    6        1     9  59    3.2186   494.0    3.599      36.248
2015    6        1    10   5    3.2185   493.8    3.602      36.220
2015    6        1    10  11    3.2183   493.6    3.605      36.193
2015    6        1    10  18    3.2182   493.3    3.608      36.166
2015    6        1    10  24    3.2181   493.1    3.611      36.138
2015    6        1    10  30    3.2180   492.8    3.614      36.111
2015    6        1    10  36    3.2179   492.6    3.616      36.084
2015    6        1    10  42    3.2178   492.3    3.619      36.057
2015    6        1    10  48    3.2178   492.1    3.622      36.030
2015    6        1    10  54    3.2177   491.9    3.625      36.003
2015    6        1    11   0    3.2176   491.6    3.628      35.976
2015    6        1    11   6    3.2176   491.4    3.631      35.949
2015    6        1    11  12    3.2175   491.1    3.634      35.922
2015    6        1    11  18    3.2174   490.9    3.637      35.895
2015    6        1    11  24    3.2174   490.6    3.640      35.868
2015    6        1    11  30    3.2174   490.4    3.643      35.842
2015    6        1    11  37    3.2173   490.1    3.646      35.815
2015    6        1    11  43    3.2173   489.9    3.649      35.788
2015    6        1    11  49    3.2173   489.7    3.652      35.762
2015    6        1    11  55    3.2173   489.4    3.655      35.735
2015    6        1    12   1    3.2173   489.2    3.659      35.709
2015    6        1    12   7    3.2173   488.9    3.662      35.682
2015    6        1    12  13    3.2173   488.7    3.665      35.656
2015    6        1    12  19    3.2173   488.4    3.668      35.630
2015    6        1    12  25    3.2173   488.2    3.671      35.603
2015    6        1    12  31    3.2174   488.0    3.674      35.577
2015    6        1    12  37    3.2174   487.7    3.677      35.551
2015    6        1    12  43    3.2174   487.5    3.680      35.525
2015    6        1    12  49    3.2175   487.2    3.684      35.498
2015    6        1    12  55    3.2175   487.0    3.687      35.472
2015    6        1    13   2    3.2176   486.7    3.690      35.446
2015    6        1    13   8    3.2176   486.5    3.693      35.420
2015    6        1    13  14    3.2177   486.3    3.696      35.394
2015    6        1    13  20    3.2178   486.0    3.700      35.368
2015    6        1    13  26    3.2179   485.8    3.703      35.342
2015    6        1    13  32    3.2180   485.5    3.706      35.316
2015    6        1    13  38    3.2181   485.3    3.709      35.290
2015    6        1    13  44    3.2182   485.0    3.713      35.264
2015    6        1    13  50    3.2183   484.8    3.716      35.239
2015    6        1    13  56    3.2184   484.6    3.719      35.213
2015    6        1    14   2    3.2186   484.3    3.722      35.187
2015    6        1    14   8    3.2187   484.1    3.726      35.161
2015    6        1    14  14    3.2188   483.8    3.729      35.136
2015    6        1    14  21    3.2190   483.6    3.732      35.110
2015    6        1    14  27    3.2191   483.3    3.736      35.084
2015    6        1    14  33    3.2193   483.1    3.739      35.059
2015    6        1    14  39    3.2195   482.9    3.742      35.033
2015    6        1    14  45    3.2196   482.6    3.746      35.008
2015    6        1    14  51    3.2198   482.4    3.749      34.982
2015    6        1    14  57    3.2200   482.1    3.752      34.957
2015    6        1    15   3    3.2202   481.9    3.756      34.931
2015    6        1    15   9    3.2204   481.7    3.759      34.906
2015    6        1    15  15    3.2206   481.4    3.762      34.881
2015    6        1    15  21    3.2208   481.2    3.766      34.856
2015    6        1    15  27    3.2210   480.9    3.769      34.830
2015    6        1    15  33    3.2213   480.7    3.772      34.805
2015    6        1    15  39    3.2215   480.4    3.776      34.780
2015    6        1    15  46    3.2218   480.2    3.779      34.755
2015    6        1    15  52    3.2220   480.0    3.783      34.730
2015    6        1    15  58    3.2223   479.7    3.786      34.705
2015    6        1    16   4    3.2225   479.5    3.789      34.680
2015    6        1    16  10    3.2228   479.2    3.793      34.656
2015    6        1    16  16    3.2231   479.0    3.796      34.631
2015    6        1    16  22    3.2234   478.8    3.800      34.606
2015    6        1    16  28    3.2237   478.5    3.803      34.582
2015    6        1    16  34    3.2240   478.3    3.807      34.557
2015    6        1    16  40    3.2243   478.0    3.810      34.533
2015    6        1    16  46    3.2246   477.8    3.814      34.508
2015    6        1    16  52    3.2249   477.5    3.817      34.484
2015    6        1    16  58    3.2253   477.3    3.821      34.460
2015    6        1    17   4    3.2256   477.1    3.824      34.436
2015    6        1    17  11    3.2260   476.8    3.828      34.412
2015    6        1    17  17    3.2264   476.6    3.831      34.388
2015    6        1    17  23    3.2267   476.3    3.835      34.364
2015    6        1    17  29    3.2271   476.1    3.838      34.340
2015    6        1    17  35    3.2275   475.9    3.842      34.316
2015    6        1    17  41    3.2279   475.6    3.846      34.293
2015    6        1    17  47    3.2283   475.4    3.849      34.269
2015    6        1    17  53    3.2287   475.1    3.853      34.246
2015    6        1    17  59    3.2291   474.9    3.857      34.222
2015    6        1    18   5    3.2296   474.7    3.860      34.199
2015    6        1    18  11    3.2300   474.4    3.864      34.176
2015    6        1    18  17    3.2304   474.2    3.868      34.153
2015    6        1    18  23    3.2309   474.0    3.871      34.130
2015    6        1    18  30    3.2314   473.7    3.875      34.107
2015    6        1    18  36    3.2318   473.5    3.879      34.084
2015    6        1    18  42    3.2323   473.2    3.883      34.061
2015    6        1    18  48    3.2328   473.0    3.887      34.038
2015    6        1    18  54    3.2333   472.8    3.890      34.016
2015    6        1    19   0    3.2338   472.5    3.894      33.993
2015    6        1    19   6    3.2343   472.3    3.898      33.971
2015    6        1    19  12    3.2348   472.1    3.902      33.949
2015    6        1    19  18    3.2354   471.8    3.906      33.926
2015    6        1    19  24    3.2359   471.6    3.910      33.904
2015    6        1    19  30    3.2365   471.3    3.914      33.882
2015    6        1    19  36    3.2370   471.1    3.917      33.860
2015    6        1    19  42    3.2376   470.9    3.921      33.838
2015    6        1    19  48    3.2382   470.6    3.925      33.817
2015    6        1    19  55    3.2387   470.4    3.929      33.795
2015    6        1    20   1    3.2393   470.2    3.933      33.773
2015    6        1    20   7    3.2399   469.9    3.937      33.752
2015    6        1    20  13    3.2405   469.7    3.941      33.730
2015    6        1    20  19    3.2412   469.5    3.945      33.709
2015    6        1    20  25    3.2418   469.2    3.949      33.688
2015    6        1    20  31    3.2424   469.0    3.953      33.667
2015    6        1    20  37    3.2430   468.8    3.957      33.645
2015    6        1    20  43    3.2437   468.5    3.962      33.624
2015    6        1    20  49    3.2443   468.3    3.966      33.604
2015    6        1    20  55    3.2450   468.1    3.970      33.583
2015    6        1    21   1    3.2457   467.8    3.974      33.562
2015    6        1    21   7    3.2463   467.6    3.978      33.541
2015    6        1    21  14    3.2470   467.4    3.982      33.521
2015    6        1    21  20    3.2477   467.1    3.986      33.500
2015    6        1    21  26    3.2484   466.9    3.991      33.480
2015    6        1    21  32    3.2491   466.7    3.995      33.459
2015    6        1    21  38    3.2498   466.4    3.999      33.439
2015    6        1    21  44    3.2506   466.2    4.003      33.419
2015    6        1    21  50    3.2513   466.0    4.007      33.399
2015    6        1    21  56    3.2520   465.7    4.012      33.379
2015    6        1    22   2    3.2528   465.5    4.016      33.359
2015    6        1    22   8    3.2535   465.3    4.020      33.339
2015    6        1    22  14    3.2543   465.0    4.024      33.319
2015    6        1    22  20    3.2551   464.8    4.029      33.299
2015    6        1    22  26    3.2558   464.6    4.033      33.279
2015    6        1    22  32    3.2566   464.3    4.037      33.260
2015    6        1    22  39    3.2574   464.1    4.041      33.240
2015    6        1    22  45    3.2582   463.9    4.046      33.221
2015    6        1    22  51    3.2590   463.6    4.050      33.201
2015    6        1    22  57    3.2598   463.4    4.054      33.182
2015    6        1    23   3    3.2607   463.2    4.059      33.163
2015    6        1    23   9    3.2615   463.0    4.063      33.143
2015    6        1    23  15    3.2623   462.7    4.067      33.124
2015    6        1    23  21    3.2632   462.5    4.072      33.105
2015    6        1    23  27    3.2640   462.3    4.076      33.086
2015    6        1    23  33    3.2649   462.0    4.081      33.067
2015    6        1    23  39    3.2658   461.8    4.085      33.048
2015    6        1    23  45    3.2666   461.6    4.089      33.029
2015    6        1    23  51    3.2675   461.4    4.094      33.011
2015    6        1    23  58    3.2684   461.1    4.098      32.992
2015    6        2     0   4    3.2693   460.9    4.103      32.973
2015    6        2     0  10    3.2702   460.7    4.107      32.955
2015    6        2     0  16    3.2711   460.4    4.112      32.937
2015    6        2     0  22    3.2720   460.2    4.116      32.918
2015    6        2     0  28    3.2730   460.0    4.120      32.900
2015    6        2     0  34    3.2739   459.8    4.125      32.882
2015    6        2     0  40    3.2748   459.5    4.129      32.864
2015    6        2     0  46    3.2758   459.3    4.134      32.846
2015    6        2     0  52    3.2767   459.1    4.139      32.828
2015    6        2     0  58    3.2777   458.9    4.143      32.810
2015    6        2     1   4    3.2787   458.6    4.148      32.792
2015    6        2     1  10    3.2797   458.4    4.152      32.775
2015    6        2     1  16    3.2807   458.2    4.157      32.757
2015    6        2     1  23    3.2817   458.0    4.161      32.740
2015    6        2     1  29    3.2827   457.7    4.166      32.722
2015    6        2     1  35    3.2837   457.5    4.171      32.705
2015    6        2     1  41    3.2847   457.3    4.175      32.688
2015    6        2     1  47    3.2858   457.1    4.180      32.671
2015    6        2     1  53    3.2868   456.8    4.185      32.654
2015    6        2     1  59    3.2879   456.6    4.189      32.637
2015    6        2     2   5    3.2889   456.4    4.194      32.621
2015    6        2     2  11    3.2900   456.2    4.199      32.604
2015    6        2     2  17    3.2911   455.9    4.203      32.588
2015    6        2     2  23    3.2922   455.7    4.208      32.571
2015    6        2     2  29    3.2933   455.5    4.213      32.555
2015    6        2     2  35    3.2944   455.3    4.218      32.539
2015    6        2     2  42    3.2955   455.1    4.222      32.523
2015    6        2     2  48    3.2966   454.8    4.227      32.507
2015    6        2     2  54    3.2977   454.6    4.232      32.491
2015    6        2     3   0    3.2989   454.4    4.237      32.475
2015    6        2     3   6    3.3000   454.2    4.242      32.460
2015    6        2     3  12    3.3012   454.0    4.246      32.444
2015    6        2     3  18    3.3023   453.8    4.251      32.429
2015    6        2     3  24    3.3035   453.5    4.256      32.414
2015    6        2     3  30    3.3047   453.3    4.261      32.398
2015    6        2     3  36    3.3059   453.1    4.266      32.383
2015    6        2     3  42    3.3070   452.9    4.271      32.368
2015    6        2     3  48    3.3083   452.7    4.276      32.353
2015    6        2     3  54    3.3095   452.4    4.281      32.339
2015    6        2     4   0    3.3107   452.2    4.286      32.324
2015    6        2     4   7    3.3119   452.0    4.291      32.309
2015    6        2     4  13    3.3131   451.8    4.296      32.295
2015    6        2     4  19    3.3143   451.6    4.301      32.281
2015    6        2     4  25    3.3156   451.4    4.306      32.266
2015    6        2     4  31    3.3168   451.2    4.311      32.252
2015    6        2     4  37    3.3181   450.9    4.316      32.238
2015    6        2     4  43    3.3194   450.7    4.321      32.224
2015    6        2     4  49    3.3206   450.5    4.326      32.210
2015    6        2     4  55    3.3219   450.3    4.332      32.196
2015    6        2     5   1    3.3232   450.1    4.337      32.183
2015    6        2     5   7    3.3245   449.9    4.342      32.169
2015    6        2     5  13    3.3258   449.7    4.347      32.156
2015    6        2     5  19    3.3271   449.5    4.352      32.142
2015    6        2     5  26    3.3284   449.2    4.357      32.129
2015    6        2     5  32    3.3297   449.0    4.363      32.116
2015    6        2     5  38    3.3311   448.8    4.368      32.103
2015    6        2     5  44    3.3324   448.6    4.373      32.090
2015    6        2     5  50    3.3337   448.4    4.378      32.077
2015    6        2     5  56    3.3351   448.2    4.384      32.064
2015    6        2     6   2    3.3365   448.0    4.389      32.051
2015    6        2     6   8    3.3378   447.8    4.394      32.039
2015    6        2     6  14    3.3392   447.6    4.400      32.026
2015    6        2     6  20    3.3406   447.4    4.405      32.014
2015    6        2     6  26    3.3420   447.2    4.410      32.002
2015    6        2     6  32    3.3433   447.0    4.416      31.990
2015    6        2     6  38    3.3447   446.7    4.421      31.978
2015    6        2     6  44    3.3461   446.5    4.427      31.966
2015    6        2     6  51    3.3476   446.3    4.432      31.954
2015    6        2     6  57    3.3490   446.1    4.437      31.942
2015    6        2     7   3    3.3504   445.9    4.443      31.931
2015    6        2     7   9    3.3518   445.7    4.448      31.919
2015    6        2     7  15    3.3533   445.5    4.454      31.908
2015    6        2     7  21    3.3547   445.3    4.459      31.896
2015    6        2     7  27    3.3561   445.1    4.465      31.885
2015    6        2     7  33    3.3576   444.9    4.470      31.874
2015    6        2     7  39    3.3590   444.7    4.476      31.863
2015    6        2     7  45    3.3605   444.5    4.481      31.853
2015    6        2     7  51    3.3620   444.3    4.487      31.842
2015    6        2     7  57    3.3634   444.1    4.493      31.831
2015    6        2     8   3    3.3649   443.9    4.498      31.821
2015    6        2     8   9    3.3664   443.7    4.504      31.811
2015    6        2     8  16    3.3679   443.5    4.509      31.801
2015    6        2     8  22    3.3694   443.3    4.515      31.791
2015    6        2     8  28    3.3709   443.1    4.521      31.781
2015    6        2     8  34    3.3724   442.9    4.526      31.771
2015    6        2     8  40    3.3739   442.7    4.532      31.761
2015    6        2     8  46    3.3754   442.5    4.538      31.752
2015    6        2     8  52    3.3770   442.3    4.543      31.742
2015    6        2     8  58    3.3785   442.1    4.549      31.733
2015    6        2     9   4    3.3800   441.9    4.555      31.724
2015    6        2     9  10    3.3815   441.7    4.560      31.715
2015    6        2     9  16    3.3831   441.5    4.566      31.706
2015    6        2     9  22    3.3846   441.3    4.572      31.697
2015    6        2     9  28    3.3862   441.2    4.578      31.688
2015    6        2     9  35    3.3877   441.0    4.583      31.680
2015    6        2     9  41    3.3893   440.8    4.589      31.671
2015    6        2     9  47    3.3908   440.6    4.595      31.663
2015    6        2     9  53    3.3924   440.4    4.600      31.654
2015    6        2     9  59    3.3940   440.2    4.606      31.646
2015    6        2    10   5    3.3955   440.0    4.612      31.637
2015    6        2    10  11    3.3971   439.8    4.618      31.629
2015    6        2    10  17    3.3987   439.6    4.623      31.621
2015    6        2    10  23    3.4003   439.4    4.629      31.613
2015    6        2    10  29    3.4018   439.2    4.635      31.605
2015    6        2    10  35    3.4034   439.0    4.641      31.597
2015    6        2    10  41    3.4050   438.9    4.646      31.589
2015    6        2    10  47    3.4066   438.7    4.652      31.581
2015    6        2    10  53    3.4082   438.5    4.658      31.573
2015    6        2    11   0    3.4097   438.3    4.664      31.566
2015    6        2    11   6    3.4113   438.1    4.669      31.558
2015    6        2    11  12    3.4129   437.9    4.675      31.550
2015    6        2    11  18    3.4145   437.7    4.681      31.543
2015    6        2    11  24    3.4161   437.5    4.687      31.535
2015    6        2    11  30    3.4177   437.4    4.692      31.528
2015    6        2    11  36    3.4194   437.2    4.698      31.521
2015    6        2    11  42    3.4210   437.0    4.704      31.514
2015    6        2    11  48    3.4226   436.8    4.710      31.506
2015    6        2    11  54    3.4242   436.6    4.716      31.499
2015    6        2    12   0    3.4259   436.4    4.722      31.493
2015    6        2    12   6    3.4275   436.2    4.728      31.486
2015    6        2    12  12    3.4292   436.0    4.734      31.479
2015    6        2    12  18    3.4309   435.9    4.740      31.473
2015    6        2    12  25    3.4325   435.7    4.746      31.467
2015    6        2    12  31    3.4342   435.5    4.752      31.461
2015    6        2    12  37    3.4359   435.3    4.758      31.455
2015    6        2    12  43    3.4376   435.1    4.764      31.449
2015    6        2    12  49    3.4393   435.0    4.770      31.444
2015    6        2    12  55    3.4411   434.8    4.776      31.439
2015    6        2    13   1    3.4428   434.6    4.783      31.433
2015    6        2    13   7    3.4445   434.4    4.789      31.429
2015    6        2    13  13    3.4463   434.2    4.795      31.424
2015    6        2    13  19    3.4480   434.1    4.802      31.419
2015    6        2    13  25    3.4498   433.9    4.808      31.415
2015    6        2    13  31    3.4516   433.7    4.814      31.411
2015    6        2    13  37    3.4533   433.5    4.821      31.407
2015    6        2    13  44    3.4551   433.4    4.827      31.403
2015    6        2    13  50    3.4569   433.2    4.834      31.399
2015    6        2    13  56    3.4586   433.0    4.840      31.395
2015    6        2    14   2    3.4604   432.8    4.846      31.392
2015    6        2    14   8    3.4621   432.7    4.853      31.388
2015    6        2    14  14    3.4639   432.5    4.859      31.385
2015    6        2    14  20    3.4657   432.3    4.866      31.382
2015    6        2    14  26    3.4674   432.1    4.872      31.378
2015    6        2    14  32    3.4692   432.0    4.879      31.375
2015    6        2    14  38    3.4709   431.8    4.885      31.372
2015    6        2    14  44    3.4727   431.6    4.892      31.369
2015    6        2    14  50    3.4745   431.5    4.898      31.366
2015    6        2    14  56    3.4762   431.3    4.904      31.363
2015    6        2    15   2    3.4780   431.1    4.911      31.361
2015    6        2    15   9    3.4797   431.0    4.917      31.358
2015    6        2    15  15    3.4815   430.8    4.924      31.355
2015    6        2    15  21    3.4833   430.6    4.930      31.353
2015    6        2    15  27    3.4850   430.5    4.936      31.350
2015    6        2    15  33    3.4868   430.3    4.943      31.348
2015    6        2    15  39    3.4886   430.1    4.949      31.346
2015    6        2    15  45    3.4904   430.0    4.955      31.343
2015    6        2    15  51    3.4921   429.8    4.961      31.341
2015    6        2    15  57    3.4939   429.6    4.968      31.339
2015    6        2    16   3    3.4957   429.5    4.974      31.337
2015    6        2    16   9    3.4975   429.3    4.980      31.335
2015    6        2    16  15    3.4992   429.2    4.986      31.333
2015    6        2    16  21    3.5010   429.0    4.992      31.331
2015    6        2    16  28    3.5028   428.9    4.999      31.329
2015    6        2    16  34    3.5046   428.7    5.005      31.327
2015    6        2    16  40    3.5064   428.5    5.011      31.325
2015    6        2    16  46    3.5082   428.4    5.017      31.323
2015    6        2    16  52    3.5100   428.2    5.023      31.321
2015    6        2    16  58    3.5117   428.1    5.029      31.319
2015    6        2    17   4    3.5135   427.9    5.035      31.317
2015    6        2    17  10    3.5153   427.8    5.041      31.316
2015    6        2    17  16    3.5171   427.6    5.047      31.314
2015    6        2    17  22    3.5189   427.4    5.053      31.312
2015    6        2    17  28    3.5206   427.3    5.059      31.310
2015    6        2    17  34    3.5224   427.1    5.065      31.308
2015    6        2    17  40    3.5242   427.0    5.071      31.306
2015    6        2    17  46    3.5260   426.8    5.077      31.304
2015    6        2    17  53    3.5277   426.7    5.082      31.303
2015    6        2    17  59    3.5295   426.5    5.088      31.301
2015    6        2    18   5    3.5313   426.4    5.094      31.299
2015    6        2    18  11    3.5330   426.2    5.100      31.297
2015    6        2    18  17    3.5348   426.1    5.106      31.295
2015    6        2    18  23    3.5366   425.9    5.112      31.293
2015    6        2    18  29    3.5384   425.8    5.117      31.292
2015    6        2    18  35    3.5401   425.6    5.123      31.290
2015    6        2    18  41    3.5419   425.5    5.129      31.288
2015    6        2    18  47    3.5437   425.3    5.135      31.287
2015    6        2    18  53    3.5455   425.2    5.141      31.285
2015    6        2    18  59    3.5473   425.0    5.147      31.284
2015    6        2    19   5    3.5490   424.9    5.153      31.282
2015    6        2    19  11    3.5508   424.7    5.159      31.281
2015    6        2    19  18    3.5526   424.6    5.165      31.280
2015    6        2    19  24    3.5544   424.4    5.171      31.279
2015    6        2    19  30    3.5562   424.3    5.177      31.277
2015    6        2    19  36    3.5581   424.1    5.183      31.277
2015    6        2    19  42    3.5599   424.0    5.189      31.276
2015    6        2    19  48    3.5617   423.8    5.195      31.276
2015    6        2    19  54    3.5635   423.7    5.201      31.275
2015    6        2    20   0    3.5653   423.5    5.207      31.275
2015    6        2    20   6    3.5671   423.4    5.213      31.275
2015    6        2    20  12    3.5690   423.3    5.219      31.275
2015    6        2    20  18    3.5708   423.1    5.226      31.275
2015    6        2    20  24    3.5726   423.0    5.232      31.275
2015    6        2    20  30    3.5744   422.8    5.238      31.276
2015    6        2    20  37    3.5762   422.7    5.244      31.276
2015    6        2    20  43    3.5780   422.6    5.251      31.276
2015    6        2    20  49    3.5798   422.4    5.257      31.277
2015    6        2    20  55    3.5816   422.3    5.263      31.278
2015    6        2    21   1    3.5834   422.1    5.269      31.279
2015    6        2    21   7    3.5852   422.0    5.276      31.279
2015    6        2    21  13    3.5870   421.9    5.282      31.280
2015    6        2    21  19    3.5888   421.7    5.288      31.281
2015    6        2    21  25    3.5905   421.6    5.294      31.282
2015    6        2    21  31    3.5923   421.5    5.300      31.283
2015    6        2    21  37    3.5940   421.3    5.306      31.284
2015    6        2    21  43    3.5958   421.2    5.313      31.285
2015    6        2    21  49    3.5975   421.1    5.319      31.286
2015    6        2    21  55    3.5992   420.9    5.325      31.287
2015    6        2    22   2    3.6010   420.8    5.331      31.288
2015    6        2    22   8    3.6027   420.7    5.337      31.289
2015    6        2    22  14    3.6044   420.5    5.343      31.290
2015    6        2    22  20    3.6061   420.4    5.349      31.291
2015    6        2    22  26    3.6079   420.3    5.354      31.292
2015    6        2    22  32    3.6096   420.1    5.360      31.293
2015    6        2    22  38    3.6113   420.0    5.366      31.294
2015    6        2    22  44    3.6130   419.9    5.372      31.295
2015    6        2    22  50    3.6147   419.7    5.378      31.296
2015    6        2    22  56    3.6164   419.6    5.383      31.297
2015    6        2    23   2    3.6182   419.5    5.389      31.298
2015    6        2    23   8    3.6199   419.4    5.395      31.299
2015    6        2    23  14    3.6216   419.2    5.400      31.300
2015    6        2    23  21    3.6233   419.1    5.406      31.301
2015    6        2    23  27    3.6250   419.0    5.412      31.302
2015    6        2    23  33    3.6267   418.8    5.417      31.303
2015    6        2    23  39    3.6284   418.7    5.423      31.304
2015    6        2    23  45    3.6301   418.6    5.428      31.305
2015    6        2    23  51    3.6319   418.5    5.434      31.305
2015    6        2    23  57    3.6336   418.3    5.439      31.306
2015    6        3     0   3    3.6353   418.2    5.445      31.307
2015    6        3     0   9    3.6370   418.1    5.450      31.308
2015    6        3     0  15    3.6387   418.0    5.455      31.309
2015    6        3     0  21    3.6404   417.9    5.461      31.309
2015    6        3     0  27    3.6420   417.7    5.466      31.310
2015    6        3     0  33    3.6437   417.6    5.471      31.311
2015    6        3     0  39    3.6454   417.5    5.477      31.312
2015    6        3     0  46    3.6471   417.4    5.482      31.312
2015    6        3     0  52    3.6488   417.3    5.487      31.313
2015    6        3     0  58    3.6505   417.1    5.492      31.314
2015    6        3     1   4    3.6521   417.0    5.498      31.314
2015    6        3     1  10    3.6538   416.9    5.503      31.315
2015    6        3     1  16    3.6555   416.8    5.508      31.316
2015    6        3     1  22    3.6571   416.7    5.513      31.316
2015    6        3     1  28    3.6588   416.5    5.518      31.317
2015    6        3     1  34    3.6604   416.4    5.523      31.317
2015    6        3     1  40    3.6621   416.3    5.529      31.318
2015    6        3     1  46    3.6637   416.2    5.534      31.319
2015    6        3     1  52    3.6654   416.1    5.539      31.319
2015    6        3     1  58    3.6670   416.0    5.544      31.320
2015    6        3     2   5    3.6686   415.9    5.549      31.320
2015    6        3     2  11    3.6703   415.8    5.554      31.321
2015    6        3     2  17    3.6719   415.6    5.559      31.322
2015    6        3     2  23    3.6735   415.5    5.564      31.323
2015    6        3     2  29    3.6752   415.4    5.570      31.323
2015    6        3     2  35    3.6768   415.3    5.575      31.324
2015    6        3     2  41    3.6784   415.2    5.580      31.325
2015    6        3     2  47    3.6800   415.1    5.585      31.325
2015    6        3     2  53    3.6816   415.0    5.590      31.326
2015    6        3     2  59    3.6832   414.9    5.595      31.327
2015    6        3     3   5    3.6848   414.8    5.600      31.328
2015    6        3     3  11    3.6864   414.7    5.605      31.329
2015    6        3     3  17    3.6880   414.5    5.610      31.329
2015    6        3     3  23    3.6895   414.4    5.615      31.330
2015    6        3     3  30    3.6911   414.3    5.620      31.331
2015    6        3     3  36    3.6926   414.2    5.625      31.332
2015    6        3     3  42    3.6941   414.1    5.630      31.333
2015    6        3     3  48    3.6956   414.0    5.635      31.333
2015    6        3     3  54    3.6971   413.9    5.640      31.334
2015    6        3     4   0    3.6986   413.8    5.645      31.335
2015    6        3     4   6    3.7000   413.7    5.650      31.335
2015    6        3     4  12    3.7015   413.6    5.655      31.336
2015    6        3     4  18    3.7029   413.5    5.660      31.337
2015    6        3     4  24    3.7044   413.4    5.665      31.337
2015    6        3     4  30    3.7058   413.3    5.670      31.338
2015    6        3     4  36    3.7072   413.2    5.675      31.338
2015    6        3     4  42    3.7087   413.1    5.680      31.338
2015    6        3     4  48    3.7101   413.0    5.684      31.339
2015    6        3     4  55    3.7115   412.9    5.689      31.339
2015    6        3     5   1    3.7129   412.8    5.694      31.340
2015    6        3     5   7    3.7143   412.7    5.699      31.340
2015    6        3     5  13    3.7157   412.6    5.703      31.340
2015    6        3     5  19    3.7171   412.5    5.708      31.341
2015    6        3     5  25    3.7185   412.4    5.713      31.341
2015    6        3     5  31    3.7198   412.3    5.718      31.341
2015    6        3     5  37    3.7212   412.2    5.722      31.342
2015    6        3     5  43    3.7226   412.1    5.727      31.342
2015    6        3     5  49    3.7240   412.0    5.731      31.342
2015    6        3     5  55    3.7253   411.9    5.736      31.343
2015    6        3     6   1    3.7267   411.8    5.741      31.343
2015    6        3     6   7    3.7281   411.7    5.745      31.343
2015    6        3     6  14    3.7294   411.6    5.750      31.343
2015    6        3     6  20    3.7308   411.5    5.754      31.344
2015    6        3     6  26    3.7321   411.4    5.759      31.344
2015    6        3     6  32    3.7335   411.3    5.763      31.344
2015    6        3     6  38    3.7348   411.2    5.768      31.345
2015    6        3     6  44    3.7361   411.1    5.772      31.345
2015    6        3     6  50    3.7375   411.0    5.777      31.345
2015    6        3     6  56    3.7388   410.9    5.781      31.346
2015    6        3     7   2    3.7401   410.8    5.786      31.346
2015    6        3     7   8    3.7414   410.7    5.790      31.346
2015    6        3     7  14    3.7427   410.6    5.795      31.346
2015    6        3     7  20    3.7440   410.5    5.799      31.347
2015    6        3     7  26    3.7453   410.4    5.803      31.347
2015    6        3     7  32    3.7466   410.3    5.808      31.347
2015    6        3     7  39    3.7479   410.2    5.812      31.348
2015    6        3     7  45    3.7492   410.1    5.816      31.348
2015    6        3     7  51    3.7505   410.0    5.821      31.348
2015    6        3     7  57    3.7517   409.9    5.825      31.348
2015    6        3     8   3    3.7530   409.8    5.829      31.348
2015    6        3     8   9    3.7543   409.7    5.833      31.349
2015    6        3     8  15    3.7555   409.6    5.837      31.349
2015    6        3     8  21    3.7568   409.5    5.842      31.349
2015    6        3     8  27    3.7580   409.4    5.846      31.349
2015    6        3     8  33    3.7592   409.4    5.850      31.349
2015    6        3     8  39    3.7605   409.3    5.854      31.349
2015    6        3     8  45    3.7617   409.2    5.858      31.349
2015    6        3     8  51    3.7629   409.1    5.862      31.349
2015    6        3     8  58    3.7641   409.0    5.866      31.348
2015    6        3     9   4    3.7653   408.9    5.870      31.348
2015    6        3     9  10    3.7665   408.8    5.873      31.348
2015    6        3     9  16    3.7677   408.7    5.877      31.347
2015    6        3     9  22    3.7689   408.6    5.881      31.347
2015    6        3     9  28    3.7701   408.5    5.885      31.346
2015    6        3     9  34    3.7712   408.5    5.889      31.346
2015    6        3     9  40    3.7724   408.4    5.892      31.345
2015    6        3     9  46    3.7736   408.3    5.896      31.344
2015    6        3     9  52    3.7747   408.2    5.900      31.343
2015    6        3     9  58    3.7759   408.1    5.904      31.343
2015    6        3    10   4    3.7770   408.0    5.907      31.342
2015    6        3    10  10    3.7781   407.9    5.911      31.341
2015    6        3    10  16    3.7792   407.8    5.914      31.340
2015    6        3    10  23    3.7803   407.8    5.918      31.338
2015    6        3    10  29    3.7814   407.7    5.922      31.337
2015    6        3    10  35    3.7825   407.6    5.925      31.336
2015    6        3    10  41    3.7836   407.5    5.929      31.335
2015    6        3    10  47    3.7846   407.4    5.932      31.333
2015    6        3    10  53    3.7857   407.3    5.936      31.332
2015    6        3    10  59    3.7868   407.2    5.939      31.330
2015    6        3    11   5    3.7878   407.2    5.943      31.329
2015    6        3    11  11    3.7888   407.1    5.946      31.327
2015    6        3    11  17    3.7899   407.0    5.950      31.326
2015    6        3    11  23    3.7909   406.9    5.953      31.324
2015    6        3    11  29    3.7919   406.8    5.957      31.323
2015    6        3    11  35    3.7929   406.7    5.960      31.321
2015    6        3    11  41    3.7939   406.7    5.964      31.320
2015    6        3    11  48    3.7949   406.6    5.967      31.318
2015    6        3    11  54    3.7959   406.5    5.971      31.317
2015    6        3    12   0    3.7969   406.4    5.974      31.315
2015    6        3    12   6    3.7979   406.3    5.978      31.314
2015    6        3    12  12    3.7989   406.2    5.981      31.312
2015    6        3    12  18    3.7999   406.1    5.985      31.311
2015    6        3    12  24    3.8009   406.1    5.988      31.309
2015    6        3    12  30    3.8018   406.0    5.992      31.308
2015    6        3    12  36    3.8028   405.9    5.996      31.306
2015    6        3    12  42    3.8038   405.8    5.999      31.305
2015    6        3    12  48    3.8048   405.7    6.003      31.303
2015    6        3    12  54    3.8058   405.7    6.006      31.302
2015    6        3    13   0    3.8067   405.6    6.010      31.301
2015    6        3    13   7    3.8077   405.5    6.013      31.299
2015    6        3    13  13    3.8086   405.4    6.017      31.298
2015    6        3    13  19    3.8096   405.3    6.021      31.297
2015    6        3    13  25    3.8105   405.2    6.024      31.296
2015    6        3    13  31    3.8114   405.2    6.028      31.295
2015    6        3    13  37    3.8124   405.1    6.031      31.293
2015    6        3    13  43    3.8133   405.0    6.035      31.292
2015    6        3    13  49    3.8142   404.9    6.039      31.291
2015    6        3    13  55    3.8151   404.8    6.042      31.290
2015    6        3    14   1    3.8159   404.8    6.046      31.288
2015    6        3    14   7    3.8168   404.7    6.049      31.287
2015    6        3    14  13    3.8177   404.6    6.053      31.286
2015    6        3    14  19    3.8186   404.5    6.056      31.285
2015    6        3    14  26    3.8194   404.4    6.060      31.283
2015    6        3    14  32    3.8203   404.4    6.063      31.282
2015    6        3    14  38    3.8211   404.3    6.067      31.280
2015    6        3    14  44    3.8219   404.2    6.070      31.279
2015    6        3    14  50    3.8228   404.1    6.073      31.277
2015    6        3    14  56    3.8236   404.0    6.077      31.276
2015    6        3    15   2    3.8244   404.0    6.080      31.274
2015    6        3    15   8    3.8252   403.9    6.083      31.272
2015    6        3    15  14    3.8260   403.8    6.086      31.271
2015    6        3    15  20    3.8268   403.7    6.090      31.269
2015    6        3    15  26    3.8276   403.6    6.093      31.267
2015    6        3    15  32    3.8283   403.6    6.096      31.265
2015    6        3    15  38    3.8291   403.5    6.099      31.262
2015    6        3    15  44    3.8299   403.4    6.102      31.260
2015    6        3    15  51    3.8306   403.3    6.105      31.258
2015    6        3    15  57    3.8314   403.2    6.108      31.255
2015    6        3    16   3    3.8321   403.2    6.111      31.253
2015    6        3    16   9    3.8329   403.1    6.114      31.250
2015    6        3    16  15    3.8336   403.0    6.117      31.247
2015    6        3    16  21    3.8344   402.9    6.120      31.244
2015    6        3    16  27    3.8351   402.8    6.122      31.242
2015    6        3    16  33    3.8358   402.8    6.125      31.239
2015    6        3    16  39    3.8365   402.7    6.128      31.236
2015    6        3    16  45    3.8373   402.6    6.131      31.233
2015    6        3    16  51    3.8380   402.5    6.133      31.230
2015    6        3    16  57    3.8387   402.4    6.136      31.226
2015    6        3    17   3    3.8394   402.4    6.139      31.223
2015    6        3    17   9    3.8401   402.3    6.141      31.220
2015    6        3    17  16    3.8408   402.2    6.144      31.216
2015    6        3    17  22    3.8415   402.1    6.147      31.213
2015    6        3    17  28    3.8422   402.0    6.149      31.209
2015    6        3    17  34    3.8429   402.0    6.152      31.206
2015    6        3    17  40    3.8436   401.9    6.154      31.202
2015    6        3    17  46    3.8443   401.8    6.157      31.198
2015    6        3    17  52    3.8449   401.7    6.159      31.195
2015    6        3    17  58    3.8456   401.7    6.162      31.191
2015    6        3    18   4    3.8463   401.6    6.164      31.187
2015    6        3    18  10    3.8470   401.5    6.167      31.183
2015    6        3    18  16    3.8476   401.4    6.169      31.180
2015    6        3    18  22    3.8483   401.3    6.172      31.176
2015    6        3    18  28    3.8489   401.3    6.174      31.172
2015    6        3    18  35    3.8496   401.2    6.176      31.168
2015    6        3    18  41    3.8503   401.1    6.179      31.165
2015    6        3    18  47    3.8509   401.0    6.181      31.161
2015    6        3    18  53    3.8516   400.9    6.184      31.157
2015    6        3    18  59    3.8522   400.9    6.186      31.153
2015    6        3    19   5    3.8529   400.8    6.189      31.150
2015    6        3    19  11    3.8535   400.7    6.191      31.146
2015    6        3    19  17    3.8541   400.6    6.193      31.142
2015    6        3    19  23    3.8548   400.6    6.196      31.139
2015    6        3    19  29    3.8554   400.5    6.198      31.135
2015    6        3    19  35    3.8561   400.4    6.201      31.132
2015    6        3    19  41    3.8567   400.3    6.203      31.128
2015    6        3    19  47    3.8573   400.2    6.206      31.125
2015    6        3    19  53    3.8580   400.2    6.208      31.122
2015    6        3    20   0    3.8586   400.1    6.211      31.119
2015    6        3    20   6    3.8593   400.0    6.214      31.115
2015    6        3    20  12    3.8599   399.9    6.216      31.112
2015    6        3    20  18    3.8605   399.9    6.219      31.109
2015    6        3    20  24    3.8612   399.8    6.221      31.106
2015    6        3    20  30    3.8618   399.7    6.224      31.103
2015    6        3    20  36    3.8625   399.6    6.227      31.100
2015    6        3    20  42    3.8631   399.5    6.229      31.097
2015    6        3    20  48    3.8637   399.5    6.232      31.094
2015    6        3    20  54    3.8643   399.4    6.235      31.091
2015    6        3    21   0    3.8650   399.3    6.237      31.089
2015    6        3    21   6    3.8656   399.2    6.240      31.086
2015    6        3    21  12    3.8662   399.2    6.243      31.083
2015    6        3    21  19    3.8669   399.1    6.246      31.080
2015    6        3    21  25    3.8675   399.0    6.248      31.078
2015    6        3    21  31    3.8681   398.9    6.251      31.075
2015    6        3    21  37    3.8687   398.9    6.254      31.072
2015    6        3    21  43    3.8693   398.8    6.257      31.069
2015    6        3    21  49    3.8699   398.7    6.259      31.067
2015    6        3    21  55    3.8705   398.6    6.262      31.064
2015    6        3    22   1    3.8711   398.6    6.265      31.061
2015    6        3    22   7    3.8717   398.5    6.268      31.058
2015    6        3    22  13    3.8723   398.4    6.271      31.055
2015    6        3    22  19    3.8729   398.3    6.273      31.052
2015    6        3    22  25    3.8735   398.3    6.276      31.049
2015    6        3    22  31    3.8740   398.2    6.279      31.046
2015    6        3    22  37    3.8746   398.1    6.282      31.042
2015    6        3    22  44    3.8752   398.0    6.284      31.039
2015    6        3    22  50    3.8757   398.0    6.287      31.036
2015    6        3    22  56    3.8763   397.9    6.290      31.032
2015    6        3    23   2    3.8768   397.8    6.293      31.029
2015    6        3    23   8    3.8774   397.7    6.295      31.025
2015    6        3    23  14    3.8779   397.7    6.298      31.021
2015    6        3    23  20    3.8785   397.6    6.301      31.018
2015    6        3    23  26    3.8790   397.5    6.303      31.014
2015    6        3    23  32    3.8795   397.4    6.306      31.010
2015    6        3    23  38    3.8801   397.4    6.309      31.006
2015    6        3    23  44    3.8806   397.3    6.311      31.002
2015    6        3    23  50    3.8811   397.2    6.314      30.998
2015    6        3    23  56    3.8816   397.1    6.317      30.994
2015    6        4     0   3    3.8822   397.1    6.319      30.990
2015    6        4     0   9    3.8827   397.0    6.322      30.986
2015    6        4     0  15    3.8832   396.9    6.324      30.982
2015    6        4     0  21    3.8837   396.8    6.327      30.978
2015    6        4     0  27    3.8842   396.7    6.330      30.974
2015    6        4     0  33    3.8847   396.7    6.332      30.969
2015    6        4     0  39    3.8853   396.6    6.335      30.965
2015    6        4     0  45    3.8858   396.5    6.337      30.961
2015    6        4     0  51    3.8863   396.4    6.340      30.956
2015    6        4     0  57    3.8868   396.4    6.342      30.952
2015    6        4     1   3    3.8873   396.3    6.345      30.948
2015    6        4     1   9    3.8878   396.2    6.347      30.944
2015    6        4     1  15    3.8883   396.1    6.349      30.939
2015    6        4     1  21    3.8888   396.1    6.352      30.935
2015    6        4     1  28    3.8893   396.0    6.354      30.930
2015    6        4     1  34    3.8898   395.9    6.356      30.926
2015    6        4     1  40    3.8903   395.8    6.359      30.922
2015    6        4     1  46    3.8908   395.8    6.361      30.917
2015    6        4     1  52    3.8913   395.7    6.363      30.913
2015    6        4     1  58    3.8918   395.6    6.366      30.908
2015    6        4     2   4    3.8923   395.5    6.368      30.904
2015    6        4     2  10    3.8928   395.4    6.370      30.899
2015    6        4     2  16    3.8933   395.4    6.372      30.895
2015    6        4     2  22    3.8938   395.3    6.374      30.890
2015    6        4     2  28    3.8943   395.2    6.377      30.886
2015    6        4     2  34    3.8948   395.1    6.379      30.881
2015    6        4     2  40    3.8952   395.1    6.381      30.877
2015    6        4     2  46    3.8958   395.0    6.383      30.872
2015    6        4     2  53    3.8963   394.9    6.385      30.868
2015    6        4     2  59    3.8967   394.8    6.387      30.864
2015    6        4     3   5    3.8973   394.8    6.389      30.859
2015    6        4     3  11    3.8978   394.7    6.391      30.855
2015    6        4     3  17    3.8983   394.6    6.394      30.850
2015    6        4     3  23    3.8988   394.5    6.396      30.846
2015    6        4     3  29    3.8993   394.5    6.398      30.841
2015    6        4     3  35    3.8998   394.4    6.400      30.837
2015    6        4     3  41    3.9004   394.3    6.402      30.833
2015    6        4     3  47    3.9009   394.2    6.404      30.828
2015    6        4     3  53    3.9015   394.1    6.406      30.824
2015    6        4     3  59    3.9020   394.1    6.408      30.820
2015    6        4     4   5    3.9026   394.0    6.411      30.816
2015    6        4     4  12    3.9031   393.9    6.413      30.811
2015    6        4     4  18    3.9037   393.8    6.415      30.807
2015    6        4     4  24    3.9043   393.8    6.417      30.803
2015    6        4     4  30    3.9048   393.7    6.419      30.799
2015    6        4     4  36    3.9054   393.6    6.422      30.794
2015    6        4     4  42    3.9060   393.5    6.424      30.790
2015    6        4     4  48    3.9066   393.5    6.426      30.786
2015    6        4     4  54    3.9072   393.4    6.428      30.782
2015    6        4     5   0    3.9078   393.3    6.431      30.778
2015    6        4     5   6    3.9084   393.2    6.433      30.774
2015    6        4     5  12    3.9090   393.2    6.435      30.770
2015    6        4     5  18    3.9096   393.1    6.438      30.766
2015    6        4     5  24    3.9102   393.0    6.440      30.762
2015    6        4     5  30    3.9108   392.9    6.443      30.758
2015    6        4     5  37    3.9114   392.9    6.445      30.754
2015    6        4     5  43    3.9120   392.8    6.448      30.750
2015    6        4     5  49    3.9127   392.7    6.450      30.746
2015    6        4     5  55    3.9133   392.7    6.453      30.742
2015    6        4     6   1    3.9139   392.6    6.455      30.738
2015    6        4     6   7    3.9145   392.5    6.458      30.734
2015    6        4     6  13    3.9151   392.4    6.461      30.730
2015    6        4     6  19    3.9158   392.4    6.463      30.727
2015    6        4     6  25    3.9164   392.3    6.466      30.723
2015    6        4     6  31    3.9170   392.2    6.469      30.719
2015    6        4     6  37    3.9176   392.1    6.471      30.715
2015    6        4     6  43    3.9183   392.1    6.474      30.711
2015    6        4     6  49    3.9189   392.0    6.477      30.707
2015    6        4     6  56    3.9195   391.9    6.480      30.703
2015    6        4     7   2    3.9202   391.8    6.482      30.699
2015    6        4     7   8    3.9208   391.8    6.485      30.696
2015    6        4     7  14    3.9214   391.7    6.488      30.692
2015    6        4     7  20    3.9221   391.6    6.491      30.688
2015    6        4     7  26    3.9227   391.6    6.494      30.684
2015    6        4     7  32    3.9233   391.5    6.497      30.680
2015    6        4     7  38    3.9240   391.4    6.500      30.677
2015    6        4     7  44    3.9246   391.3    6.502      30.673
2015    6        4     7  50    3.9253   391.3    6.505      30.669
2015    6        4     7  56    3.9259   391.2    6.508      30.665
2015    6        4     8   2    3.9265   391.1    6.511      30.661
2015    6        4     8   8    3.9272   391.0    6.514      30.658
2015    6        4     8  14    3.9278   391.0    6.517      30.654
2015    6        4     8  21    3.9285   390.9    6.520      30.650
2015    6        4     8  27    3.9291   390.8    6.523      30.646
2015    6        4     8  33    3.9298   390.8    6.526      30.643
2015    6        4     8  39    3.9305   390.7    6.528      30.639
2015    6        4     8  45    3.9311   390.6    6.531      30.636
2015    6        4     8  51    3.9318   390.5    6.534      30.632
2015    6        4     8  57    3.9325   390.5    6.537      30.628
2015    6        4     9   3    3.9332   390.4    6.540      30.625
2015    6        4     9   9    3.9339   390.3    6.543      30.621
2015    6        4     9  15    3.9346   390.2    6.546      30.618
2015    6        4     9  21    3.9353   390.2    6.549      30.614
2015    6        4     9  27    3.9360   390.1    6.552      30.611
2015    6        4     9  33    3.9367   390.0    6.554      30.607
2015    6        4     9  40    3.9374   389.9    6.557      30.604
2015    6        4     9  46    3.9381   389.9    6.560      30.601
2015    6        4     9  52    3.9389   389.8    6.563      30.597
2015    6        4     9  58    3.9397   389.7    6.566      30.594
2015    6        4    10   4    3.9404   389.6    6.569      30.591
2015    6        4    10  10    3.9412   389.6    6.572      30.588
2015    6        4    10  16    3.9420   389.5    6.575      30.585
2015    6        4    10  22    3.9428   389.4    6.578      30.582
2015    6        4    10  28    3.9437   389.4    6.581      30.579
2015    6        4    10  34    3.9445   389.3    6.584      30.576
2015    6        4    10  40    3.9454   389.2    6.586      30.573
2015    6        4    10  46    3.9463   389.1    6.589      30.570
2015    6        4    10  52    3.9472   389.1    6.592      30.568
2015    6        4    10  58    3.9481   389.0    6.596      30.565
2015    6        4    11   5    3.9490   388.9    6.599      30.563
2015    6        4    11  11    3.9500   388.8    6.602      30.560
2015    6        4    11  17    3.9510   388.8    6.605      30.558
2015    6        4    11  23    3.9520   388.7    6.608      30.556
2015    6        4    11  29    3.9531   388.6    6.611      30.554
2015    6        4    11  35    3.9541   388.6    6.614      30.552
2015    6        4    11  41    3.9552   388.5    6.618      30.550
2015    6        4    11  47    3.9564   388.4    6.621      30.548
2015    6        4    11  53    3.9575   388.4    6.624      30.547
2015    6        4    11  59    3.9587   388.3    6.628      30.545
2015    6        4    12   5    3.9600   388.2    6.631      30.544
2015    6        4    12  11    3.9612   388.1    6.635      30.543
2015    6        4    12  17    3.9625   388.1    6.639      30.542
2015    6        4    12  24    3.9639   388.0    6.642      30.541
2015    6        4    12  30    3.9653   387.9    6.646      30.541
2015    6        4    12  36    3.9667   387.9    6.650      30.541
2015    6        4    12  42    3.9682   387.8    6.654      30.541
2015    6        4    12  48    3.9697   387.7    6.658      30.541
2015    6        4    12  54    3.9712   387.7    6.662      30.541
2015    6        4    13   0    3.9728   387.6    6.667      30.542
2015    6        4    13   6    3.9745   387.5    6.671      30.543
2015    6        4    13  12    3.9762   387.5    6.675      30.544
2015    6        4    13  18    3.9780   387.4    6.680      30.545
2015    6        4    13  24    3.9798   387.4    6.685      30.547
2015    6        4    13  30    3.9817   387.3    6.690      30.549
2015    6        4    13  36    3.9836   387.2    6.695      30.552
2015    6        4    13  42    3.9857   387.2    6.700      30.555
2015    6        4    13  49    3.9878   387.1    6.705      30.558
2015    6        4    13  55    3.9899   387.1    6.711      30.562
2015    6        4    14   1    3.9921   387.0    6.716      30.566
2015    6        4    14   7    3.9945   386.9    6.722      30.571
2015    6        4    14  13    3.9968   386.9    6.728      30.576
2015    6        4    14  19    3.9993   386.8    6.734      30.581
2015    6        4    14  25    4.0019   386.8    6.741      30.587
2015    6        4    14  31    4.0046   386.7    6.747      30.594
2015    6        4    14  37    4.0073   386.7    6.754      30.602
2015    6        4    14  43    4.0102   386.6    6.761      30.609
2015    6        4    14  49    4.0131   386.6    6.768      30.618
2015    6        4    14  55    4.0162   386.5    6.775      30.627
2015    6        4    15   1    4.0194   386.5    6.783      30.637
2015    6        4    15   7    4.0227   386.5    6.791      30.647
2015    6        4    15  14    4.0262   386.4    6.799      30.659
2015    6        4    15  20    4.0297   386.4    6.808      30.671
2015    6        4    15  26    4.0334   386.3    6.816      30.684
2015    6        4    15  32    4.0373   386.3    6.825      30.697
2015    6        4    15  38    4.0413   386.3    6.835      30.712
2015    6        4    15  44    4.0454   386.2    6.844      30.727
2015    6        4    15  50    4.0497   386.2    6.854      30.744
2015    6        4    15  56    4.0542   386.2    6.864      30.761
2015    6        4    16   2    4.0589   386.1    6.875      30.780
2015    6        4    16   8    4.0637   386.1    6.886      30.799
2015    6        4    16  14    4.0687   386.1    6.897      30.820
2015    6        4    16  20    4.0739   386.1    6.909      30.841
2015    6        4    16  26    4.0793   386.1    6.921      30.864
2015    6        4    16  33    4.0849   386.0    6.934      30.888
2015    6        4    16  39    4.0908   386.0    6.947      30.914
2015    6        4    16  45    4.0968   386.0    6.960      30.940
2015    6        4    16  51    4.1031   386.0    6.974      30.968
2015    6        4    16  57    4.1096   386.0    6.988      30.997
2015    6        4    17   3    4.1163   386.0    7.003      31.027
2015    6        4    17   9    4.1233   386.0    7.019      31.059
2015    6        4    17  15    4.1305   386.0    7.035      31.093
2015    6        4    17  21    4.1380   386.0    7.051      31.127
2015    6        4    17  27    4.1457   386.0    7.068      31.163
2015    6        4    17  33    4.1537   386.0    7.085      31.201
2015    6        4    17  39    4.1620   386.1    7.103      31.239
2015    6        4    17  45    4.1705   386.1    7.121      31.279
2015    6        4    17  51    4.1793   386.1    7.140      31.319
2015    6        4    17  58    4.1883   386.2    7.159      31.361
2015    6        4    18   4    4.1977   386.2    7.177      31.403
2015    6        4    18  10    4.2073   386.2    7.196      31.445
2015    6        4    18  16    4.2172   386.3    7.214      31.488
2015    6        4    18  22    4.2275   386.3    7.232      31.529
2015    6        4    18  28    4.2379   386.3    7.249      31.569
2015    6        4    18  34    4.2487   386.4    7.266      31.608
2015    6        4    18  40    4.2597   386.4    7.282      31.644
2015    6        4    18  46    4.2710   386.4    7.298      31.679
2015    6        4    18  52    4.2823   386.5    7.313      31.711
2015    6        4    18  58    4.2938   386.5    7.328      31.742
2015    6        4    19   4    4.3053   386.5    7.342      31.770
2015    6        4    19  10    4.3168   386.5    7.355      31.797
2015    6        4    19  17    4.3283   386.5    7.368      31.821
2015    6        4    19  23    4.3396   386.5    7.380      31.843
2015    6        4    19  29    4.3508   386.5    7.392      31.863
2015    6        4    19  35    4.3619   386.5    7.403      31.882
2015    6        4    19  41    4.3727   386.5    7.414      31.898
2015    6        4    19  47    4.3834   386.5    7.424      31.913
2015    6        4    19  53    4.3939   386.5    7.434      31.925
2015    6        4    19  59    4.4041   386.5    7.443      31.936
2015    6        4    20   5    4.4141   386.5    7.452      31.946
2015    6        4    20  11    4.4239   386.4    7.461      31.953
2015    6        4    20  17    4.4334   386.4    7.469      31.959
2015    6        4    20  23    4.4427   386.4    7.477      31.964
2015    6        4    20  29    4.4517   386.3    7.485      31.967
2015    6        4    20  35    4.4605   386.3    7.492      31.969
2015    6        4    20  42    4.4691   386.3    7.499      31.970
2015    6        4    20  48    4.4774   386.2    7.506      31.969
2015    6        4    20  54    4.4854   386.2    7.513      31.968
2015    6        4    21   0    4.4933   386.1    7.519      31.965
2015    6        4    21   6    4.5008   386.0    7.526      31.961
2015    6        4    21  12    4.5082   386.0    7.532      31.956
2015    6        4    21  18    4.5153   385.9    7.538      31.950
2015    6        4    21  24    4.5221   385.9    7.544      31.943
2015    6        4    21  30    4.5288   385.8    7.549      31.936
2015    6        4    21  36    4.5352   385.7    7.555      31.927
2015    6        4    21  42    4.5413   385.6    7.560      31.918
2015    6        4    21  48    4.5472   385.6    7.566      31.908
2015    6        4    21  54    4.5529   385.5    7.571      31.897
2015    6        4    22   1    4.5584   385.4    7.576      31.885
2015    6        4    22   7    4.5636   385.3    7.581      31.873
2015    6        4    22  13    4.5686   385.3    7.586      31.861
2015    6        4    22  19    4.5733   385.2    7.591      31.847
2015    6        4    22  25    4.5779   385.1    7.595      31.833
2015    6        4    22  31    4.5822   385.0    7.600      31.819
2015    6        4    22  37    4.5863   384.9    7.604      31.804
2015    6        4    22  43    4.5902   384.8    7.609      31.788
2015    6        4    22  49    4.5938   384.8    7.613      31.772
2015    6        4    22  55    4.5972   384.7    7.617      31.755
2015    6        4    23   1    4.6005   384.6    7.622      31.738
2015    6        4    23   7    4.6035   384.5    7.626      31.720
2015    6        4    23  13    4.6063   384.4    7.630      31.702
2015    6        4    23  19    4.6089   384.3    7.634      31.683
2015    6        4    23  26    4.6113   384.2    7.638      31.664
2015    6        4    23  32    4.6135   384.1    7.641      31.645
2015    6        4    23  38    4.6155   384.0    7.645      31.625
2015    6        4    23  44    4.6174   383.9    7.649      31.605
2015    6        4    23  50    4.6190   383.8    7.652      31.584
2015    6        4    23  56    4.6206   383.7    7.656      31.563
2015    6        5     0   2    4.6219   383.6    7.659      31.542
2015    6        5     0   8    4.6231   383.5    7.662      31.520
2015    6        5     0  14    4.6241   383.4    7.666      31.498
2015    6        5     0  20    4.6250   383.3    7.669      31.476
2015    6        5     0  26    4.6257   383.2    7.672      31.454
2015    6        5     0  32    4.6264   383.1    7.675      31.431
2015    6        5     0  38    4.6269   383.0    7.678      31.408
2015    6        5     0  45    4.6272   382.9    7.682      31.384
2015    6        5     0  51    4.6275   382.8    7.685      31.360
2015    6        5     0  57    4.6277   382.7    7.688      31.337
2015    6        5     1   3    4.6277   382.6    7.691      31.313
2015    6        5     1   9    4.6277   382.5    7.694      31.288
2015    6        5     1  15    4.6276   382.4    7.697      31.264
2015    6        5     1  21    4.6274   382.3    7.699      31.239
2015    6        5     1  27    4.6272   382.2    7.702      31.215
2015    6        5     1  33    4.6269   382.1    7.705      31.190
2015    6        5     1  39    4.6265   382.0    7.708      31.165
2015    6        5     1  45    4.6261   381.9    7.711      31.140
2015    6        5     1  51    4.6256   381.7    7.714      31.115
2015    6        5     1  57    4.6251   381.6    7.717      31.090
2015    6        5     2   3    4.6245   381.5    7.720      31.065
2015    6        5     2  10    4.6239   381.4    7.723      31.040
2015    6        5     2  16    4.6233   381.3    7.727      31.015
2015    6        5     2  22    4.6226   381.2    7.730      30.990
2015    6        5     2  28    4.6218   381.1    7.733      30.965
2015    6        5     2  34    4.6211   381.0    7.736      30.941
2015    6        5     2  40    4.6202   380.9    7.739      30.916
2015    6        5     2  46    4.6194   380.7    7.743      30.891
2015    6        5     2  52    4.6185   380.6    7.746      30.867
2015    6        5     2  58    4.6176   380.5    7.750      30.843
2015    6        5     3   4    4.6167   380.4    7.753      30.819
2015    6        5     3  10    4.6157   380.3    7.757      30.795
2015    6        5     3  16    4.6147   380.2    7.761      30.772
2015    6        5     3  22    4.6137   380.1    7.765      30.748
2015    6        5     3  28    4.6126   380.0    7.769      30.726
2015    6        5     3  35    4.6115   379.9    7.773      30.703
2015    6        5     3  41    4.6104   379.8    7.777      30.681
2015    6        5     3  47    4.6092   379.6    7.782      30.660
2015    6        5     3  53    4.6081   379.5    7.786      30.639
2015    6        5     3  59    4.6069   379.4    7.791      30.619
2015    6        5     4   5    4.6056   379.3    7.796      30.599
2015    6        5     4  11    4.6044   379.2    7.801      30.579
2015    6        5     4  17    4.6032   379.1    7.807      30.561
2015    6        5     4  23    4.6019   379.0    7.813      30.543
2015    6        5     4  29    4.6006   378.9    7.819      30.526
2015    6        5     4  35    4.5994   378.8    7.825      30.510
2015    6        5     4  41    4.5981   378.7    7.832      30.495
2015    6        5     4  47    4.5969   378.6    7.839      30.481
2015    6        5     4  54    4.5957   378.5    7.847      30.468
2015    6        5     5   0    4.5945   378.4    7.855      30.456
2015    6        5     5   6    4.5933   378.3    7.863      30.447
2015    6        5     5  12    4.5922   378.2    7.871      30.439
2015    6        5     5  18    4.5910   378.1    7.879      30.433
2015    6        5     5  24    4.5899   378.0    7.888      30.430
2015    6        5     5  30    4.5888   377.9    7.896      30.429
2015    6        5     5  36    4.5877   377.9    7.905      30.431
2015    6        5     5  42    4.5867   377.8    7.913      30.436
2015    6        5     5  48    4.5856   377.7    7.921      30.443
2015    6        5     5  54    4.5846   377.7    7.929      30.453
2015    6        5     6   0    4.5835   377.6    7.937      30.465
2015    6        5     6   6    4.5825   377.5    7.945      30.480
2015    6        5     6  12    4.5815   377.5    7.952      30.498
2015    6        5     6  19    4.5805   377.4    7.960      30.518
2015    6        5     6  25    4.5795   377.3    7.967      30.540
2015    6        5     6  31    4.5785   377.3    7.975      30.564
2015    6        5     6  37    4.5775   377.2    7.982      30.591
2015    6        5     6  43    4.5766   377.2    7.989      30.619
2015    6        5     6  49    4.5756   377.1    7.996      30.650
2015    6        5     6  55    4.5747   377.1    8.003      30.683
2015    6        5     7   1    4.5737   377.0    8.010      30.717
2015    6        5     7   7    4.5728   377.0    8.017      30.753
2015    6        5     7  13    4.5719   376.9    8.024      30.791
2015    6        5     7  19    4.5710   376.9    8.031      30.830
2015    6        5     7  25    4.5701   376.8    8.038      30.870
2015    6        5     7  31    4.5693   376.8    8.045      30.911
2015    6        5     7  38    4.5686   376.7    8.052      30.953
2015    6        5     7  44    4.5678   376.7    8.059      30.996
2015    6        5     7  50    4.5672   376.6    8.066      31.040
2015    6        5     7  56    4.5666   376.6    8.073      31.084
2015    6        5     8   2    4.5660   376.6    8.081      31.130
2015    6        5     8   8    4.5655   376.5    8.088      31.175
2015    6        5     8  14    4.5650   376.5    8.095      31.222
2015    6        5     8  20    4.5646   376.5    8.102      31.269
2015    6        5     8  26    4.5642   376.4    8.110      31.317
2015    6        5     8  32    4.5640   376.4    8.117      31.366
2015    6        5     8  38    4.5637   376.4    8.125      31.415
2015    6        5     8  44    4.5636   376.4    8.132      31.464
2015    6        5     8  50    4.5635   376.3    8.140      31.514
2015    6        5     8  56    4.5634   376.3    8.148      31.565
2015    6        5     9   3    4.5634   376.3    8.156      31.616
2015    6        5     9   9    4.5635   376.3    8.164      31.667
2015    6        5     9  15    4.5635   376.2    8.172      31.720
2015    6        5     9  21    4.5636   376.2    8.180      31.773
2015    6        5     9  27    4.5638   376.2    8.189      31.827
2015    6        5     9  33    4.5640   376.2    8.197      31.882
2015    6        5     9  39    4.5642   376.2    8.205      31.939
2015    6        5     9  45    4.5644   376.2    8.213      31.997
2015    6        5     9  51    4.5647   376.2    8.220      32.056
2015    6        5     9  57    4.5650   376.2    8.228      32.117
2015    6        5    10   3    4.5654   376.1    8.236      32.178
2015    6        5    10   9    4.5658   376.1    8.243      32.242
2015    6        5    10  15    4.5663   376.1    8.251      32.306
2015    6        5    10  21    4.5669   376.1    8.258      32.371
2015    6        5    10  28    4.5675   376.1    8.265      32.438
2015    6        5    10  34    4.5682   376.1    8.273      32.506
2015    6        5    10  40    4.5689   376.1    8.280      32.574
2015    6        5    10  46    4.5697   376.1    8.287      32.644
2015    6        5    10  52    4.5706   376.1    8.295      32.714
2015    6        5    10  58    4.5716   376.1    8.302      32.785
2015    6        5    11   4    4.5725   376.1    8.309      32.856
2015    6        5    11  10    4.5736   376.1    8.316      32.928
2015    6        5    11  16    4.5747   376.1    8.323      33.002
2015    6        5    11  22    4.5758   376.2    8.330      33.075
2015    6        5    11  28    4.5769   376.2    8.336      33.149
2015    6        5    11  34    4.5781   376.2    8.343      33.224
2015    6        5    11  40    4.5793   376.2    8.349      33.299
2015    6        5    11  47    4.5805   376.2    8.356      33.375
2015    6        5    11  53    4.5817   376.2    8.362      33.451
2015    6        5    11  59    4.5829   376.2    8.369      33.527
2015    6        5    12   5    4.5842   376.2    8.375      33.603
2015    6        5    12  11    4.5854   376.2    8.381      33.679
2015    6        5    12  17    4.5867   376.3    8.387      33.755
2015    6        5    12  23    4.5880   376.3    8.393      33.832
2015    6        5    12  29    4.5893   376.3    8.399      33.908
2015    6        5    12  35    4.5907   376.3    8.405      33.984
2015    6        5    12  41    4.5920   376.3    8.411      34.059
2015    6        5    12  47    4.5935   376.3    8.417      34.135
2015    6        5    12  53    4.5949   376.3    8.423      34.210
2015    6        5    12  59    4.5964   376.3    8.429      34.285
2015    6        5    13   5    4.5979   376.4    8.435      34.359
2015    6        5    13  12    4.5995   376.4    8.441      34.433
2015    6        5    13  18    4.6011   376.4    8.447      34.507
2015    6        5    13  24    4.6028   376.4    8.453      34.580
2015    6        5    13  30    4.6044   376.4    8.460      34.653
2015    6        5    13  36    4.6062   376.4    8.466      34.725
2015    6        5    13  42    4.6080   376.4    8.473      34.797
2015    6        5    13  48    4.6099   376.4    8.479      34.869
2015    6        5    13  54    4.6118   376.5    8.486      34.940
2015    6        5    14   0    4.6139   376.5    8.493      35.010
2015    6        5    14   6    4.6159   376.5    8.500      35.080
2015    6        5    14  12    4.6181   376.5    8.507      35.149
2015    6        5    14  18    4.6203   376.5    8.515      35.217
2015    6        5    14  24    4.6226   376.6    8.522      35.285
2015    6        5    14  30    4.6250   376.6    8.530      35.351
2015    6        5    14  37    4.6274   376.6    8.538      35.417
2015    6        5    14  43    4.6299   376.6    8.546      35.482
2015    6        5    14  49    4.6325   376.6    8.554      35.545
2015    6        5    14  55    4.6352   376.7    8.563      35.608
2015    6        5    15   1    4.6380   376.7    8.572      35.669
2015    6        5    15   7    4.6409   376.7    8.581      35.730
2015    6        5    15  13    4.6439   376.7    8.590      35.789
2015    6        5    15  19    4.6469   376.8    8.600      35.848
2015    6        5    15  25    4.6501   376.8    8.610      35.905
2015    6        5    15  31    4.6533   376.8    8.620      35.962
2015    6        5    15  37    4.6566   376.8    8.631      36.016
2015    6        5    15  43    4.6601   376.9    8.642      36.069
2015    6        5    15  49    4.6636   376.9    8.653      36.121
2015    6        5    15  56    4.6673   376.9    8.665      36.171
2015    6        5    16   2    4.6711   376.9    8.677      36.218
2015    6        5    16   8    4.6749   377.0    8.689      36.264
2015    6        5    16  14    4.6789   377.0    8.702      36.306
2015    6        5    16  20    4.6830   377.0    8.715      36.347
2015    6        5    16  26    4.6872   377.0    8.729      36.386
2015    6        5    16  32    4.6915   377.1    8.743      36.422
2015    6        5    16  38    4.6959   377.1    8.757      36.457
2015    6        5    16  44    4.7005   377.2    8.771      36.490
2015    6        5    16  50    4.7051   377.2    8.785      36.521
2015    6        5    16  56    4.7099   377.3    8.799      36.551
2015    6        5    17   2    4.7148   377.3    8.814      36.580
2015    6        5    17   8    4.7198   377.4    8.828      36.607
2015    6        5    17  15    4.7250   377.4    8.842      36.632
2015    6        5    17  21    4.7302   377.5    8.856      36.656
2015    6        5    17  27    4.7355   377.5    8.870      36.678
2015    6        5    17  33    4.7409   377.6    8.883      36.699
2015    6        5    17  39    4.7463   377.7    8.897      36.718
2015    6        5    17  45    4.7518   377.7    8.910      36.736
2015    6        5    17  51    4.7574   377.8    8.923      36.753
2015    6        5    17  57    4.7630   377.9    8.936      36.768
2015    6        5    18   3    4.7686   377.9    8.949      36.782
2015    6        5    18   9    4.7742   378.0    8.962      36.795
2015    6        5    18  15    4.7799   378.1    8.974      36.806
2015    6        5    18  21    4.7856   378.1    8.986      36.817
2015    6        5    18  27    4.7914   378.2    8.998      36.826
2015    6        5    18  33    4.7971   378.3    9.010      36.835
2015    6        5    18  40    4.8030   378.3    9.022      36.843
2015    6        5    18  46    4.8088   378.4    9.033      36.849
2015    6        5    18  52    4.8146   378.5    9.045      36.855
2015    6        5    18  58    4.8205   378.5    9.056      36.860
2015    6        5    19   4    4.8264   378.6    9.067      36.864
2015    6        5    19  10    4.8323   378.7    9.078      36.867
2015    6        5    19  16    4.8382   378.8    9.089      36.870
2015    6        5    19  22    4.8442   378.8    9.100      36.872
2015    6        5    19  28    4.8502   378.9    9.111      36.873
2015    6        5    19  34    4.8562   379.0    9.122      36.873
2015    6        5    19  40    4.8623   379.0    9.132      36.872
2015    6        5    19  46    4.8684   379.1    9.143      36.871
2015    6        5    19  52    4.8745   379.2    9.154      36.869
2015    6        5    19  58    4.8807   379.3    9.164      36.867
2015    6        5    20   5    4.8869   379.3    9.175      36.864
2015    6        5    20  11    4.8931   379.4    9.186      36.860
2015    6        5    20  17    4.8994   379.5    9.196      36.856
2015    6        5    20  23    4.9057   379.5    9.207      36.852
2015    6        5    20  29    4.9121   379.6    9.218      36.847
2015    6        5    20  35    4.9184   379.7    9.230      36.843
2015    6        5    20  41    4.9249   379.7    9.241      36.837
2015    6        5    20  47    4.9314   379.8    9.252      36.832
2015    6        5    20  53    4.9379   379.9    9.264      36.827
2015    6        5    20  59    4.9445   380.0    9.276      36.821
2015    6        5    21   5    4.9511   380.0    9.288      36.816
2015    6        5    21  11    4.9578   380.1    9.301      36.810
2015    6        5    21  17    4.9646   380.2    9.313      36.804
2015    6        5    21  24    4.9714   380.2    9.326      36.799
2015    6        5    21  30    4.9783   380.3    9.340      36.794
2015    6        5    21  36    4.9853   380.4    9.353      36.789
2015    6        5    21  42    4.9924   380.4    9.368      36.784
2015    6        5    21  48    4.9996   380.5    9.382      36.779
2015    6        5    21  54    5.0069   380.6    9.397      36.776
2015    6        5    22   0    5.0143   380.7    9.413      36.773
2015    6        5    22   6    5.0219   380.7    9.429      36.772
2015    6        5    22  12    5.0295   380.8    9.445      36.772
2015    6        5    22  18    5.0372   380.9    9.462      36.772
2015    6        5    22  24    5.0451   381.0    9.478      36.774
2015    6        5    22  30    5.0530   381.1    9.495      36.778
2015    6        5    22  36    5.0610   381.2    9.513      36.782
2015    6        5    22  42    5.0690   381.3    9.530      36.787
2015    6        5    22  49    5.0772   381.4    9.547      36.792
2015    6        5    22  55    5.0853   381.5    9.565      36.798
2015    6        5    23   1    5.0936   381.6    9.583      36.805
2015    6        5    23   7    5.1018   381.7    9.600      36.813
2015    6        5    23  13    5.1102   381.8    9.619      36.821
2015    6        5    23  19    5.1186   382.0    9.637      36.830
2015    6        5    23  25    5.1270   382.1    9.655      36.840
2015    6        5    23  31    5.1355   382.2    9.674      36.851
2015    6        5    23  37    5.1440   382.3    9.693      36.863
2015    6        5    23  43    5.1526   382.4    9.713      36.876
2015    6        5    23  49    5.1612   382.6    9.733      36.890
2015    6        5    23  55    5.1699   382.7    9.753      36.906
2015    6        6     0   1    5.1786   382.8    9.773      36.923
2015    6        6     0   7    5.1873   382.9    9.794      36.942
2015    6        6     0  14    5.1960   383.1    9.816      36.963
2015    6        6     0  20    5.2048   383.2    9.837      36.986
2015    6        6     0  26    5.2137   383.4    9.858      37.013
2015    6        6     0  32    5.2225   383.5    9.880      37.043
2015    6        6     0  38    5.2314   383.7    9.901      37.076
2015    6        6     0  44    5.2404   383.8    9.922      37.113
2015    6        6     0  50    5.2493   384.0    9.943      37.154
2015    6        6     0  56    5.2583   384.2    9.963      37.198
2015    6        6     1   2    5.2673   384.3    9.982      37.246
2015    6        6     1   8    5.2763   384.5   10.001      37.298
2015    6        6     1  14    5.2852   384.7   10.019      37.353
2015    6        6     1  20    5.2942   384.8   10.037      37.411
2015    6        6     1  26    5.3031   385.0   10.054      37.471
2015    6        6     1  33    5.3120   385.2   10.070      37.533
2015    6        6     1  39    5.3208   385.4   10.085      37.597
2015    6        6     1  45    5.3297   385.5   10.100      37.661
2015    6        6     1  51    5.3386   385.7   10.115      37.726
2015    6        6     1  57    5.3474   385.9   10.129      37.792
2015    6        6     2   3    5.3563   386.0   10.142      37.857
2015    6        6     2   9    5.3651   386.2   10.155      37.923
2015    6        6     2  15    5.3740   386.4   10.167      37.989
2015    6        6     2  21    5.3830   386.6   10.179      38.055
2015    6        6     2  27    5.3919   386.7   10.191      38.120
2015    6        6     2  33    5.4009   386.9   10.202      38.186
2015    6        6     2  39    5.4099   387.1   10.212      38.252
2015    6        6     2  45    5.4189   387.3   10.223      38.318
2015    6        6     2  51    5.4280   387.4   10.232      38.384
2015    6        6     2  58    5.4371   387.6   10.242      38.449
2015    6        6     3   4    5.4462   387.8   10.251      38.515
2015    6        6     3  10    5.4554   388.0   10.259      38.580
2015    6        6     3  16    5.4646   388.2   10.268      38.646
2015    6        6     3  22    5.4738   388.3   10.275      38.711
2015    6        6     3  28    5.4830   388.5   10.283      38.776
2015    6        6     3  34    5.4922   388.7   10.290      38.842
2015    6        6     3  40    5.5014   388.9   10.297      38.907
2015    6        6     3  46    5.5107   389.1   10.303      38.972
2015    6        6     3  52    5.5199   389.3   10.309      39.036
2015    6        6     3  58    5.5292   389.4   10.315      39.101
2015    6        6     4   4    5.5385   389.6   10.320      39.165
2015    6        6     4  10    5.5478   389.8   10.326      39.229
2015    6        6     4  16    5.5571   390.0   10.330      39.292
2015    6        6     4  23    5.5663   390.2   10.335      39.356
2015    6        6     4  29    5.5756   390.4   10.339      39.419
2015    6        6     4  35    5.5849   390.6   10.343      39.482
2015    6        6     4  41    5.5942   390.7   10.347      39.544
2015    6        6     4  47    5.6034   390.9   10.351      39.607
2015    6        6     4  53    5.6127   391.1   10.354      39.669
2015    6        6     4  59    5.6220   391.3   10.358      39.732
2015    6        6     5   5    5.6313   391.5   10.361      39.794
2015    6        6     5  11    5.6406   391.7   10.364      39.856
2015    6        6     5  17    5.6499   391.8   10.367      39.919
2015    6        6     5  23    5.6592   392.0   10.369      39.981
2015    6        6     5  29    5.6685   392.2   10.372      40.044
2015    6        6     5  35    5.6778   392.4   10.375      40.107
2015    6        6     5  42    5.6871   392.6   10.377      40.171
2015    6        6     5  48    5.6965   392.7   10.380      40.235
2015    6        6     5  54    5.7059   392.9   10.383      40.299
2015    6        6     6   0    5.7153   393.1   10.385      40.364
2015    6        6     6   6    5.7248   393.3   10.388      40.429
2015    6        6     6  12    5.7343   393.4   10.391      40.495
2015    6        6     6  18    5.7438   393.6   10.394      40.561
2015    6        6     6  24    5.7533   393.8   10.398      40.628
2015    6        6     6  30    5.7629   394.0   10.401      40.696
2015    6        6     6  36    5.7725   394.1   10.405      40.765
2015    6        6     6  42    5.7822   394.3   10.409      40.835
2015    6        6     6  48    5.7919   394.5   10.413      40.906
2015    6        6     6  54    5.8018   394.7   10.418      40.977
2015    6        6     7   0    5.8116   394.8   10.423      41.050
2015    6        6     7   7    5.8216   395.0   10.429      41.124
2015    6        6     7  13    5.8316   395.2   10.435      41.199
2015    6        6     7  19    5.8417   395.4   10.442      41.276
2015    6        6     7  25    5.8518   395.5   10.449      41.354
2015    6        6     7  31    5.8621   395.7   10.457      41.434
2015    6        6     7  37    5.8725   395.9   10.467      41.515
2015    6        6     7  43    5.8831   396.1   10.477      41.597
2015    6        6     7  49    5.8938   396.2   10.488      41.681
2015    6        6     7  55    5.9046   396.4   10.500      41.769
2015    6        6     8   1    5.9155   396.6   10.513      41.861
2015    6        6     8   7    5.9266   396.8   10.526      41.956
2015    6        6     8  13    5.9378   397.0   10.541      42.055
2015    6        6     8  19    5.9492   397.2   10.557      42.157
2015    6        6     8  26    5.9606   397.4   10.573      42.264
2015    6        6     8  32    5.9721   397.6   10.590      42.375
2015    6        6     8  38    5.9838   397.8   10.608      42.489
2015    6        6     8  44    5.9956   398.0   10.626      42.606
2015    6        6     8  50    6.0074   398.2   10.644      42.727
2015    6        6     8  56    6.0194   398.4   10.663      42.852
2015    6        6     9   2    6.0315   398.6   10.683      42.980
2015    6        6     9   8    6.0437   398.9   10.703      43.110
2015    6        6     9  14    6.0560   399.1   10.723      43.245
2015    6        6     9  20    6.0683   399.3   10.742      43.384
2015    6        6     9  26    6.0808   399.6   10.761      43.527
2015    6        6     9  32    6.0932   399.9   10.780      43.673
2015    6        6     9  38    6.1057   400.1   10.799      43.821
2015    6        6     9  44    6.1181   400.4   10.817      43.970
2015    6        6     9  51    6.1305   400.7   10.834      44.120
2015    6        6     9  57    6.1428   401.0   10.850      44.271
2015    6        6    10   3    6.1551   401.3   10.865      44.422
2015    6        6    10   9    6.1672   401.6   10.880      44.571
2015    6        6    10  15    6.1791   401.9   10.893      44.719
2015    6        6    10  21    6.1910   402.2   10.906      44.864
2015    6        6    10  27    6.2027   402.5   10.918      45.009
2015    6        6    10  33    6.2143   402.8   10.929      45.151
2015    6        6    10  39    6.2259   403.1   10.938      45.291
2015    6        6    10  45    6.2372   403.4   10.947      45.430
2015    6        6    10  51    6.2485   403.8   10.955      45.568
2015    6        6    10  57    6.2596   404.1   10.962      45.703
2015    6        6    11   3    6.2706   404.4   10.968      45.836
2015    6        6    11  10    6.2814   404.7   10.974      45.968
2015    6        6    11  16    6.2922   405.0   10.978      46.098
2015    6        6    11  22    6.3028   405.4   10.982      46.226
2015    6        6    11  28    6.3133   405.7   10.985      46.352
2015    6        6    11  34    6.3237   406.0   10.987      46.477
2015    6        6    11  40    6.3339   406.4   10.988      46.600
2015    6        6    11  46    6.3440   406.7   10.988      46.722
2015    6        6    11  52    6.3540   407.0   10.988      46.842
2015    6        6    11  58    6.3638   407.4   10.987      46.959
2015    6        6    12   4    6.3735   407.7   10.985      47.075
2015    6        6    12  10    6.3830   408.0   10.982      47.190
2015    6        6    12  16    6.3924   408.4   10.979      47.302
2015    6        6    12  22    6.4016   408.7   10.975      47.412
2015    6        6    12  28    6.4107   409.1   10.971      47.521
2015    6        6    12  35    6.4196   409.4   10.965      47.628
2015    6        6    12  41    6.4284   409.7   10.960      47.733
2015    6        6    12  47    6.4371   410.1   10.953      47.837
2015    6        6    12  53    6.4456   410.4   10.947      47.940
2015    6        6    12  59    6.4540   410.8   10.940      48.040
2015    6        6    13   5    6.4623   411.1   10.932      48.139
2015    6        6    13  11    6.4705   411.4   10.924      48.237
2015    6        6    13  17    6.4786   411.8   10.916      48.334
2015    6        6    13  23    6.4866   412.1   10.908      48.429
2015    6        6    13  29    6.4945   412.4   10.900      48.523
2015    6        6    13  35    6.5023   412.7   10.891      48.616
2015    6        6    13  41    6.5101   413.1   10.882      48.709
2015    6        6    13  47    6.5178   413.4   10.873      48.801
2015    6        6    13  53    6.5255   413.7   10.864      48.892
2015    6        6    14   0    6.5331   414.0   10.855      48.983
2015    6        6    14   6    6.5407   414.4   10.846      49.074
2015    6        6    14  12    6.5482   414.7   10.837      49.164
2015    6        6    14  18    6.5558   415.0   10.828      49.255
2015    6        6    14  24    6.5633   415.4   10.819      49.344
2015    6        6    14  30    6.5708   415.7   10.810      49.434
2015    6        6    14  36    6.5783   416.0   10.801      49.524
2015    6        6    14  42    6.5858   416.3   10.793      49.614
2015    6        6    14  48    6.5933   416.7   10.784      49.704
2015    6        6    14  54    6.6007   417.0   10.776      49.794
2015    6        6    15   0    6.6082   417.3   10.768      49.885
2015    6        6    15   6    6.6156   417.6   10.760      49.975
2015    6        6    15  12    6.6231   417.9   10.753      50.066
2015    6        6    15  19    6.6305   418.3   10.746      50.158
2015    6        6    15  25    6.6380   418.6   10.739      50.250
2015    6        6    15  31    6.6455   418.9   10.733      50.342
2015    6        6    15  37    6.6530   419.2   10.728      50.434
2015    6        6    15  43    6.6605   419.5   10.723      50.527
2015    6        6    15  49    6.6680   419.8   10.719      50.620
2015    6        6    15  55    6.6755   420.1   10.715      50.716
2015    6        6    16   1    6.6830   420.5   10.712      50.815
2015    6        6    16   7    6.6905   420.8   10.709      50.915
2015    6        6    16  13    6.6981   421.1   10.706      51.017
2015    6        6    16  19    6.7056   421.4   10.704      51.123
2015    6        6    16  25    6.7132   421.8   10.702      51.232
2015    6        6    16  31    6.7208   422.1   10.701      51.344
2015    6        6    16  37    6.7284   422.4   10.699      51.458
2015    6        6    16  44    6.7361   422.8   10.698      51.572
2015    6        6    16  50    6.7438   423.1   10.698      51.686
2015    6        6    16  56    6.7515   423.4   10.699      51.800
2015    6        6    17   2    6.7594   423.7   10.700      51.917
2015    6        6    17   8    6.7673   424.0   10.702      52.036
2015    6        6    17  14    6.7754   424.3   10.705      52.157
2015    6        6    17  20    6.7836   424.7   10.708      52.282
2015    6        6    17  26    6.7920   425.0   10.712      52.410
2015    6        6    17  32    6.8006   425.3   10.717      52.541
2015    6        6    17  38    6.8092   425.6   10.722      52.677
2015    6        6    17  44    6.8180   426.0   10.728      52.817
2015    6        6    17  50    6.8270   426.3   10.734      52.960
2015    6        6    17  56    6.8361   426.7   10.742      53.109
2015    6        6    18   2    6.8454   427.1   10.749      53.262
2015    6        6    18   9    6.8548   427.4   10.758      53.418
2015    6        6    18  15    6.8644   427.8   10.767      53.574
2015    6        6    18  21    6.8743   428.2   10.778      53.736
2015    6        6    18  27    6.8843   428.6   10.788      53.906
2015    6        6    18  33    6.8944   429.0   10.799      54.081
2015    6        6    18  39    6.9044   429.5   10.810      54.258
2015    6        6    18  45    6.9143   429.9   10.820      54.436
2015    6        6    18  51    6.9240   430.4   10.829      54.616
2015    6        6    18  57    6.9335   430.8   10.837      54.800
2015    6        6    19   3    6.9428   431.3   10.843      54.985
2015    6        6    19   9    6.9518   431.8   10.848      55.166
2015    6        6    19  15    6.9604   432.3   10.851      55.345
2015    6        6    19  21    6.9688   432.8   10.853      55.520
2015    6        6    19  28    6.9768   433.3   10.852      55.692
2015    6        6    19  34    6.9845   433.8   10.851      55.861
2015    6        6    19  40    6.9919   434.3   10.847      56.027
2015    6        6    19  46    6.9989   434.8   10.841      56.190
2015    6        6    19  52    7.0055   435.4   10.834      56.349
2015    6        6    19  58    7.0119   435.9   10.826      56.504
2015    6        6    20   4    7.0181   436.4   10.816      56.656
2015    6        6    20  10    7.0240   437.0   10.805      56.804
2015    6        6    20  16    7.0296   437.5   10.793      56.949
2015    6        6    20  22    7.0350   438.0   10.779      57.090
2015    6        6    20  28    7.0403   438.5   10.765      57.229
2015    6        6    20  34    7.0454   439.1   10.750      57.365
2015    6        6    20  40    7.0503   439.6   10.735      57.499
2015    6        6    20  46    7.0552   440.1   10.718      57.630
2015    6        6    20  53    7.0600   440.6   10.702      57.759
2015    6        6    20  59    7.0647   441.1   10.685      57.886
2015    6        6    21   5    7.0693   441.7   10.667      58.011
2015    6        6    21  11    7.0739   442.2   10.650      58.135
2015    6        6    21  17    7.0784   442.7   10.632      58.257
2015    6        6    21  23    7.0829   443.2   10.614      58.379
2015    6        6    21  29    7.0873   443.7   10.596      58.498
2015    6        6    21  35    7.0918   444.2   10.577      58.617
2015    6        6    21  41    7.0962   444.7   10.558      58.735
2015    6        6    21  47    7.1007   445.2   10.539      58.853
2015    6        6    21  53    7.1051   445.7   10.519      58.969
2015    6        6    21  59    7.1096   446.2   10.499      59.085
2015    6        6    22   5    7.1140   446.8   10.479      59.200
2015    6        6    22  12    7.1184   447.3   10.459      59.314
2015    6        6    22  18    7.1227   447.8   10.438      59.428
2015    6        6    22  24    7.1271   448.4   10.417      59.541
2015    6        6    22  30    7.1314   448.9   10.396      59.652
2015    6        6    22  36    7.1357   449.4   10.375      59.761
2015    6        6    22  42    7.1399   450.0   10.354      59.867
2015    6        6    22  48    7.1441   450.5   10.333      59.972
2015    6        6    22  54    7.1482   451.0   10.311      60.075
2015    6        6    23   0    7.1524   451.5   10.290      60.176
2015    6        6    23   6    7.1566   452.1   10.269      60.278
2015    6        6    23  12    7.1607   452.6   10.249      60.380
2015    6        6    23  18    7.1648   453.1   10.228      60.484
2015    6        6    23  24    7.1690   453.6   10.207      60.591
2015    6        6    23  30    7.1732   454.2   10.186      60.698
2015    6        6    23  37    7.1773   454.7   10.165      60.806
2015    6        6    23  43    7.1814   455.2   10.145      60.916
2015    6        6    23  49    7.1852   455.8   10.124      61.032
2015    6        6    23  55    7.1889   456.3   10.103      61.150
2015    6        7     0   1    7.1922   456.9   10.082      61.264
2015    6        7     0   7    7.1952   457.4   10.061      61.377
2015    6        7     0  13    7.1980   457.9   10.040      61.489
2015    6        7     0  19    7.2006   458.4   10.019      61.599
2015    6        7     0  25    7.2031   458.9   10.000      61.708
2015    6        7     0  31    7.2055   459.4    9.982      61.813
2015    6        7     0  37    7.2081   459.8    9.965      61.921
2015    6        7     0  43    7.2109   460.3    9.950      62.033
2015    6        7     0  49    7.2138   460.7    9.936      62.151
2015    6        7     0  56    7.2171   461.2    9.924      62.272
2015    6        7     1   2    7.2204   461.6    9.915      62.394
2015    6        7     1   8    7.2242   462.0    9.907      62.516
2015    6        7     1  14    7.2282   462.5    9.901      62.646
2015    6        7     1  20    7.2325   462.9    9.896      62.784
2015    6        7     1  26    7.2370   463.4    9.892      62.929
2015    6        7     1  32    7.2417   463.8    9.889      63.080
2015    6        7     1  38    7.2464   464.3    9.886      63.236
2015    6        7     1  44    7.2511   464.8    9.883      63.401
2015    6        7     1  50    7.2558   465.3    9.879      63.572
2015    6        7     1  56    7.2603   465.9    9.875      63.745
2015    6        7     2   2    7.2646   466.4    9.870      63.917
2015    6        7     2   8    7.2687   467.0    9.863      64.087
2015    6        7     2  14    7.2724   467.5    9.856      64.255
2015    6        7     2  21    7.2759   468.1    9.847      64.422
2015    6        7     2  27    7.2791   468.7    9.837      64.588
2015    6        7     2  33    7.2820   469.3    9.826      64.753
2015    6        7     2  39    7.2845   469.9    9.813      64.916
2015    6        7     2  45    7.2867   470.5    9.799      65.076
2015    6        7     2  51    7.2886   471.1    9.784      65.234
2015    6        7     2  57    7.2903   471.7    9.767      65.388
2015    6        7     3   3    7.2916   472.4    9.749      65.540
2015    6        7     3   9    7.2926   473.0    9.730      65.689
2015    6        7     3  15    7.2934   473.6    9.710      65.834
2015    6        7     3  21    7.2939   474.3    9.688      65.976
2015    6        7     3  27    7.2940   474.9    9.665      66.113
2015    6        7     3  33    7.2939   475.5    9.642      66.245
2015    6        7     3  39    7.2935   476.2    9.618      66.371
2015    6        7     3  46    7.2930   476.8    9.593      66.490
2015    6        7     3  52    7.2923   477.3    9.568      66.604
2015    6        7     3  58    7.2915   477.9    9.543      66.713
2015    6        7     4   4    7.2906   478.5    9.518      66.818
2015    6        7     4  10    7.2897   479.1    9.493      66.922
2015    6        7     4  16    7.2889   479.7    9.468      67.026
2015    6        7     4  22    7.2880   480.2    9.443      67.128
2015    6        7     4  28    7.2872   480.8    9.418      67.229
2015    6        7     4  34    7.2863   481.4    9.392      67.330
2015    6        7     4  40    7.2855   482.0    9.367      67.429
2015    6        7     4  46    7.2847   482.6    9.342      67.529
2015    6        7     4  52    7.2839   483.2    9.316      67.629
2015    6        7     4  58    7.2830   483.8    9.291      67.728
2015    6        7     5   5    7.2822   484.4    9.265      67.826
2015    6        7     5  11    7.2813   485.0    9.239      67.924
2015    6        7     5  17    7.2804   485.6    9.213      68.022
2015    6        7     5  23    7.2795   486.3    9.187      68.120
2015    6        7     5  29    7.2786   486.9    9.161      68.215
2015    6        7     5  35    7.2777   487.5    9.135      68.306
2015    6        7     5  41    7.2767   488.1    9.109      68.394
2015    6        7     5  47    7.2758   488.7    9.084      68.481
2015    6        7     5  53    7.2749   489.3    9.059      68.565
2015    6        7     5  59    7.2741   489.9    9.034      68.648
2015    6        7     6   5    7.2733   490.5    9.010      68.729
2015    6        7     6  11    7.2725   491.1    8.986      68.811
2015    6        7     6  17    7.2718   491.7    8.961      68.897
2015    6        7     6  23    7.2712   492.4    8.937      68.988
2015    6        7     6  30    7.2707   493.0    8.913      69.082
2015    6        7     6  36    7.2701   493.7    8.889      69.180
2015    6        7     6  42    7.2695   494.4    8.865      69.285
2015    6        7     6  48    7.2687   495.2    8.841      69.400
2015    6        7     6  54    7.2676   495.9    8.816      69.520
2015    6        7     7   0    7.2662   496.7    8.791      69.647
2015    6        7     7   6    7.2642   497.5    8.764      69.779
2015    6        7     7  12    7.2617   498.3    8.736      69.911
2015    6        7     7  18    7.2585   499.1    8.706      70.036
2015    6        7     7  24    7.2548   499.9    8.675      70.154
2015    6        7     7  30    7.2505   500.7    8.643      70.267
2015    6        7     7  36    7.2458   501.4    8.610      70.377
2015    6        7     7  42    7.2403   502.2    8.575      70.475
2015    6        7     7  48    7.2344   502.9    8.540      70.561
2015    6        7     7  55    7.2283   503.6    8.504      70.638
2015    6        7     8   1    7.2220   504.3    8.469      70.710
2015    6        7     8   7    7.2155   505.0    8.434      70.781
2015    6        7     8  13    7.2090   505.7    8.399      70.847
2015    6        7     8  19    7.2024   506.3    8.364      70.909
2015    6        7     8  25    7.1960   507.0    8.330      70.971
2015    6        7     8  31    7.1895   507.7    8.297      71.035
2015    6        7     8  37    7.1833   508.3    8.265      71.100
2015    6        7     8  43    7.1771   509.0    8.233      71.166
2015    6        7     8  49    7.1710   509.6    8.201      71.235
2015    6        7     8  55    7.1648   510.3    8.170      71.304
2015    6        7     9   1    7.1586   511.0    8.139      71.373
2015    6        7     9   7    7.1524   511.6    8.108      71.441
2015    6        7     9  14    7.1462   512.3    8.077      71.510
2015    6        7     9  20    7.1398   513.0    8.046      71.579
2015    6        7     9  26    7.1334   513.7    8.015      71.649
2015    6        7     9  32    7.1268   514.4    7.984      71.718
2015    6        7     9  38    7.1200   515.1    7.953      71.785
2015    6        7     9  44    7.1129   515.8    7.921      71.848
2015    6        7     9  50    7.1057   516.4    7.890      71.906
2015    6        7     9  56    7.0982   517.1    7.859      71.956
2015    6        7    10   2    7.0907   517.7    7.827      72.001
2015    6        7    10   8    7.0831   518.4    7.796      72.040
2015    6        7    10  14    7.0754   519.0    7.765      72.076
2015    6        7    10  20    7.0677   519.6    7.735      72.109
2015    6        7    10  26    7.0600   520.3    7.704      72.142
2015    6        7    10  32    7.0521   520.9    7.674      72.172
2015    6        7    10  39    7.0442   521.5    7.644      72.201
2015    6        7    10  45    7.0361   522.1    7.614      72.228
2015    6        7    10  51    7.0282   522.7    7.584      72.255
2015    6        7    10  57    7.0201   523.4    7.555      72.283
2015    6        7    11   3    7.0122   524.0    7.526      72.312
2015    6        7    11   9    7.0041   524.6    7.497      72.342
2015    6        7    11  15    6.9963   525.2    7.469      72.374
2015    6        7    11  21    6.9883   525.8    7.441      72.407
2015    6        7    11  27    6.9805   526.4    7.413      72.442
2015    6        7    11  33    6.9726   527.0    7.386      72.476
2015    6        7    11  39    6.9647   527.6    7.359      72.511
2015    6        7    11  45    6.9567   528.2    7.332      72.545
2015    6        7    11  51    6.9487   528.8    7.305      72.580
2015    6        7    11  58    6.9406   529.4    7.278      72.614
2015    6        7    12   4    6.9325   530.0    7.251      72.647
2015    6        7    12  10    6.9243   530.6    7.224      72.679
2015    6        7    12  16    6.9161   531.2    7.197      72.709
2015    6        7    12  22    6.9078   531.8    7.170      72.739
2015    6        7    12  28    6.8995   532.4    7.144      72.767
2015    6        7    12  34    6.8911   533.0    7.117      72.793
2015    6        7    12  40    6.8828   533.6    7.091      72.817
2015    6        7    12  46    6.8744   534.1    7.065      72.839
2015    6        7    12  52    6.8660   534.7    7.039      72.859
2015    6        7    12  58    6.8576   535.3    7.013      72.877
2015    6        7    13   4    6.8492   535.8    6.988      72.893
2015    6        7    13  10    6.8408   536.4    6.963      72.906
2015    6        7    13  16    6.8324   537.0    6.938      72.918
2015    6        7    13  23    6.8240   537.5    6.913      72.928
2015    6        7    13  29    6.8156   538.1    6.888      72.939
2015    6        7    13  35    6.8071   538.7    6.864      72.948
2015    6        7    13  41    6.7987   539.3    6.839      72.957
2015    6        7    13  47    6.7901   539.9    6.815      72.969
2015    6        7    13  53    6.7816   540.5    6.790      72.984
2015    6        7    13  59    6.7729   541.1    6.766      73.002
2015    6        7    14   5    6.7642   541.8    6.741      73.022
2015    6        7    14  11    6.7553   542.4    6.716      73.043
2015    6        7    14  17    6.7462   543.1    6.691      73.062
2015    6        7    14  23    6.7370   543.7    6.665      73.079
2015    6        7    14  29    6.7275   544.4    6.639      73.093
2015    6        7    14  35    6.7179   545.1    6.611      73.110
2015    6        7    14  41    6.7079   545.7    6.583      73.119
2015    6        7    14  48    6.6975   546.4    6.555      73.118
2015    6        7    14  54    6.6870   547.0    6.526      73.111
2015    6        7    15   0    6.6763   547.7    6.497      73.097
2015    6        7    15   6    6.6655   548.3    6.468      73.078
2015    6        7    15  12    6.6547   548.9    6.439      73.055
2015    6        7    15  18    6.6439   549.5    6.411      73.025
2015    6        7    15  24    6.6332   550.1    6.384      72.992
2015    6        7    15  30    6.6227   550.6    6.358      72.962
2015    6        7    15  36    6.6124   551.2    6.332      72.935
2015    6        7    15  42    6.6022   551.8    6.307      72.911
2015    6        7    15  48    6.5921   552.3    6.283      72.891
2015    6        7    15  54    6.5821   552.8    6.259      72.872
2015    6        7    16   0    6.5722   553.4    6.235      72.853
2015    6        7    16   7    6.5623   553.9    6.211      72.837
2015    6        7    16  13    6.5524   554.5    6.188      72.823
2015    6        7    16  19    6.5425   555.1    6.164      72.811
2015    6        7    16  25    6.5325   555.7    6.140      72.798
2015    6        7    16  31    6.5224   556.3    6.116      72.783
2015    6        7    16  37    6.5121   556.9    6.092      72.764
2015    6        7    16  43    6.5016   557.5    6.067      72.739
2015    6        7    16  49    6.4909   558.1    6.042      72.708
2015    6        7    16  55    6.4801   558.6    6.017      72.668
2015    6        7    17   1    6.4691   559.2    5.992      72.620
2015    6        7    17   7    6.4581   559.7    5.967      72.567
2015    6        7    17  13    6.4471   560.2    5.942      72.509
2015    6        7    17  19    6.4360   560.7    5.917      72.449
2015    6        7    17  25    6.4250   561.2    5.893      72.386
2015    6        7    17  32    6.4140   561.7    5.869      72.322
2015    6        7    17  38    6.4031   562.2    5.845      72.258
2015    6        7    17  44    6.3922   562.7    5.822      72.191
2015    6        7    17  50    6.3814   563.2    5.799      72.124
2015    6        7    17  56    6.3706   563.6    5.776      72.058
2015    6        7    18   2    6.3599   564.1    5.753      71.993
2015    6        7    18   8    6.3492   564.6    5.731      71.931
2015    6        7    18  14    6.3387   565.1    5.709      71.874
2015    6        7    18  20    6.3283   565.6    5.688      71.822
2015    6        7    18  26    6.3179   566.1    5.667      71.773
2015    6        7    18  32    6.3076   566.6    5.646      71.727
2015    6        7    18  38    6.2974   567.1    5.626      71.682
2015    6        7    18  44    6.2872   567.6    5.605      71.636
2015    6        7    18  51    6.2769   568.1    5.585      71.590
2015    6        7    18  57    6.2666   568.6    5.565      71.543
2015    6        7    19   3    6.2562   569.1    5.545      71.495
2015    6        7    19   9    6.2457   569.6    5.525      71.446
2015    6        7    19  15    6.2352   570.0    5.504      71.395
2015    6        7    19  21    6.2246   570.5    5.484      71.344
2015    6        7    19  27    6.2141   571.0    5.464      71.291
2015    6        7    19  33    6.2035   571.4    5.445      71.237
2015    6        7    19  39    6.1930   571.9    5.425      71.183
2015    6        7    19  45    6.1826   572.3    5.406      71.128
2015    6        7    19  51    6.1722   572.7    5.387      71.074
2015    6        7    19  57    6.1620   573.1    5.369      71.020
2015    6        7    20   3    6.1518   573.5    5.351      70.966
2015    6        7    20   9    6.1417   573.9    5.333      70.914
2015    6        7    20  16    6.1317   574.3    5.316      70.863
2015    6        7    20  22    6.1217   574.6    5.299      70.814
2015    6        7    20  28    6.1118   575.0    5.282      70.768
2015    6        7    20  34    6.1020   575.4    5.266      70.723
2015    6        7    20  40    6.0922   575.8    5.249      70.680
2015    6        7    20  46    6.0825   576.2    5.234      70.638
2015    6        7    20  52    6.0728   576.6    5.218      70.597
2015    6        7    20  58    6.0632   577.0    5.202      70.557
2015    6        7    21   4    6.0535   577.4    5.187      70.517
2015    6        7    21  10    6.0439   577.7    5.172      70.477
2015    6        7    21  16    6.0343   578.1    5.157      70.438
2015    6        7    21  22    6.0246   578.5    5.142      70.400
2015    6        7    21  28    6.0150   578.9    5.126      70.362
2015    6        7    21  34    6.0053   579.3    5.111      70.323
2015    6        7    21  41    5.9955   579.7    5.096      70.282
2015    6        7    21  47    5.9858   580.1    5.081      70.238
2015    6        7    21  53    5.9760   580.5    5.066      70.192
2015    6        7    21  59    5.9663   580.8    5.051      70.143
2015    6        7    22   5    5.9566   581.2    5.036      70.092
2015    6        7    22  11    5.9470   581.5    5.021      70.041
2015    6        7    22  17    5.9375   581.8    5.007      69.990
2015    6        7    22  23    5.9280   582.1    4.994      69.938
2015    6        7    22  29    5.9188   582.4    4.980      69.886
2015    6        7    22  35    5.9096   582.7    4.968      69.835
2015    6        7    22  41    5.9005   582.9    4.955      69.784
2015    6        7    22  47    5.8915   583.2    4.943      69.736
2015    6        7    22  53    5.8825   583.5    4.931      69.690
2015    6        7    23   0    5.8736   583.8    4.919      69.647
2015    6        7    23   6    5.8647   584.1    4.907      69.606
2015    6        7    23  12    5.8559   584.4    4.895      69.565
2015    6        7    23  18    5.8471   584.8    4.883      69.523
2015    6        7    23  24    5.8382   585.1    4.872      69.478
2015    6        7    23  30    5.8294   585.4    4.860      69.430
2015    6        7    23  36    5.8205   585.7    4.848      69.378
2015    6        7    23  42    5.8116   586.0    4.836      69.323
2015    6        7    23  48    5.8026   586.3    4.824      69.268
2015    6        7    23  54    5.7936   586.6    4.811      69.214
2015    6        8     0   0    5.7844   586.9    4.798      69.159
2015    6        8     0   6    5.7751   587.2    4.785      69.103
2015    6        8     0  12    5.7658   587.5    4.772      69.046
2015    6        8     0  18    5.7564   587.9    4.759      68.989
2015    6        8     0  25    5.7471   588.2    4.746      68.929
2015    6        8     0  31    5.7378   588.5    4.733      68.868
2015    6        8     0  37    5.7287   588.7    4.720      68.807
2015    6        8     0  43    5.7197   589.0    4.708      68.747
2015    6        8     0  49    5.7107   589.2    4.696      68.687
2015    6        8     0  55    5.7020   589.4    4.684      68.629
2015    6        8     1   1    5.6934   589.7    4.673      68.573
2015    6        8     1   7    5.6849   589.9    4.662      68.521
2015    6        8     1  13    5.6766   590.2    4.651      68.474
2015    6        8     1  19    5.6684   590.4    4.641      68.434
2015    6        8     1  25    5.6602   590.7    4.630      68.403
2015    6        8     1  31    5.6522   591.1    4.620      68.376
2015    6        8     1  37    5.6441   591.4    4.611      68.353
2015    6        8     1  43    5.6362   591.7    4.601      68.333
2015    6        8     1  50    5.6283   592.1    4.591      68.311
2015    6        8     1  56    5.6203   592.4    4.581      68.286
2015    6        8     2   2    5.6123   592.7    4.571      68.260
2015    6        8     2   8    5.6042   593.0    4.560      68.233
2015    6        8     2  14    5.5960   593.4    4.550      68.204
2015    6        8     2  20    5.5877   593.7    4.539      68.174
2015    6        8     2  26    5.5793   594.1    4.528      68.141
2015    6        8     2  32    5.5710   594.4    4.517      68.107
2015    6        8     2  38    5.5627   594.7    4.505      68.070
2015    6        8     2  44    5.5544   595.0    4.494      68.031
2015    6        8     2  50    5.5461   595.3    4.483      67.991
2015    6        8     2  56    5.5379   595.6    4.472      67.950
2015    6        8     3   2    5.5298   595.9    4.461      67.908
2015    6        8     3   9    5.5217   596.1    4.450      67.865
2015    6        8     3  15    5.5138   596.4    4.440      67.823
2015    6        8     3  21    5.5059   596.7    4.429      67.782
2015    6        8     3  27    5.4982   596.9    4.419      67.742
2015    6        8     3  33    5.4905   597.2    4.409      67.703
2015    6        8     3  39    5.4829   597.4    4.399      67.667
2015    6        8     3  45    5.4754   597.6    4.390      67.633
2015    6        8     3  51    5.4680   597.9    4.380      67.603
2015    6        8     3  57    5.4606   598.2    4.371      67.575
2015    6        8     4   3    5.4533   598.4    4.362      67.549
2015    6        8     4   9    5.4460   598.7    4.353      67.525
2015    6        8     4  15    5.4388   599.0    4.345      67.502
2015    6        8     4  21    5.4315   599.2    4.336      67.479
2015    6        8     4  27    5.4242   599.5    4.327      67.457
2015    6        8     4  34    5.4169   599.8    4.318      67.436
2015    6        8     4  40    5.4097   600.1    4.310      67.415
2015    6        8     4  46    5.4024   600.4    4.301      67.394
2015    6        8     4  52    5.3951   600.6    4.292      67.371
2015    6        8     4  58    5.3878   600.9    4.283      67.346
2015    6        8     5   4    5.3804   601.2    4.274      67.319
2015    6        8     5  10    5.3730   601.5    4.265      67.291
2015    6        8     5  16    5.3656   601.7    4.256      67.261
2015    6        8     5  22    5.3583   602.0    4.247      67.231
2015    6        8     5  28    5.3509   602.3    4.238      67.200
2015    6        8     5  34    5.3436   602.5    4.229      67.168
2015    6        8     5  40    5.3363   602.8    4.220      67.136
2015    6        8     5  46    5.3291   603.0    4.212      67.104
2015    6        8     5  53    5.3219   603.2    4.203      67.072
2015    6        8     5  59    5.3148   603.4    4.195      67.041
2015    6        8     6   5    5.3077   603.6    4.187      67.011
2015    6        8     6  11    5.3007   603.9    4.179      66.984
2015    6        8     6  17    5.2937   604.1    4.171      66.958
2015    6        8     6  23    5.2868   604.3    4.163      66.933
2015    6        8     6  29    5.2798   604.6    4.156      66.909
2015    6        8     6  35    5.2729   604.8    4.148      66.885
2015    6        8     6  41    5.2660   605.1    4.141      66.861
2015    6        8     6  47    5.2592   605.3    4.134      66.838
2015    6        8     6  53    5.2523   605.5    4.126      66.814
2015    6        8     6  59    5.2454   605.8    4.119      66.791
2015    6        8     7   5    5.2385   606.0    4.111      66.769
2015    6        8     7  11    5.2316   606.3    4.104      66.746
2015    6        8     7  18    5.2246   606.5    4.096      66.722
2015    6        8     7  24    5.2177   606.8    4.089      66.698
2015    6        8     7  30    5.2108   607.0    4.081      66.673
2015    6        8     7  36    5.2038   607.2    4.073      66.647
2015    6        8     7  42    5.1969   607.5    4.066      66.621
2015    6        8     7  48    5.1900   607.7    4.058      66.594
2015    6        8     7  54    5.1831   607.9    4.050      66.566
2015    6        8     8   0    5.1763   608.2    4.043      66.538
2015    6        8     8   6    5.1694   608.4    4.035      66.509
2015    6        8     8  12    5.1627   608.6    4.028      66.480
2015    6        8     8  18    5.1560   608.8    4.021      66.451
2015    6        8     8  24    5.1494   609.0    4.013      66.424
2015    6        8     8  30    5.1428   609.2    4.006      66.399
2015    6        8     8  36    5.1363   609.4    3.999      66.375
2015    6        8     8  43    5.1298   609.6    3.992      66.353
2015    6        8     8  49    5.1234   609.9    3.986      66.332
2015    6        8     8  55    5.1170   610.1    3.979      66.312
2015    6        8     9   1    5.1107   610.3    3.972      66.294
2015    6        8     9   7    5.1043   610.6    3.965      66.277
2015    6        8     9  13    5.0980   610.8    3.959      66.261
2015    6        8     9  19    5.0916   611.1    3.952      66.246
2015    6        8     9  25    5.0853   611.3    3.945      66.231
2015    6        8     9  31    5.0789   611.5    3.938      66.213
2015    6        8     9  37    5.0725   611.8    3.932      66.195
2015    6        8     9  43    5.0661   612.0    3.925      66.175
2015    6        8     9  49    5.0598   612.2    3.918      66.154
2015    6        8     9  55    5.0533   612.5    3.911      66.133
2015    6        8    10   2    5.0469   612.7    3.904      66.112
2015    6        8    10   8    5.0405   612.9    3.897      66.091
2015    6        8    10  14    5.0342   613.1    3.890      66.070
2015    6        8    10  20    5.0278   613.4    3.883      66.049
2015    6        8    10  26    5.0215   613.6    3.876      66.027
2015    6        8    10  32    5.0152   613.8    3.869      66.005
2015    6        8    10  38    5.0090   614.0    3.862      65.982
2015    6        8    10  44    5.0028   614.2    3.855      65.959
2015    6        8    10  50    4.9967   614.4    3.848      65.936
2015    6        8    10  56    4.9906   614.6    3.842      65.914
2015    6        8    11   2    4.9846   614.8    3.835      65.893
2015    6        8    11   8    4.9785   615.0    3.829      65.873
2015    6        8    11  14    4.9726   615.2    3.822      65.854
2015    6        8    11  20    4.9666   615.5    3.816      65.837
2015    6        8    11  27    4.9607   615.7    3.810      65.822
2015    6        8    11  33    4.9547   615.9    3.803      65.808
2015    6        8    11  39    4.9488   616.1    3.797      65.795
2015    6        8    11  45    4.9429   616.4    3.791      65.783
2015    6        8    11  51    4.9370   616.6    3.785      65.772
2015    6        8    11  57    4.9311   616.8    3.778      65.759
2015    6        8    12   3    4.9252   617.0    3.772      65.745
2015    6        8    12   9    4.9192   617.3    3.766      65.730
2015    6        8    12  15    4.9133   617.5    3.759      65.713
2015    6        8    12  21    4.9074   617.7    3.753      65.696
2015    6        8    12  27    4.9014   617.9    3.747      65.678
2015    6        8    12  33    4.8955   618.1    3.740      65.660
2015    6        8    12  39    4.8895   618.3    3.734      65.642
2015    6        8    12  45    4.8837   618.5    3.728      65.623
2015    6        8    12  52    4.8778   618.7    3.722      65.604
2015    6        8    12  58    4.8720   618.9    3.716      65.585
2015    6        8    13   4    4.8662   619.1    3.709      65.566
2015    6        8    13  10    4.8604   619.3    3.703      65.547
2015    6        8    13  16    4.8546   619.5    3.697      65.529
2015    6        8    13  22    4.8489   619.7    3.691      65.512
2015    6        8    13  28    4.8432   619.9    3.686      65.495
2015    6        8    13  34    4.8374   620.1    3.680      65.478
2015    6        8    13  40    4.8318   620.4    3.674      65.461
2015    6        8    13  46    4.8261   620.6    3.668      65.445
2015    6        8    13  52    4.8204   620.8    3.663      65.430
2015    6        8    13  58    4.8147   620.9    3.657      65.414
2015    6        8    14   4    4.8091   621.1    3.652      65.399
2015    6        8    14  11    4.8034   621.3    3.646      65.383
2015    6        8    14  17    4.7978   621.5    3.641      65.368
2015    6        8    14  23    4.7921   621.7    3.635      65.353
2015    6        8    14  29    4.7865   621.9    3.630      65.338
2015    6        8    14  35    4.7809   622.1    3.625      65.323
2015    6        8    14  41    4.7753   622.3    3.620      65.307
2015    6        8    14  47    4.7697   622.5    3.614      65.292
2015    6        8    14  53    4.7641   622.7    3.609      65.277
2015    6        8    14  59    4.7586   622.8    3.604      65.263
2015    6        8    15   5    4.7530   623.0    3.599      65.248
2015    6        8    15  11    4.7475   623.2    3.594      65.233
2015    6        8    15  17    4.7420   623.4    3.589      65.218
2015    6        8    15  23    4.7365   623.6    3.584      65.203
2015    6        8    15  29    4.7310   623.8    3.578      65.188
2015    6        8    15  36    4.7255   623.9    3.573      65.174
2015    6        8    15  42    4.7201   624.1    3.568      65.159
2015    6        8    15  48    4.7146   624.3    3.563      65.144
2015    6        8    15  54    4.7092   624.5    3.558      65.129
2015    6        8    16   0    4.7038   624.7    3.553      65.114
2015    6        8    16   6    4.6985   624.9    3.548      65.098
2015    6        8    16  12    4.6931   625.0    3.543      65.083
2015    6        8    16  18    4.6877   625.2    3.538      65.068
2015    6        8    16  24    4.6824   625.4    3.533      65.052
2015    6        8    16  30    4.6770   625.6    3.528      65.037
2015    6        8    16  36    4.6717   625.8    3.523      65.021
2015    6        8    16  42    4.6664   625.9    3.518      65.006
2015    6        8    16  48    4.6611   626.1    3.513      64.990
2015    6        8    16  54    4.6558   626.3    3.508      64.975
2015    6        8    17   1    4.6505   626.5    3.503      64.959
2015    6        8    17   7    4.6453   626.6    3.498      64.943
2015    6        8    17  13    4.6400   626.8    3.493      64.928
2015    6        8    17  19    4.6348   627.0    3.488      64.912
2015    6        8    17  25    4.6296   627.2    3.483      64.897
2015    6        8    17  31    4.6244   627.4    3.478      64.881
2015    6        8    17  37    4.6192   627.5    3.473      64.866
2015    6        8    17  43    4.6141   627.7    3.468      64.850
2015    6        8    17  49    4.6089   627.9    3.464      64.835
2015    6        8    17  55    4.6038   628.0    3.459      64.819
2015    6        8    18   1    4.5987   628.2    3.454      64.803
2015    6        8    18   7    4.5936   628.4    3.449      64.787
2015    6        8    18  13    4.5885   628.5    3.444      64.772
2015    6        8    18  20    4.5834   628.7    3.439      64.756
2015    6        8    18  26    4.5783   628.9    3.434      64.740
2015    6        8    18  32    4.5733   629.0    3.429      64.724
2015    6        8    18  38    4.5682   629.2    3.424      64.708
2015    6        8    18  44    4.5632   629.4    3.420      64.692
2015    6        8    18  50    4.5582   629.5    3.415      64.675
2015    6        8    18  56    4.5531   629.7    3.410      64.659
2015    6        8    19   2    4.5481   629.9    3.405      64.642
2015    6        8    19   8    4.5432   630.0    3.400      64.625
2015    6        8    19  14    4.5382   630.2    3.395      64.609
2015    6        8    19  20    4.5332   630.4    3.391      64.592
2015    6        8    19  26    4.5282   630.5    3.386      64.575
2015    6        8    19  32    4.5233   630.7    3.381      64.557
2015    6        8    19  38    4.5183   630.8    3.376      64.540
2015    6        8    19  45    4.5134   631.0    3.371      64.523
2015    6        8    19  51    4.5085   631.1    3.367      64.505
2015    6        8    19  57    4.5036   631.3    3.362      64.488
2015    6        8    20   3    4.4987   631.5    3.357      64.470
2015    6        8    20   9    4.4938   631.6    3.352      64.453
2015    6        8    20  15    4.4889   631.8    3.348      64.435
2015    6        8    20  21    4.4840   631.9    3.343      64.417
2015    6        8    20  27    4.4791   632.1    3.338      64.399
2015    6        8    20  33    4.4742   632.2    3.334      64.381
2015    6        8    20  39    4.4694   632.4    3.329      64.363
2015    6        8    20  45    4.4645   632.5    3.325      64.345
2015    6        8    20  51    4.4596   632.7    3.320      64.326
2015    6        8    20  57    4.4548   632.8    3.315      64.308
2015    6        8    21   4    4.4499   632.9    3.311      64.290
2015    6        8    21  10    4.4451   633.1    3.306      64.271
2015    6        8    21  16    4.4402   633.2    3.302      64.252
2015    6        8    21  22    4.4354   633.4    3.297      64.233
2015    6        8    21  28    4.4306   633.5    3.293      64.214
2015    6        8    21  34    4.4257   633.7    3.288      64.195
2015    6        8    21  40    4.4209   633.8    3.284      64.175
2015    6        8    21  46    4.4161   633.9    3.280      64.156
2015    6        8    21  52    4.4112   634.1    3.275      64.136
2015    6        8    21  58    4.4064   634.2    3.271      64.116
2015    6        8    22   4    4.4016   634.4    3.266      64.096
2015    6        8    22  10    4.3968   634.5    3.262      64.076
2015    6        8    22  16    4.3919   634.6    3.258      64.055
2015    6        8    22  22    4.3871   634.8    3.254      64.035
2015    6        8    22  29    4.3823   634.9    3.249      64.014
2015    6        8    22  35    4.3775   635.0    3.245      63.993
2015    6        8    22  41    4.3727   635.2    3.241      63.972
2015    6        8    22  47    4.3679   635.3    3.237      63.950
2015    6        8    22  53    4.3632   635.4    3.232      63.928
2015    6        8    22  59    4.3584   635.6    3.228      63.907
2015    6        8    23   5    4.3536   635.7    3.224      63.885
2015    6        8    23  11    4.3489   635.8    3.220      63.862
2015    6        8    23  17    4.3441   635.9    3.216      63.840
2015    6        8    23  23    4.3394   636.1    3.212      63.818
2015    6        8    23  29    4.3346   636.2    3.208      63.795
2015    6        8    23  35    4.3299   636.3    3.204      63.772
2015    6        8    23  41    4.3252   636.4    3.199      63.749
2015    6        8    23  47    4.3205   636.6    3.195      63.726
2015    6        8    23  54    4.3158   636.7    3.191      63.703
2015    6        9     0   0    4.3111   636.8    3.187      63.680
2015    6        9     0   6    4.3067   636.9    3.183      63.658
2015    6        9     0  12    4.3023   637.0    3.180      63.637
2015    6        9     0  18    4.2979   637.2    3.176      63.615
2015    6        9     0  24    4.2935   637.3    3.172      63.594
2015    6        9     0  30    4.2891   637.4    3.168      63.572
2015    6        9     0  36    4.2847   637.5    3.164      63.550
2015    6        9     0  42    4.2804   637.6    3.160      63.528
2015    6        9     0  48    4.2760   637.8    3.157      63.506
2015    6        9     0  54    4.2717   637.9    3.153      63.484
2015    6        9     1   0    4.2674   638.0    3.149      63.462
2015    6        9     1   6    4.2630   638.1    3.145      63.440
2015    6        9     1  13    4.2588   638.2    3.141      63.418
2015    6        9     1  19    4.2545   638.3    3.138      63.395
2015    6        9     1  25    4.2502   638.4    3.134      63.373
2015    6        9     1  31    4.2459   638.6    3.130      63.351
2015    6        9     1  37    4.2417   638.7    3.126      63.328
2015    6        9     1  43    4.2374   638.8    3.123      63.306
2015    6        9     1  49    4.2332   638.9    3.119      63.283
2015    6        9     1  55    4.2290   639.0    3.115      63.260
2015    6        9     2   1    4.2248   639.1    3.111      63.238
2015    6        9     2   7    4.2206   639.2    3.108      63.215
2015    6        9     2  13    4.2164   639.3    3.104      63.192
2015    6        9     2  19    4.2122   639.4    3.100      63.169
2015    6        9     2  25    4.2081   639.5    3.097      63.146
2015    6        9     2  31    4.2039   639.6    3.093      63.123
2015    6        9     2  38    4.1998   639.7    3.089      63.100
2015    6        9     2  44    4.1956   639.8    3.086      63.078
2015    6        9     2  50    4.1915   639.9    3.082      63.054
2015    6        9     2  56    4.1874   640.0    3.078      63.031
2015    6        9     3   2    4.1833   640.1    3.075      63.008
2015    6        9     3   8    4.1791   640.2    3.071      62.985
2015    6        9     3  14    4.1750   640.3    3.068      62.962
2015    6        9     3  20    4.1709   640.4    3.064      62.939
2015    6        9     3  26    4.1668   640.5    3.061      62.915
2015    6        9     3  32    4.1627   640.6    3.057      62.892
2015    6        9     3  38    4.1587   640.7    3.054      62.869
2015    6        9     3  44    4.1546   640.7    3.050      62.845
2015    6        9     3  50    4.1505   640.8    3.047      62.822
2015    6        9     3  56    4.1464   640.9    3.043      62.798
2015    6        9     4   3    4.1424   641.0    3.040      62.774
2015    6        9     4   9    4.1383   641.1    3.036      62.750
2015    6        9     4  15    4.1342   641.2    3.033      62.726
2015    6        9     4  21    4.1302   641.3    3.029      62.702
2015    6        9     4  27    4.1261   641.3    3.026      62.678
2015    6        9     4  33    4.1220   641.4    3.023      62.653
2015    6        9     4  39    4.1180   641.5    3.019      62.629
2015    6        9     4  45    4.1139   641.6    3.016      62.604
2015    6        9     4  51    4.1099   641.6    3.012      62.579
2015    6        9     4  57    4.1058   641.7    3.009      62.554
2015    6        9     5   3    4.1018   641.8    3.006      62.528
2015    6        9     5   9    4.0977   641.9    3.003      62.502
2015    6        9     5  15    4.0937   641.9    2.999      62.476
2015    6        9     5  22    4.0896   642.0    2.996      62.450
2015    6        9     5  28    4.0856   642.1    2.993      62.423
2015    6        9     5  34    4.0816   642.1    2.990      62.397
2015    6        9     5  40    4.0775   642.2    2.986      62.369
2015    6        9     5  46    4.0735   642.2    2.983      62.342
2015    6        9     5  52    4.0695   642.3    2.980      62.314
2015    6        9     5  58    4.0655   642.4    2.977      62.286
2015    6        9     6   4    4.0615   642.4    2.974      62.257
2015    6        9     6  10    4.0575   642.5    2.971      62.228
2015    6        9     6  16    4.0536   642.5    2.968      62.199
2015    6        9     6  22    4.0496   642.6    2.964      62.170
2015    6        9     6  28    4.0457   642.6    2.961      62.140
2015    6        9     6  34    4.0417   642.7    2.958      62.110
2015    6        9     6  40    4.0378   642.8    2.955      62.079
2015    6        9     6  47    4.0339   642.8    2.952      62.048
2015    6        9     6  53    4.0300   642.9    2.949      62.017
2015    6        9     6  59    4.0261   642.9    2.946      61.986
2015    6        9     7   5    4.0222   642.9    2.943      61.954
2015    6        9     7  11    4.0184   643.0    2.940      61.922
2015    6        9     7  17    4.0145   643.0    2.937      61.890
2015    6        9     7  23    4.0107   643.1    2.934      61.858
2015    6        9     7  29    4.0069   643.1    2.931      61.825
2015    6        9     7  35    4.0031   643.2    2.928      61.793
2015    6        9     7  41    3.9993   643.2    2.925      61.760
2015    6        9     7  47    3.9956   643.2    2.922      61.727
2015    6        9     7  53    3.9918   643.3    2.919      61.693
2015    6        9     7  59    3.9881   643.3    2.916      61.660
2015    6        9     8   6    3.9844   643.4    2.913      61.627
2015    6        9     8  12    3.9806   643.4    2.910      61.593
2015    6        9     8  18    3.9769   643.4    2.907      61.559
2015    6        9     8  24    3.9733   643.5    2.904      61.526
2015    6        9     8  30    3.9696   643.5    2.901      61.492
2015    6        9     8  36    3.9659   643.5    2.898      61.459
2015    6        9     8  42    3.9623   643.6    2.895      61.426
2015    6        9     8  48    3.9586   643.6    2.892      61.392
2015    6        9     8  54    3.9550   643.6    2.890      61.359
2015    6        9     9   0    3.9514   643.6    2.887      61.326
2015    6        9     9   6    3.9478   643.7    2.884      61.293
2015    6        9     9  12    3.9442   643.7    2.881      61.261
2015    6        9     9  18    3.9406   643.7    2.878      61.228
2015    6        9     9  24    3.9370   643.8    2.876      61.196
2015    6        9     9  31    3.9335   643.8    2.873      61.164
2015    6        9     9  37    3.9299   643.8    2.870      61.133
2015    6        9     9  43    3.9264   643.8    2.868      61.101
2015    6        9     9  49    3.9228   643.8    2.865      61.070
2015    6        9     9  55    3.9193   643.9    2.862      61.039
2015    6        9    10   1    3.9158   643.9    2.860      61.009
2015    6        9    10   7    3.9123   643.9    2.857      60.979
2015    6        9    10  13    3.9088   643.9    2.855      60.949
2015    6        9    10  19    3.9053   643.9    2.852      60.919
2015    6        9    10  25    3.9018   644.0    2.850      60.890
2015    6        9    10  31    3.8983   644.0    2.847      60.861
2015    6        9    10  37    3.8948   644.0    2.845      60.832
2015    6        9    10  43    3.8914   644.0    2.842      60.803
2015    6        9    10  49    3.8879   644.0    2.840      60.775
2015    6        9    10  56    3.8844   644.0    2.838      60.746
2015    6        9    11   2    3.8810   644.0    2.835      60.718
2015    6        9    11   8    3.8775   644.1    2.833      60.690
2015    6        9    11  14    3.8741   644.1    2.831      60.663
2015    6        9    11  20    3.8706   644.1    2.829      60.635
2015    6        9    11  26    3.8672   644.1    2.826      60.607
2015    6        9    11  32    3.8637   644.1    2.824      60.580
2015    6        9    11  38    3.8603   644.1    2.822      60.552
2015    6        9    11  44    3.8569   644.1    2.820      60.524
2015    6        9    11  50    3.8535   644.1    2.818      60.496
2015    6        9    11  56    3.8500   644.1    2.816      60.469
2015    6        9    12   2    3.8466   644.1    2.814      60.441
2015    6        9    12   8    3.8432   644.1    2.812      60.413
2015    6        9    12  15    3.8399   644.1    2.810      60.384
2015    6        9    12  21    3.8365   644.1    2.808      60.356
2015    6        9    12  27    3.8331   644.1    2.806      60.327
2015    6        9    12  33    3.8297   644.1    2.804      60.298
2015    6        9    12  39    3.8264   644.1    2.802      60.269
2015    6        9    12  45    3.8230   644.0    2.800      60.240
2015    6        9    12  51    3.8197   644.0    2.798      60.210
2015    6        9    12  57    3.8164   644.0    2.796      60.180
2015    6        9    13   3    3.8131   644.0    2.794      60.150
2015    6        9    13   9    3.8098   644.0    2.792      60.119
2015    6        9    13  15    3.8065   644.0    2.790      60.087
2015    6        9    13  21    3.8032   644.0    2.788      60.056
2015    6        9    13  27    3.7999   643.9    2.787      60.023
2015    6        9    13  33    3.7967   643.9    2.785      59.991
2015    6        9    13  40    3.7935   643.9    2.783      59.958
2015    6        9    13  46    3.7902   643.9    2.781      59.924
2015    6        9    13  52    3.7870   643.9    2.779      59.890
2015    6        9    13  58    3.7838   643.8    2.777      59.855
2015    6        9    14   4    3.7807   643.8    2.775      59.819
2015    6        9    14  10    3.7775   643.8    2.773      59.782
2015    6        9    14  16    3.7743   643.8    2.771      59.745
2015    6        9    14  22    3.7712   643.7    2.769      59.707
2015    6        9    14  28    3.7680   643.7    2.767      59.669
2015    6        9    14  34    3.7649   643.7    2.765      59.629
2015    6        9    14  40    3.7618   643.7    2.763      59.589
2015    6        9    14  46    3.7586   643.6    2.761      59.549
2015    6        9    14  52    3.7555   643.6    2.759      59.508
2015    6        9    14  58    3.7524   643.6    2.757      59.467
2015    6        9    15   5    3.7494   643.5    2.755      59.425
2015    6        9    15  11    3.7463   643.5    2.753      59.383
2015    6        9    15  17    3.7432   643.4    2.751      59.340
2015    6        9    15  23    3.7402   643.4    2.749      59.297
2015    6        9    15  29    3.7371   643.4    2.746      59.255
2015    6        9    15  35    3.7341   643.3    2.744      59.211
2015    6        9    15  41    3.7311   643.3    2.742      59.168
2015    6        9    15  47    3.7281   643.2    2.740      59.125
2015    6        9    15  53    3.7251   643.2    2.738      59.081
2015    6        9    15  59    3.7221   643.2    2.736      59.038
2015    6        9    16   5    3.7191   643.1    2.733      58.995
2015    6        9    16  11    3.7162   643.1    2.731      58.951
2015    6        9    16  17    3.7132   643.0    2.729      58.908
2015    6        9    16  24    3.7103   643.0    2.727      58.865
2015    6        9    16  30    3.7074   642.9    2.725      58.822
2015    6        9    16  36    3.7045   642.9    2.723      58.780
2015    6        9    16  42    3.7015   642.8    2.721      58.738
2015    6        9    16  48    3.6987   642.8    2.719      58.696
2015    6        9    16  54    3.6958   642.7    2.717      58.655
2015    6        9    17   0    3.6929   642.7    2.715      58.614
2015    6        9    17   6    3.6900   642.6    2.713      58.574
2015    6        9    17  12    3.6872   642.6    2.711      58.534
2015    6        9    17  18    3.6843   642.5    2.709      58.494
2015    6        9    17  24    3.6815   642.5    2.707      58.456
2015    6        9    17  30    3.6787   642.4    2.705      58.417
2015    6        9    17  36    3.6759   642.4    2.703      58.380
2015    6        9    17  42    3.6731   642.3    2.702      58.343
2015    6        9    17  49    3.6703   642.2    2.700      58.306
2015    6        9    17  55    3.6675   642.2    2.698      58.270
2015    6        9    18   1    3.6647   642.1    2.697      58.235
2015    6        9    18   7    3.6620   642.1    2.695      58.200
2015    6        9    18  13    3.6592   642.0    2.694      58.166
2015    6        9    18  19    3.6564   641.9    2.692      58.132
2015    6        9    18  25    3.6537   641.9    2.691      58.099
2015    6        9    18  31    3.6510   641.8    2.689      58.067
2015    6        9    18  37    3.6482   641.7    2.688      58.035
2015    6        9    18  43    3.6455   641.7    2.687      58.003
2015    6        9    18  49    3.6428   641.6    2.685      57.972
2015    6        9    18  55    3.6401   641.5    2.684      57.941
2015    6        9    19   1    3.6374   641.4    2.683      57.911
2015    6        9    19   7    3.6347   641.4    2.682      57.881
2015    6        9    19  14    3.6320   641.3    2.681      57.851
2015    6        9    19  20    3.6294   641.2    2.680      57.822
2015    6        9    19  26    3.6267   641.1    2.679      57.793
2015    6        9    19  32    3.6241   641.1    2.678      57.764
2015    6        9    19  38    3.6214   641.0    2.677      57.735
2015    6        9    19  44    3.6188   640.9    2.677      57.707
2015    6        9    19  50    3.6162   640.8    2.676      57.678
2015    6        9    19  56    3.6136   640.7    2.675      57.650
2015    6        9    20   2    3.6111   640.7    2.674      57.621
2015    6        9    20   8    3.6085   640.6    2.674      57.592
2015    6        9    20  14    3.6059   640.5    2.673      57.563
2015    6        9    20  20    3.6033   640.4    2.672      57.533
2015    6        9    20  26    3.6008   640.3    2.672      57.502
2015    6        9    20  33    3.5982   640.2    2.671      57.471
2015    6        9    20  39    3.5956   640.2    2.670      57.440
2015    6        9    20  45    3.5931   640.1    2.670      57.407
2015    6        9    20  51    3.5905   640.0    2.669      57.374
2015    6        9    20  57    3.5880   639.9    2.668      57.340
2015    6        9    21   3    3.5854   639.8    2.668      57.305
2015    6        9    21   9    3.5829   639.8    2.667      57.269
2015    6        9    21  15    3.5803   639.7    2.666      57.233
2015    6        9    21  21    3.5777   639.6    2.665      57.196
2015    6        9    21  27    3.5752   639.5    2.665      57.158
2015    6        9    21  33    3.5726   639.4    2.664      57.120
2015    6        9    21  39    3.5701   639.3    2.663      57.081
2015    6        9    21  45    3.5676   639.2    2.662      57.041
2015    6        9    21  51    3.5650   639.2    2.661      57.001
2015    6        9    21  58    3.5625   639.1    2.660      56.959
2015    6        9    22   4    3.5600   639.0    2.659      56.918
2015    6        9    22  10    3.5574   638.9    2.658      56.876
2015    6        9    22  16    3.5549   638.8    2.658      56.834
2015    6        9    22  22    3.5524   638.7    2.657      56.791
2015    6        9    22  28    3.5499   638.6    2.656      56.749
2015    6        9    22  34    3.5474   638.5    2.655      56.706
2015    6        9    22  40    3.5449   638.4    2.653      56.663
2015    6        9    22  46    3.5425   638.3    2.652      56.620
2015    6        9    22  52    3.5400   638.2    2.651      56.576
2015    6        9    22  58    3.5375   638.1    2.650      56.533
2015    6        9    23   4    3.5351   638.0    2.649      56.490
2015    6        9    23  10    3.5327   637.9    2.648      56.447
2015    6        9    23  17    3.5302   637.8    2.647      56.404
2015    6        9    23  23    3.5278   637.7    2.646      56.361
2015    6        9    23  29    3.5254   637.6    2.645      56.319
2015    6        9    23  35    3.5231   637.5    2.644      56.276
2015    6        9    23  41    3.5207   637.4    2.643      56.234
2015    6        9    23  47    3.5183   637.3    2.642      56.192
2015    6        9    23  53    3.5160   637.2    2.641      56.150
2015    6        9    23  59    3.5137   637.1    2.639      56.108
2015    6       10     0   5    3.5113   637.0    2.638      56.066
