year    month   day   hour  minute  B_enl V_enl   n_enl       T_enl
[year] [month] [day] [hour][minute] [nT]  [km/s]  [cm-3]      [kK]
2015    6       22     0   5    4.1851   364.6    9.298      30.749
2015    6       22     0  11    4.1931   364.6    9.320      30.790
2015    6       22     0  18    4.2012   364.6    9.342      30.832
2015    6       22     0  24    4.2093   364.6    9.364      30.874
2015    6       22     0  30    4.2175   364.6    9.386      30.917
2015    6       22     0  36    4.2257   364.6    9.408      30.961
2015    6       22     0  43    4.2340   364.6    9.429      31.005
2015    6       22     0  49    4.2422   364.6    9.451      31.050
2015    6       22     0  55    4.2505   364.6    9.473      31.095
2015    6       22     1   2    4.2588   364.6    9.494      31.140
2015    6       22     1   8    4.2671   364.7    9.515      31.187
2015    6       22     1  14    4.2753   364.7    9.536      31.233
2015    6       22     1  20    4.2835   364.7    9.557      31.280
2015    6       22     1  27    4.2917   364.7    9.578      31.327
2015    6       22     1  33    4.2999   364.7    9.598      31.374
2015    6       22     1  39    4.3081   364.8    9.619      31.421
2015    6       22     1  46    4.3162   364.8    9.639      31.467
2015    6       22     1  52    4.3243   364.8    9.659      31.513
2015    6       22     1  58    4.3324   364.9    9.679      31.559
2015    6       22     2   4    4.3405   364.9    9.698      31.605
2015    6       22     2  11    4.3485   364.9    9.718      31.650
2015    6       22     2  17    4.3565   364.9    9.738      31.695
2015    6       22     2  23    4.3646   365.0    9.757      31.740
2015    6       22     2  29    4.3726   365.0    9.777      31.785
2015    6       22     2  36    4.3806   365.0    9.797      31.829
2015    6       22     2  42    4.3886   365.1    9.816      31.874
2015    6       22     2  48    4.3967   365.1    9.836      31.919
2015    6       22     2  55    4.4046   365.2    9.855      31.964
2015    6       22     3   1    4.4126   365.2    9.874      32.010
2015    6       22     3   7    4.4206   365.2    9.894      32.056
2015    6       22     3  13    4.4285   365.3    9.913      32.102
2015    6       22     3  20    4.4365   365.3    9.932      32.149
2015    6       22     3  26    4.4444   365.4    9.951      32.196
2015    6       22     3  32    4.4523   365.4    9.970      32.243
2015    6       22     3  39    4.4602   365.4    9.988      32.292
2015    6       22     3  45    4.4680   365.5   10.007      32.340
2015    6       22     3  51    4.4759   365.5   10.025      32.389
2015    6       22     3  57    4.4836   365.6   10.043      32.439
2015    6       22     4   4    4.4914   365.6   10.061      32.489
2015    6       22     4  10    4.4992   365.7   10.078      32.539
2015    6       22     4  16    4.5069   365.7   10.096      32.590
2015    6       22     4  23    4.5145   365.8   10.113      32.642
2015    6       22     4  29    4.5222   365.8   10.130      32.693
2015    6       22     4  35    4.5298   365.9   10.147      32.744
2015    6       22     4  41    4.5374   365.9   10.163      32.795
2015    6       22     4  48    4.5450   366.0   10.180      32.847
2015    6       22     4  54    4.5526   366.0   10.197      32.898
2015    6       22     5   0    4.5602   366.1   10.213      32.949
2015    6       22     5   7    4.5677   366.1   10.229      33.001
2015    6       22     5  13    4.5753   366.2   10.246      33.052
2015    6       22     5  19    4.5829   366.2   10.262      33.103
2015    6       22     5  25    4.5904   366.3   10.279      33.154
2015    6       22     5  32    4.5980   366.3   10.295      33.206
2015    6       22     5  38    4.6056   366.4   10.312      33.257
2015    6       22     5  44    4.6132   366.5   10.328      33.307
2015    6       22     5  51    4.6208   366.5   10.345      33.358
2015    6       22     5  57    4.6284   366.6   10.362      33.410
2015    6       22     6   3    4.6360   366.6   10.379      33.461
2015    6       22     6  10    4.6437   366.7   10.396      33.512
2015    6       22     6  16    4.6514   366.7   10.413      33.564
2015    6       22     6  22    4.6592   366.8   10.431      33.615
2015    6       22     6  28    4.6671   366.8   10.449      33.668
2015    6       22     6  35    4.6749   366.9   10.467      33.721
2015    6       22     6  41    4.6829   366.9   10.485      33.775
2015    6       22     6  47    4.6908   367.0   10.504      33.830
2015    6       22     6  53    4.6989   367.1   10.523      33.885
2015    6       22     7   0    4.7070   367.1   10.542      33.941
2015    6       22     7   6    4.7151   367.2   10.561      33.998
2015    6       22     7  12    4.7233   367.3   10.580      34.057
2015    6       22     7  19    4.7315   367.4   10.599      34.116
2015    6       22     7  25    4.7397   367.4   10.618      34.177
2015    6       22     7  31    4.7480   367.5   10.637      34.239
2015    6       22     7  37    4.7562   367.6   10.656      34.301
2015    6       22     7  44    4.7644   367.7   10.675      34.364
2015    6       22     7  50    4.7726   367.8   10.693      34.428
2015    6       22     7  56    4.7808   367.9   10.710      34.493
2015    6       22     8   2    4.7888   368.0   10.728      34.558
2015    6       22     8   9    4.7968   368.1   10.744      34.622
2015    6       22     8  15    4.8048   368.2   10.760      34.687
2015    6       22     8  21    4.8126   368.3   10.776      34.752
2015    6       22     8  28    4.8204   368.5   10.791      34.816
2015    6       22     8  34    4.8280   368.6   10.805      34.880
2015    6       22     8  40    4.8356   368.7   10.819      34.943
2015    6       22     8  46    4.8430   368.8   10.832      35.005
2015    6       22     8  53    4.8504   368.9   10.844      35.067
2015    6       22     8  59    4.8577   369.0   10.856      35.128
2015    6       22     9   5    4.8649   369.2   10.868      35.188
2015    6       22     9  11    4.8720   369.3   10.879      35.248
2015    6       22     9  18    4.8790   369.4   10.889      35.306
2015    6       22     9  24    4.8859   369.5   10.899      35.365
2015    6       22     9  30    4.8928   369.6   10.908      35.422
2015    6       22     9  37    4.8996   369.8   10.917      35.479
2015    6       22     9  43    4.9063   369.9   10.926      35.536
2015    6       22     9  49    4.9130   370.0   10.934      35.591
2015    6       22     9  55    4.9197   370.1   10.942      35.647
2015    6       22    10   2    4.9262   370.2   10.949      35.702
2015    6       22    10   8    4.9328   370.4   10.956      35.756
2015    6       22    10  14    4.9392   370.5   10.963      35.810
2015    6       22    10  21    4.9457   370.6   10.970      35.863
2015    6       22    10  27    4.9521   370.7   10.976      35.916
2015    6       22    10  33    4.9585   370.8   10.982      35.969
2015    6       22    10  39    4.9648   371.0   10.987      36.021
2015    6       22    10  46    4.9711   371.1   10.993      36.072
2015    6       22    10  52    4.9774   371.2   10.998      36.124
2015    6       22    10  58    4.9836   371.3   11.003      36.175
2015    6       22    11   5    4.9898   371.4   11.008      36.225
2015    6       22    11  11    4.9960   371.6   11.013      36.275
2015    6       22    11  17    5.0022   371.7   11.018      36.325
2015    6       22    11  23    5.0084   371.8   11.022      36.374
2015    6       22    11  30    5.0145   371.9   11.027      36.423
2015    6       22    11  36    5.0206   372.0   11.031      36.472
2015    6       22    11  42    5.0267   372.1   11.035      36.520
2015    6       22    11  49    5.0327   372.3   11.039      36.568
2015    6       22    11  55    5.0388   372.4   11.043      36.616
2015    6       22    12   1    5.0448   372.5   11.047      36.664
2015    6       22    12   7    5.0508   372.6   11.051      36.711
2015    6       22    12  14    5.0567   372.7   11.055      36.758
2015    6       22    12  20    5.0627   372.9   11.059      36.806
2015    6       22    12  26    5.0686   373.0   11.063      36.853
2015    6       22    12  33    5.0745   373.1   11.067      36.900
2015    6       22    12  39    5.0804   373.2   11.071      36.947
2015    6       22    12  45    5.0862   373.3   11.075      36.994
2015    6       22    12  52    5.0921   373.4   11.079      37.041
2015    6       22    12  58    5.0979   373.6   11.083      37.089
2015    6       22    13   4    5.1037   373.7   11.087      37.136
2015    6       22    13  10    5.1095   373.8   11.092      37.183
2015    6       22    13  17    5.1152   373.9   11.096      37.231
2015    6       22    13  23    5.1210   374.0   11.101      37.279
2015    6       22    13  29    5.1268   374.1   11.106      37.327
2015    6       22    13  36    5.1325   374.3   11.111      37.374
2015    6       22    13  42    5.1383   374.4   11.117      37.422
2015    6       22    13  48    5.1441   374.5   11.122      37.471
2015    6       22    13  54    5.1499   374.6   11.128      37.520
2015    6       22    14   1    5.1557   374.7   11.134      37.570
2015    6       22    14   7    5.1615   374.9   11.141      37.621
2015    6       22    14  13    5.1672   375.0   11.147      37.672
2015    6       22    14  19    5.1730   375.1   11.154      37.725
2015    6       22    14  26    5.1787   375.2   11.160      37.777
2015    6       22    14  32    5.1845   375.4   11.167      37.831
2015    6       22    14  38    5.1902   375.5   11.174      37.884
2015    6       22    14  45    5.1958   375.6   11.180      37.938
2015    6       22    14  51    5.2015   375.8   11.187      37.993
2015    6       22    14  57    5.2070   375.9   11.194      38.047
2015    6       22    15   3    5.2126   376.1   11.200      38.102
2015    6       22    15  10    5.2180   376.2   11.206      38.157
2015    6       22    15  16    5.2234   376.4   11.212      38.212
2015    6       22    15  22    5.2287   376.5   11.218      38.267
2015    6       22    15  28    5.2340   376.6   11.224      38.322
2015    6       22    15  35    5.2391   376.8   11.229      38.376
2015    6       22    15  41    5.2442   376.9   11.234      38.429
2015    6       22    15  47    5.2492   377.1   11.239      38.482
2015    6       22    15  54    5.2541   377.2   11.244      38.535
2015    6       22    16   0    5.2589   377.4   11.249      38.587
2015    6       22    16   6    5.2637   377.5   11.253      38.639
2015    6       22    16  12    5.2685   377.7   11.257      38.691
2015    6       22    16  19    5.2731   377.8   11.262      38.742
2015    6       22    16  25    5.2778   378.0   11.266      38.794
2015    6       22    16  31    5.2824   378.1   11.270      38.845
2015    6       22    16  37    5.2869   378.3   11.274      38.896
2015    6       22    16  44    5.2915   378.4   11.278      38.948
2015    6       22    16  50    5.2960   378.6   11.282      38.999
2015    6       22    16  56    5.3006   378.7   11.287      39.051
2015    6       22    17   3    5.3051   378.9   11.291      39.103
2015    6       22    17   9    5.3098   379.0   11.296      39.157
2015    6       22    17  15    5.3144   379.2   11.301      39.210
2015    6       22    17  21    5.3191   379.3   11.307      39.264
2015    6       22    17  28    5.3239   379.5   11.312      39.319
2015    6       22    17  34    5.3287   379.6   11.319      39.374
2015    6       22    17  40    5.3336   379.8   11.325      39.432
2015    6       22    17  47    5.3387   380.0   11.332      39.493
2015    6       22    17  53    5.3439   380.1   11.339      39.556
2015    6       22    17  59    5.3491   380.3   11.346      39.622
2015    6       22    18   5    5.3545   380.5   11.353      39.691
2015    6       22    18  12    5.3600   380.7   11.360      39.761
2015    6       22    18  18    5.3655   380.9   11.368      39.834
2015    6       22    18  24    5.3711   381.1   11.375      39.909
2015    6       22    18  31    5.3767   381.2   11.382      39.985
2015    6       22    18  37    5.3823   381.4   11.388      40.063
2015    6       22    18  43    5.3880   381.6   11.394      40.141
2015    6       22    18  49    5.3936   381.8   11.400      40.220
2015    6       22    18  56    5.3991   382.1   11.405      40.300
2015    6       22    19   2    5.4046   382.3   11.409      40.380
2015    6       22    19   8    5.4100   382.5   11.413      40.461
2015    6       22    19  15    5.4153   382.7   11.416      40.542
2015    6       22    19  21    5.4205   382.9   11.418      40.620
2015    6       22    19  27    5.4255   383.1   11.420      40.697
2015    6       22    19  33    5.4304   383.3   11.421      40.772
2015    6       22    19  40    5.4351   383.6   11.421      40.846
2015    6       22    19  46    5.4397   383.8   11.420      40.917
2015    6       22    19  52    5.4441   384.0   11.419      40.987
2015    6       22    19  59    5.4484   384.2   11.417      41.056
2015    6       22    20   5    5.4525   384.4   11.414      41.122
2015    6       22    20  11    5.4566   384.6   11.411      41.187
2015    6       22    20  18    5.4604   384.9   11.407      41.249
2015    6       22    20  24    5.4642   385.1   11.402      41.311
2015    6       22    20  30    5.4677   385.3   11.397      41.370
2015    6       22    20  36    5.4712   385.5   11.392      41.428
2015    6       22    20  43    5.4745   385.7   11.385      41.484
2015    6       22    20  49    5.4777   386.0   11.379      41.538
2015    6       22    20  55    5.4807   386.2   11.371      41.591
2015    6       22    21   2    5.4837   386.4   11.364      41.642
2015    6       22    21   8    5.4865   386.6   11.356      41.692
2015    6       22    21  14    5.4892   386.8   11.347      41.740
2015    6       22    21  20    5.4917   387.0   11.338      41.787
2015    6       22    21  27    5.4942   387.3   11.329      41.832
2015    6       22    21  32    5.4963   387.5   11.321      41.873
2015    6       22    21  38    5.4984   387.6   11.312      41.914
2015    6       22    21  44    5.5004   387.8   11.303      41.953
2015    6       22    21  49    5.5022   388.0   11.294      41.991
2015    6       22    21  55    5.5041   388.2   11.285      42.028
2015    6       22    22   0    5.5058   388.4   11.276      42.064
2015    6       22    22   6    5.5075   388.6   11.267      42.099
2015    6       22    22  11    5.5091   388.8   11.258      42.134
2015    6       22    22  17    5.5106   388.9   11.249      42.168
2015    6       22    22  22    5.5121   389.1   11.241      42.202
2015    6       22    22  27    5.5136   389.3   11.232      42.235
2015    6       22    22  33    5.5151   389.5   11.223      42.268
2015    6       22    22  38    5.5165   389.6   11.214      42.300
2015    6       22    22  43    5.5179   389.8   11.205      42.333
2015    6       22    22  49    5.5192   390.0   11.197      42.365
2015    6       22    22  54    5.5206   390.1   11.188      42.397
2015    6       22    22  59    5.5219   390.3   11.180      42.429
2015    6       22    23   5    5.5231   390.5   11.171      42.461
2015    6       22    23  10    5.5244   390.6   11.163      42.493
2015    6       22    23  15    5.5256   390.8   11.155      42.524
2015    6       22    23  20    5.5268   391.0   11.147      42.556
2015    6       22    23  26    5.5281   391.1   11.139      42.588
2015    6       22    23  31    5.5293   391.3   11.131      42.620
2015    6       22    23  36    5.5304   391.5   11.123      42.652
2015    6       22    23  41    5.5316   391.7   11.115      42.684
2015    6       22    23  47    5.5328   391.8   11.108      42.717
2015    6       22    23  52    5.5339   392.0   11.101      42.749
2015    6       22    23  57    5.5351   392.2   11.093      42.782
2015    6       23     0   2    5.5363   392.3   11.087      42.815
2015    6       23     0   8    5.5374   392.5   11.080      42.848
2015    6       23     0  13    5.5386   392.6   11.074      42.882
2015    6       23     0  18    5.5399   392.8   11.068      42.916
2015    6       23     0  23    5.5411   393.0   11.062      42.951
2015    6       23     0  29    5.5423   393.1   11.056      42.986
2015    6       23     0  34    5.5437   393.3   11.051      43.021
2015    6       23     0  39    5.5450   393.5   11.047      43.057
2015    6       23     0  44    5.5464   393.6   11.042      43.094
2015    6       23     0  50    5.5478   393.8   11.038      43.131
2015    6       23     0  55    5.5492   394.0   11.035      43.170
2015    6       23     1   0    5.5508   394.1   11.031      43.211
2015    6       23     1   5    5.5525   394.3   11.028      43.254
2015    6       23     1  11    5.5541   394.5   11.025      43.299
2015    6       23     1  16    5.5559   394.7   11.022      43.346
2015    6       23     1  21    5.5577   394.9   11.020      43.395
2015    6       23     1  26    5.5595   395.1   11.017      43.446
2015    6       23     1  32    5.5614   395.2   11.015      43.498
2015    6       23     1  37    5.5633   395.4   11.012      43.552
2015    6       23     1  42    5.5652   395.6   11.009      43.607
2015    6       23     1  48    5.5671   395.8   11.007      43.664
2015    6       23     1  53    5.5690   396.0   11.004      43.721
2015    6       23     1  58    5.5709   396.2   11.001      43.779
2015    6       23     2   3    5.5728   396.4   10.997      43.838
2015    6       23     2   9    5.5746   396.7   10.994      43.898
2015    6       23     2  14    5.5763   396.9   10.989      43.959
2015    6       23     2  19    5.5781   397.1   10.985      44.021
2015    6       23     2  24    5.5798   397.3   10.980      44.083
2015    6       23     2  30    5.5814   397.5   10.974      44.145
2015    6       23     2  35    5.5828   397.7   10.968      44.206
2015    6       23     2  40    5.5843   398.0   10.962      44.266
2015    6       23     2  46    5.5856   398.2   10.955      44.325
2015    6       23     2  51    5.5868   398.4   10.948      44.383
2015    6       23     2  56    5.5879   398.6   10.940      44.440
2015    6       23     3   1    5.5890   398.9   10.932      44.496
2015    6       23     3   7    5.5899   399.1   10.923      44.551
2015    6       23     3  12    5.5907   399.3   10.914      44.605
2015    6       23     3  17    5.5915   399.5   10.905      44.658
2015    6       23     3  23    5.5922   399.8   10.894      44.711
2015    6       23     3  28    5.5927   400.0   10.884      44.762
2015    6       23     3  34    5.5933   400.2   10.872      44.812
2015    6       23     3  39    5.5937   400.5   10.861      44.860
2015    6       23     3  45    5.5940   400.7   10.849      44.908
2015    6       23     3  50    5.5943   401.0   10.836      44.954
2015    6       23     3  56    5.5945   401.2   10.823      44.999
2015    6       23     4   1    5.5945   401.4   10.809      45.043
2015    6       23     4   7    5.5945   401.7   10.796      45.085
2015    6       23     4  12    5.5944   401.9   10.781      45.126
2015    6       23     4  18    5.5942   402.2   10.767      45.166
2015    6       23     4  23    5.5939   402.4   10.752      45.204
2015    6       23     4  29    5.5935   402.7   10.736      45.241
2015    6       23     4  34    5.5931   402.9   10.720      45.276
2015    6       23     4  40    5.5925   403.2   10.704      45.310
2015    6       23     4  46    5.5919   403.4   10.688      45.343
2015    6       23     4  51    5.5912   403.7   10.671      45.375
2015    6       23     4  57    5.5904   403.9   10.654      45.405
2015    6       23     5   2    5.5895   404.2   10.637      45.434
2015    6       23     5   8    5.5885   404.4   10.619      45.463
2015    6       23     5  14    5.5875   404.7   10.602      45.490
2015    6       23     5  19    5.5864   404.9   10.584      45.516
2015    6       23     5  25    5.5852   405.2   10.566      45.542
2015    6       23     5  30    5.5840   405.4   10.548      45.567
2015    6       23     5  36    5.5827   405.7   10.529      45.592
2015    6       23     5  42    5.5813   405.9   10.511      45.617
2015    6       23     5  47    5.5799   406.2   10.492      45.642
2015    6       23     5  53    5.5784   406.4   10.472      45.666
2015    6       23     5  59    5.5769   406.7   10.453      45.690
2015    6       23     6   4    5.5753   407.0   10.433      45.714
2015    6       23     6  10    5.5736   407.2   10.413      45.738
2015    6       23     6  16    5.5718   407.5   10.392      45.762
2015    6       23     6  21    5.5700   407.8   10.371      45.785
2015    6       23     6  27    5.5680   408.0   10.350      45.809
2015    6       23     6  33    5.5659   408.3   10.328      45.832
2015    6       23     6  39    5.5637   408.6   10.305      45.854
2015    6       23     6  44    5.5613   408.9   10.281      45.874
2015    6       23     6  50    5.5587   409.1   10.257      45.894
2015    6       23     6  56    5.5560   409.4   10.232      45.913
2015    6       23     7   2    5.5530   409.7   10.206      45.931
2015    6       23     7   7    5.5499   410.0   10.179      45.947
2015    6       23     7  13    5.5465   410.2   10.151      45.959
2015    6       23     7  19    5.5428   410.5   10.123      45.968
2015    6       23     7  25    5.5389   410.8   10.094      45.974
2015    6       23     7  30    5.5348   411.0   10.065      45.977
2015    6       23     7  36    5.5305   411.3   10.035      45.978
2015    6       23     7  42    5.5260   411.5   10.004      45.976
2015    6       23     7  48    5.5214   411.8    9.974      45.971
2015    6       23     7  54    5.5166   412.0    9.943      45.964
2015    6       23     7  59    5.5117   412.3    9.912      45.954
2015    6       23     8   5    5.5067   412.5    9.881      45.944
2015    6       23     8  11    5.5015   412.7    9.849      45.931
2015    6       23     8  17    5.4964   413.0    9.818      45.918
2015    6       23     8  23    5.4911   413.2    9.787      45.903
2015    6       23     8  29    5.4859   413.4    9.757      45.888
2015    6       23     8  34    5.4806   413.6    9.727      45.870
2015    6       23     8  40    5.4753   413.9    9.697      45.852
2015    6       23     8  46    5.4700   414.1    9.667      45.834
2015    6       23     8  52    5.4647   414.3    9.638      45.817
2015    6       23     8  58    5.4595   414.5    9.609      45.801
2015    6       23     9   4    5.4543   414.8    9.581      45.785
2015    6       23     9  10    5.4491   415.0    9.553      45.771
2015    6       23     9  16    5.4439   415.2    9.525      45.756
2015    6       23     9  21    5.4387   415.4    9.497      45.742
2015    6       23     9  27    5.4336   415.6    9.470      45.729
2015    6       23     9  33    5.4284   415.9    9.443      45.716
2015    6       23     9  39    5.4233   416.1    9.416      45.703
2015    6       23     9  45    5.4181   416.3    9.390      45.690
2015    6       23     9  51    5.4130   416.5    9.364      45.678
2015    6       23     9  57    5.4078   416.8    9.338      45.666
2015    6       23    10   3    5.4027   417.0    9.312      45.655
2015    6       23    10   9    5.3975   417.2    9.287      45.643
2015    6       23    10  15    5.3923   417.4    9.262      45.632
2015    6       23    10  21    5.3872   417.6    9.237      45.621
2015    6       23    10  27    5.3820   417.8    9.212      45.610
2015    6       23    10  33    5.3769   418.1    9.188      45.599
2015    6       23    10  39    5.3718   418.3    9.164      45.588
2015    6       23    10  45    5.3666   418.5    9.140      45.577
2015    6       23    10  51    5.3615   418.7    9.116      45.566
2015    6       23    10  57    5.3564   418.9    9.092      45.555
2015    6       23    11   3    5.3514   419.1    9.069      45.545
2015    6       23    11   9    5.3463   419.3    9.046      45.534
2015    6       23    11  15    5.3412   419.5    9.024      45.523
2015    6       23    11  21    5.3362   419.7    9.001      45.512
2015    6       23    11  27    5.3312   420.0    8.979      45.501
2015    6       23    11  33    5.3261   420.2    8.957      45.490
2015    6       23    11  39    5.3211   420.4    8.935      45.478
2015    6       23    11  45    5.3161   420.6    8.914      45.467
2015    6       23    11  51    5.3110   420.8    8.892      45.455
2015    6       23    11  57    5.3060   421.0    8.871      45.444
2015    6       23    12   4    5.3009   421.2    8.850      45.432
2015    6       23    12  10    5.2959   421.4    8.830      45.419
2015    6       23    12  16    5.2908   421.6    8.809      45.407
2015    6       23    12  22    5.2857   421.8    8.789      45.394
2015    6       23    12  28    5.2805   422.0    8.768      45.381
2015    6       23    12  34    5.2754   422.2    8.748      45.368
2015    6       23    12  40    5.2702   422.4    8.728      45.355
2015    6       23    12  47    5.2649   422.6    8.708      45.341
2015    6       23    12  53    5.2597   422.8    8.688      45.328
2015    6       23    12  59    5.2544   423.0    8.668      45.315
2015    6       23    13   5    5.2491   423.2    8.648      45.303
2015    6       23    13  12    5.2436   423.4    8.628      45.290
2015    6       23    13  18    5.2382   423.6    8.608      45.277
2015    6       23    13  24    5.2326   423.9    8.587      45.263
2015    6       23    13  30    5.2270   424.1    8.566      45.249
2015    6       23    13  37    5.2213   424.3    8.545      45.234
2015    6       23    13  43    5.2154   424.6    8.523      45.219
2015    6       23    13  49    5.2095   424.8    8.501      45.202
2015    6       23    13  56    5.2033   425.1    8.478      45.184
2015    6       23    14   2    5.1970   425.3    8.454      45.164
2015    6       23    14   8    5.1905   425.5    8.430      45.141
2015    6       23    14  14    5.1837   425.8    8.404      45.116
2015    6       23    14  21    5.1767   426.0    8.378      45.090
2015    6       23    14  27    5.1694   426.3    8.351      45.062
2015    6       23    14  33    5.1618   426.5    8.322      45.028
2015    6       23    14  40    5.1539   426.7    8.293      44.988
2015    6       23    14  46    5.1457   426.9    8.264      44.944
2015    6       23    14  52    5.1372   427.2    8.234      44.896
2015    6       23    14  58    5.1285   427.4    8.203      44.844
2015    6       23    15   5    5.1197   427.6    8.173      44.788
2015    6       23    15  11    5.1107   427.7    8.142      44.729
2015    6       23    15  17    5.1015   427.9    8.111      44.667
2015    6       23    15  24    5.0923   428.1    8.080      44.602
2015    6       23    15  30    5.0830   428.3    8.049      44.536
2015    6       23    15  36    5.0737   428.4    8.019      44.468
2015    6       23    15  42    5.0643   428.6    7.988      44.399
2015    6       23    15  49    5.0550   428.8    7.958      44.328
2015    6       23    15  55    5.0458   428.9    7.929      44.256
2015    6       23    16   1    5.0366   429.0    7.901      44.181
2015    6       23    16   8    5.0275   429.2    7.873      44.107
2015    6       23    16  14    5.0186   429.3    7.846      44.035
2015    6       23    16  20    5.0097   429.5    7.819      43.964
2015    6       23    16  26    5.0010   429.6    7.793      43.894
2015    6       23    16  33    4.9923   429.8    7.768      43.825
2015    6       23    16  39    4.9837   429.9    7.743      43.757
2015    6       23    16  45    4.9752   430.1    7.719      43.690
2015    6       23    16  52    4.9668   430.2    7.695      43.623
2015    6       23    16  58    4.9583   430.4    7.671      43.557
2015    6       23    17   4    4.9500   430.5    7.648      43.491
2015    6       23    17  10    4.9416   430.7    7.625      43.426
2015    6       23    17  17    4.9333   430.8    7.602      43.361
2015    6       23    17  23    4.9250   431.0    7.580      43.296
2015    6       23    17  29    4.9168   431.1    7.558      43.232
2015    6       23    17  36    4.9086   431.3    7.536      43.169
2015    6       23    17  42    4.9005   431.4    7.515      43.106
2015    6       23    17  48    4.8924   431.5    7.493      43.044
2015    6       23    17  54    4.8843   431.6    7.473      42.982
2015    6       23    18   1    4.8763   431.8    7.452      42.921
2015    6       23    18   7    4.8683   431.9    7.432      42.861
2015    6       23    18  13    4.8604   432.0    7.412      42.800
2015    6       23    18  20    4.8525   432.1    7.392      42.741
2015    6       23    18  26    4.8446   432.2    7.372      42.682
2015    6       23    18  32    4.8369   432.4    7.353      42.624
2015    6       23    18  38    4.8292   432.5    7.334      42.567
2015    6       23    18  45    4.8215   432.6    7.316      42.511
2015    6       23    18  51    4.8140   432.7    7.297      42.455
2015    6       23    18  57    4.8064   432.8    7.280      42.401
2015    6       23    19   3    4.7990   432.9    7.262      42.348
2015    6       23    19  10    4.7916   432.9    7.245      42.295
2015    6       23    19  16    4.7842   433.0    7.228      42.244
2015    6       23    19  22    4.7769   433.1    7.211      42.193
2015    6       23    19  29    4.7697   433.2    7.195      42.144
2015    6       23    19  35    4.7625   433.3    7.179      42.094
2015    6       23    19  41    4.7554   433.3    7.163      42.046
2015    6       23    19  47    4.7483   433.4    7.148      41.999
2015    6       23    19  54    4.7413   433.5    7.132      41.952
2015    6       23    20   0    4.7343   433.6    7.118      41.905
2015    6       23    20   6    4.7274   433.6    7.103      41.859
2015    6       23    20  13    4.7205   433.7    7.089      41.813
2015    6       23    20  19    4.7136   433.8    7.074      41.766
2015    6       23    20  25    4.7067   433.8    7.060      41.720
2015    6       23    20  31    4.6998   433.9    7.046      41.672
2015    6       23    20  38    4.6930   434.0    7.033      41.625
2015    6       23    20  44    4.6861   434.0    7.019      41.577
2015    6       23    20  50    4.6793   434.1    7.006      41.528
2015    6       23    20  57    4.6725   434.2    6.992      41.479
2015    6       23    21   3    4.6656   434.2    6.979      41.430
2015    6       23    21   9    4.6587   434.3    6.966      41.380
2015    6       23    21  15    4.6518   434.4    6.953      41.329
2015    6       23    21  22    4.6449   434.4    6.940      41.278
2015    6       23    21  28    4.6379   434.5    6.927      41.228
2015    6       23    21  34    4.6310   434.5    6.915      41.177
2015    6       23    21  40    4.6240   434.6    6.902      41.127
2015    6       23    21  47    4.6169   434.6    6.890      41.077
2015    6       23    21  53    4.6099   434.6    6.878      41.027
2015    6       23    21  59    4.6028   434.7    6.866      40.977
2015    6       23    22   6    4.5957   434.7    6.854      40.928
2015    6       23    22  12    4.5887   434.8    6.843      40.880
2015    6       23    22  18    4.5816   434.8    6.831      40.832
2015    6       23    22  24    4.5746   434.8    6.820      40.785
2015    6       23    22  31    4.5676   434.8    6.809      40.739
2015    6       23    22  37    4.5606   434.9    6.798      40.693
2015    6       23    22  43    4.5537   434.9    6.787      40.649
2015    6       23    22  50    4.5469   434.9    6.776      40.605
2015    6       23    22  56    4.5401   434.9    6.766      40.561
2015    6       23    23   2    4.5334   434.9    6.755      40.518
2015    6       23    23   8    4.5267   434.9    6.745      40.476
2015    6       23    23  15    4.5201   435.0    6.735      40.433
2015    6       23    23  21    4.5135   435.0    6.725      40.391
2015    6       23    23  27    4.5070   435.0    6.715      40.349
2015    6       23    23  34    4.5006   435.0    6.706      40.306
2015    6       23    23  40    4.4942   435.1    6.696      40.264
2015    6       23    23  46    4.4879   435.1    6.687      40.222
2015    6       23    23  52    4.4816   435.1    6.677      40.179
2015    6       23    23  59    4.4753   435.1    6.668      40.137
2015    6       24     0   5    4.4691   435.2    6.659      40.094
2015    6       24     0  11    4.4629   435.2    6.650      40.052
2015    6       24     0  18    4.4567   435.3    6.640      40.009
2015    6       24     0  24    4.4505   435.3    6.631      39.967
2015    6       24     0  30    4.4444   435.3    6.622      39.923
2015    6       24     0  36    4.4382   435.4    6.613      39.880
2015    6       24     0  43    4.4321   435.4    6.604      39.837
2015    6       24     0  49    4.4260   435.5    6.594      39.793
2015    6       24     0  55    4.4199   435.5    6.585      39.750
2015    6       24     1   2    4.4138   435.5    6.576      39.706
2015    6       24     1   8    4.4077   435.6    6.566      39.663
2015    6       24     1  14    4.4017   435.6    6.557      39.619
2015    6       24     1  20    4.3956   435.6    6.547      39.576
2015    6       24     1  27    4.3896   435.7    6.537      39.532
2015    6       24     1  33    4.3837   435.7    6.528      39.489
2015    6       24     1  39    4.3777   435.7    6.518      39.446
2015    6       24     1  46    4.3718   435.8    6.508      39.402
2015    6       24     1  52    4.3659   435.8    6.499      39.359
2015    6       24     1  58    4.3601   435.8    6.489      39.316
2015    6       24     2   4    4.3543   435.8    6.480      39.273
2015    6       24     2  11    4.3486   435.9    6.470      39.230
2015    6       24     2  17    4.3428   435.9    6.461      39.188
2015    6       24     2  23    4.3372   435.9    6.451      39.147
2015    6       24     2  30    4.3316   435.9    6.442      39.105
2015    6       24     2  36    4.3260   435.9    6.432      39.065
2015    6       24     2  42    4.3204   436.0    6.423      39.024
2015    6       24     2  48    4.3149   436.0    6.414      38.983
2015    6       24     2  55    4.3094   436.0    6.405      38.943
2015    6       24     3   1    4.3040   436.0    6.396      38.903
2015    6       24     3   7    4.2986   436.0    6.387      38.863
2015    6       24     3  13    4.2932   436.0    6.378      38.824
2015    6       24     3  20    4.2879   436.0    6.369      38.784
2015    6       24     3  26    4.2825   436.1    6.360      38.745
2015    6       24     3  32    4.2773   436.1    6.352      38.706
2015    6       24     3  39    4.2720   436.1    6.343      38.667
2015    6       24     3  45    4.2668   436.1    6.335      38.628
2015    6       24     3  51    4.2616   436.1    6.327      38.589
2015    6       24     3  57    4.2565   436.1    6.319      38.551
2015    6       24     4   4    4.2514   436.1    6.311      38.512
2015    6       24     4  10    4.2463   436.1    6.303      38.474
2015    6       24     4  16    4.2412   436.1    6.296      38.437
2015    6       24     4  23    4.2361   436.1    6.288      38.399
2015    6       24     4  29    4.2311   436.1    6.281      38.362
2015    6       24     4  35    4.2261   436.1    6.274      38.325
2015    6       24     4  41    4.2211   436.1    6.267      38.288
2015    6       24     4  48    4.2162   436.1    6.260      38.252
2015    6       24     4  54    4.2112   436.1    6.253      38.216
2015    6       24     5   0    4.2063   436.0    6.247      38.181
2015    6       24     5   7    4.2014   436.0    6.240      38.146
2015    6       24     5  13    4.1965   436.0    6.234      38.111
2015    6       24     5  19    4.1916   436.0    6.228      38.077
2015    6       24     5  25    4.1868   436.0    6.221      38.043
2015    6       24     5  32    4.1819   436.0    6.215      38.009
2015    6       24     5  38    4.1771   436.0    6.209      37.975
2015    6       24     5  44    4.1723   436.0    6.204      37.941
2015    6       24     5  50    4.1675   436.0    6.198      37.908
2015    6       24     5  57    4.1628   436.0    6.192      37.874
2015    6       24     6   3    4.1580   436.0    6.186      37.841
2015    6       24     6   9    4.1533   435.9    6.180      37.808
2015    6       24     6  16    4.1486   435.9    6.175      37.775
2015    6       24     6  22    4.1439   435.9    6.169      37.743
2015    6       24     6  28    4.1392   435.9    6.163      37.710
2015    6       24     6  34    4.1346   435.9    6.158      37.677
2015    6       24     6  41    4.1300   435.9    6.152      37.645
2015    6       24     6  47    4.1254   435.9    6.146      37.613
2015    6       24     6  53    4.1208   435.9    6.141      37.580
2015    6       24     7   0    4.1162   435.8    6.135      37.548
2015    6       24     7   6    4.1117   435.8    6.129      37.516
2015    6       24     7  12    4.1072   435.8    6.124      37.484
2015    6       24     7  18    4.1027   435.8    6.118      37.452
2015    6       24     7  25    4.0982   435.8    6.113      37.420
2015    6       24     7  31    4.0938   435.8    6.107      37.388
2015    6       24     7  37    4.0893   435.7    6.102      37.356
2015    6       24     7  44    4.0850   435.7    6.096      37.325
2015    6       24     7  50    4.0806   435.7    6.091      37.293
2015    6       24     7  56    4.0762   435.7    6.085      37.262
2015    6       24     8   2    4.0719   435.7    6.080      37.230
2015    6       24     8   9    4.0675   435.6    6.075      37.199
2015    6       24     8  15    4.0632   435.6    6.069      37.168
2015    6       24     8  21    4.0589   435.6    6.064      37.137
2015    6       24     8  28    4.0547   435.6    6.059      37.106
2015    6       24     8  34    4.0504   435.6    6.054      37.076
2015    6       24     8  40    4.0462   435.5    6.048      37.045
2015    6       24     8  46    4.0420   435.5    6.043      37.014
2015    6       24     8  53    4.0377   435.5    6.038      36.983
2015    6       24     8  59    4.0336   435.5    6.033      36.953
2015    6       24     9   5    4.0294   435.4    6.028      36.922
2015    6       24     9  12    4.0252   435.4    6.023      36.892
2015    6       24     9  18    4.0211   435.4    6.018      36.861
2015    6       24     9  24    4.0169   435.4    6.013      36.830
2015    6       24     9  30    4.0128   435.3    6.008      36.800
2015    6       24     9  37    4.0087   435.3    6.003      36.769
2015    6       24     9  43    4.0046   435.3    5.998      36.738
2015    6       24     9  49    4.0005   435.2    5.993      36.708
2015    6       24     9  56    3.9964   435.2    5.989      36.677
2015    6       24    10   2    3.9923   435.2    5.984      36.646
2015    6       24    10   8    3.9883   435.1    5.979      36.615
2015    6       24    10  14    3.9842   435.1    5.974      36.584
2015    6       24    10  21    3.9802   435.1    5.969      36.554
2015    6       24    10  27    3.9762   435.0    5.965      36.523
2015    6       24    10  33    3.9721   435.0    5.960      36.492
2015    6       24    10  39    3.9681   435.0    5.955      36.462
2015    6       24    10  46    3.9642   434.9    5.951      36.431
2015    6       24    10  52    3.9602   434.9    5.946      36.401
2015    6       24    10  58    3.9562   434.8    5.941      36.370
2015    6       24    11   5    3.9523   434.8    5.937      36.340
2015    6       24    11  11    3.9484   434.8    5.932      36.310
2015    6       24    11  17    3.9445   434.7    5.928      36.280
2015    6       24    11  23    3.9406   434.7    5.923      36.250
2015    6       24    11  30    3.9367   434.6    5.919      36.220
2015    6       24    11  36    3.9328   434.6    5.914      36.190
2015    6       24    11  42    3.9290   434.6    5.910      36.161
2015    6       24    11  49    3.9251   434.5    5.906      36.131
2015    6       24    11  55    3.9213   434.5    5.901      36.102
2015    6       24    12   1    3.9175   434.4    5.897      36.073
2015    6       24    12   7    3.9137   434.4    5.893      36.044
2015    6       24    12  14    3.9099   434.4    5.889      36.015
2015    6       24    12  20    3.9062   434.3    5.884      35.986
2015    6       24    12  26    3.9024   434.3    5.880      35.957
2015    6       24    12  32    3.8987   434.2    5.876      35.928
2015    6       24    12  39    3.8950   434.2    5.872      35.900
2015    6       24    12  45    3.8913   434.1    5.868      35.872
2015    6       24    12  51    3.8876   434.1    5.864      35.843
2015    6       24    12  58    3.8839   434.1    5.860      35.815
2015    6       24    13   4    3.8802   434.0    5.856      35.787
2015    6       24    13  10    3.8766   434.0    5.852      35.759
2015    6       24    13  16    3.8729   433.9    5.848      35.732
2015    6       24    13  23    3.8693   433.9    5.844      35.704
2015    6       24    13  29    3.8657   433.8    5.840      35.676
2015    6       24    13  35    3.8622   433.8    5.836      35.649
2015    6       24    13  42    3.8586   433.7    5.832      35.622
2015    6       24    13  48    3.8550   433.7    5.828      35.595
2015    6       24    13  54    3.8515   433.6    5.824      35.568
2015    6       24    14   0    3.8480   433.6    5.820      35.542
2015    6       24    14   7    3.8445   433.6    5.816      35.515
2015    6       24    14  13    3.8410   433.5    5.813      35.489
2015    6       24    14  19    3.8376   433.5    5.809      35.463
2015    6       24    14  26    3.8341   433.4    5.806      35.438
2015    6       24    14  32    3.8307   433.4    5.802      35.412
2015    6       24    14  38    3.8273   433.3    5.798      35.387
2015    6       24    14  44    3.8239   433.3    5.795      35.362
2015    6       24    14  51    3.8206   433.2    5.792      35.337
2015    6       24    14  57    3.8172   433.2    5.788      35.313
2015    6       24    15   3    3.8139   433.1    5.785      35.288
2015    6       24    15   9    3.8106   433.1    5.782      35.264
2015    6       24    15  16    3.8073   433.0    5.779      35.241
2015    6       24    15  22    3.8041   433.0    5.776      35.217
2015    6       24    15  28    3.8008   432.9    5.773      35.194
2015    6       24    15  35    3.7976   432.9    5.770      35.171
2015    6       24    15  41    3.7944   432.8    5.767      35.148
2015    6       24    15  47    3.7912   432.8    5.765      35.125
2015    6       24    15  53    3.7880   432.7    5.762      35.103
2015    6       24    16   0    3.7848   432.7    5.759      35.081
2015    6       24    16   6    3.7816   432.6    5.757      35.059
2015    6       24    16  12    3.7785   432.6    5.754      35.037
2015    6       24    16  19    3.7754   432.5    5.752      35.015
2015    6       24    16  25    3.7723   432.5    5.749      34.994
2015    6       24    16  31    3.7692   432.4    5.747      34.973
2015    6       24    16  37    3.7661   432.4    5.745      34.953
2015    6       24    16  44    3.7632   432.3    5.742      34.934
2015    6       24    16  50    3.7603   432.3    5.740      34.917
2015    6       24    16  56    3.7576   432.2    5.738      34.905
2015    6       24    17   3    3.7550   432.2    5.736      34.899
2015    6       24    17   9    3.7527   432.1    5.735      34.906
2015    6       24    17  15    3.7507   432.1    5.734      34.933
2015    6       24    17  21    3.7492   432.1    5.734      34.994
2015    6       24    17  28    3.7481   432.1    5.735      35.114
2015    6       24    17  34    3.7479   432.1    5.738      35.333
2015    6       24    17  40    3.7483   432.2    5.744      35.715
2015    6       24    17  47    3.7502   432.4    5.755      36.372
2015    6       24    17  53    3.7528   432.8    5.772      37.477
2015    6       24    17  59    3.7582   433.5    5.800      39.286
2015    6       24    18   5    3.7648   434.5    5.843      42.235
2015    6       24    18  12    3.7768   436.1    5.907      46.883
2015    6       24    18  18    3.7918   438.6    5.999      54.059
2015    6       24    18  24    3.8176   442.3    6.131      64.739
2015    6       24    18  30    3.8514   447.6    6.317      80.482
2015    6       24    18  37    3.9054   454.7    6.568     101.960
2015    6       24    18  43    3.9779   463.9    6.906     130.916
2015    6       24    18  49    4.0866   475.6    7.346     167.314
2015    6       24    18  56    4.2280   489.2    7.901     210.231
2015    6       24    19   2    4.4279   504.2    8.607     261.371
2015    6       24    19   8    4.6716   520.9    9.441     314.766
2015    6       24    19  14    4.9630   537.8   10.372     365.531
2015    6       24    19  21    5.2861   553.7   11.378     411.243
2015    6       24    19  27    5.6407   568.2   12.433     450.562
2015    6       24    19  33    6.0127   581.2   13.514     483.391
2015    6       24    19  40    6.3978   592.5   14.597     509.933
2015    6       24    19  46    6.7851   602.7   15.668     530.861
2015    6       24    19  52    7.1699   611.2   16.704     546.164
2015    6       24    19  58    7.5560   618.3   17.720     557.773
2015    6       24    20   5    7.9561   624.1   18.748     567.566
2015    6       24    20  11    8.3657   629.6   19.786     576.633
2015    6       24    20  17    8.7773   634.7   20.815     585.064
2015    6       24    20  23    9.1848   639.5   21.822     592.829
2015    6       24    20  30    9.5808   643.9   22.791     599.906
2015    6       24    20  36    9.9584   648.0   23.704     606.092
2015    6       24    20  42   10.3087   651.7   24.541     611.150
2015    6       24    20  49   10.6289   655.0   25.295     614.903
2015    6       24    20  55   10.9039   658.1   25.932     616.900
2015    6       24    21   1   11.1390   660.7   26.459     616.945
2015    6       24    21   7   11.3371   662.8   26.885     615.290
2015    6       24    21  14   11.5038   664.5   27.225     612.175
2015    6       24    21  20   11.6399   665.8   27.480     607.738
2015    6       24    21  26   11.7507   666.8   27.664     602.235
2015    6       24    21  33   11.8384   667.6   27.785     595.948
2015    6       24    21  39   11.9060   668.1   27.850     589.088
2015    6       24    21  45   11.9552   668.3   27.867     581.880
2015    6       24    21  51   11.9880   668.4   27.840     574.333
2015    6       24    21  58   12.0053   668.3   27.775     566.583
2015    6       24    22   4   12.0095   668.1   27.680     558.707
2015    6       24    22  10   12.0012   667.7   27.561     550.765
2015    6       24    22  17   11.9819   667.3   27.424     542.706
2015    6       24    22  23   11.9535   666.7   27.274     534.558
2015    6       24    22  29   11.9177   666.2   27.116     526.247
2015    6       24    22  35   11.8757   665.5   26.954     517.769
2015    6       24    22  42   11.8288   664.9   26.788     509.148
2015    6       24    22  48   11.7778   664.2   26.621     500.392
2015    6       24    22  54   11.7231   663.5   26.451     491.443
2015    6       24    23   1   11.6653   662.8   26.278     482.346
2015    6       24    23   7   11.6044   662.0   26.101     473.064
2015    6       24    23  13   11.5406   661.2   25.920     463.637
2015    6       24    23  19   11.4737   660.4   25.733     454.098
2015    6       24    23  26   11.4043   659.6   25.545     444.541
2015    6       24    23  32   11.3318   658.7   25.354     434.974
2015    6       24    23  38   11.2568   657.8   25.163     425.496
2015    6       24    23  45   11.1794   657.0   24.973     416.105
2015    6       24    23  51   11.1002   656.1   24.785     406.879
2015    6       24    23  57   11.0188   655.2   24.598     397.829
2015    6       25     0   3   10.9360   654.3   24.416     389.026
2015    6       25     0  10   10.8514   653.5   24.237     380.415
2015    6       25     0  16   10.7655   652.6   24.060     372.032
2015    6       25     0  22   10.6779   651.8   23.884     363.830
2015    6       25     0  28   10.5892   650.9   23.710     355.837
2015    6       25     0  35   10.4986   650.1   23.536     348.009
2015    6       25     0  41   10.4068   649.3   23.363     340.369
2015    6       25     0  47   10.3131   648.5   23.188     332.878
2015    6       25     0  54   10.2181   647.6   23.013     325.567
2015    6       25     1   0   10.1211   646.8   22.837     318.402
2015    6       25     1   6   10.0227   646.0   22.659     311.413
2015    6       25     1  12    9.9222   645.2   22.479     304.574
2015    6       25     1  19    9.8204   644.3   22.298     297.915
2015    6       25     1  25    9.7164   643.5   22.114     291.409
2015    6       25     1  31    9.6111   642.6   21.927     285.088
2015    6       25     1  38    9.5038   641.8   21.738     278.931
2015    6       25     1  44    9.3950   641.0   21.545     272.963
2015    6       25     1  50    9.2844   640.1   21.349     267.161
2015    6       25     1  56    9.1725   639.2   21.151     261.550
2015    6       25     2   3    9.0588   638.4   20.948     256.109
2015    6       25     2   9    8.9438   637.5   20.742     250.859
2015    6       25     2  15    8.8273   636.6   20.532     245.776
2015    6       25     2  21    8.7100   635.8   20.318     240.881
2015    6       25     2  28    8.5916   634.9   20.101     236.151
2015    6       25     2  34    8.4730   634.0   19.880     231.603
2015    6       25     2  40    8.3537   633.2   19.654     227.217
2015    6       25     2  47    8.2347   632.3   19.426     223.008
2015    6       25     2  53    8.1155   631.4   19.193     218.957
2015    6       25     2  59    7.9969   630.5   18.957     215.076
2015    6       25     3   5    7.8786   629.6   18.718     211.346
2015    6       25     3  12    7.7614   628.7   18.476     207.776
2015    6       25     3  18    7.6446   627.8   18.231     204.352
2015    6       25     3  24    7.5289   626.9   17.983     201.079
2015    6       25     3  30    7.4137   626.0   17.733     197.936
2015    6       25     3  37    7.2999   625.1   17.483     194.926
2015    6       25     3  43    7.1869   624.2   17.230     192.032
2015    6       25     3  49    7.0753   623.3   16.978     189.256
2015    6       25     3  56    6.9647   622.4   16.726     186.580
2015    6       25     4   2    6.8556   621.5   16.474     184.010
2015    6       25     4   8    6.7476   620.6   16.222     181.529
2015    6       25     4  14    6.6411   619.7   15.972     179.140
2015    6       25     4  21    6.5360   618.8   15.723     176.827
2015    6       25     4  27    6.4325   617.9   15.476     174.598
2015    6       25     4  33    6.3304   617.0   15.230     172.441
2015    6       25     4  40    6.2298   616.1   14.987     170.360
2015    6       25     4  46    6.1306   615.2   14.745     168.346
2015    6       25     4  52    6.0329   614.3   14.506     166.402
2015    6       25     4  58    5.9364   613.3   14.269     164.515
2015    6       25     5   5    5.8416   612.4   14.036     162.691
2015    6       25     5  11    5.7479   611.5   13.804     160.918
2015    6       25     5  17    5.6557   610.6   13.577     159.199
2015    6       25     5  24    5.5647   609.7   13.352     157.526
2015    6       25     5  30    5.4751   608.8   13.131     155.900
2015    6       25     5  36    5.3866   607.9   12.912     154.314
2015    6       25     5  42    5.2995   607.0   12.697     152.772
2015    6       25     5  49    5.2135   606.0   12.486     151.266
2015    6       25     5  55    5.1289   605.1   12.278     149.801
2015    6       25     6   1    5.0454   604.2   12.073     148.371
2015    6       25     6   8    4.9632   603.3   11.871     146.982
2015    6       25     6  14    4.8820   602.3   11.673     145.627
2015    6       25     6  20    4.8023   601.4   11.478     144.311
2015    6       25     6  26    4.7236   600.5   11.286     143.029
2015    6       25     6  33    4.6463   599.5   11.098     141.786
2015    6       25     6  39    4.5699   598.6   10.912     140.576
2015    6       25     6  45    4.4950   597.6   10.730     139.403
2015    6       25     6  52    4.4210   596.6   10.551     138.263
2015    6       25     6  58    4.3483   595.7   10.375     137.159
2015    6       25     7   4    4.2767   594.7   10.202     136.085
2015    6       25     7  10    4.2063   593.7   10.032     135.047
2015    6       25     7  17    4.1369   592.8    9.865     134.038
2015    6       25     7  23    4.0688   591.8    9.701     133.062
2015    6       25     7  29    4.0016   590.8    9.539     132.115
2015    6       25     7  35    3.9356   589.9    9.381     131.200
2015    6       25     7  42    3.8706   588.9    9.224     130.312
2015    6       25     7  48    3.8068   587.9    9.071     129.455
2015    6       25     7  54    3.7439   586.9    8.920     128.624
2015    6       25     8   1    3.6821   585.9    8.772     127.822
2015    6       25     8   7    3.6212   584.9    8.626     127.045
2015    6       25     8  13    3.5615   584.0    8.483     126.296
2015    6       25     8  19    3.5027   583.0    8.342     125.571
2015    6       25     8  26    3.4449   582.0    8.204     124.872
2015    6       25     8  32    3.3881   581.0    8.067     124.195
2015    6       25     8  38    3.3323   580.0    7.933     123.543
2015    6       25     8  45    3.2775   579.0    7.801     122.913
2015    6       25     8  51    3.2237   578.0    7.672     122.306
2015    6       25     8  57    3.1708   577.0    7.544     121.719
2015    6       25     9   3    3.1191   576.0    7.419     121.154
2015    6       25     9  10    3.0682   575.0    7.296     120.608
2015    6       25     9  16    3.0184   574.0    7.174     120.083
2015    6       25     9  22    2.9695   573.1    7.055     119.575
2015    6       25     9  28    2.9218   572.1    6.937     119.086
2015    6       25     9  35    2.8749   571.1    6.821     118.614
2015    6       25     9  41    2.8292   570.1    6.708     118.160
2015    6       25     9  47    2.7844   569.1    6.595     117.721
2015    6       25     9  54    2.7407   568.1    6.485     117.298
2015    6       25    10   0    2.6979   567.1    6.376     116.890
2015    6       25    10   6    2.6563   566.2    6.269     116.497
2015    6       25    10  12    2.6156   565.2    6.163     116.117
2015    6       25    10  19    2.5761   564.2    6.059     115.751
2015    6       25    10  25    2.5376   563.3    5.956     115.397
2015    6       25    10  31    2.5002   562.3    5.855     115.056
2015    6       25    10  37    2.4639   561.3    5.755     114.726
2015    6       25    10  44    2.4289   560.4    5.657     114.409
2015    6       25    10  50    2.3949   559.4    5.560     114.101
2015    6       25    10  56    2.3623   558.5    5.465     113.804
2015    6       25    11   3    2.3309   557.5    5.370     113.517
2015    6       25    11   9    2.3008   556.6    5.278     113.240
2015    6       25    11  15    2.2721   555.6    5.186     112.971
2015    6       25    11  21    2.2447   554.7    5.096     112.711
2015    6       25    11  28    2.2187   553.8    5.007     112.460
2015    6       25    11  34    2.1942   552.8    4.919     112.216
2015    6       25    11  40    2.1711   551.9    4.833     111.979
2015    6       25    11  46    2.1494   551.0    4.747     111.750
2015    6       25    11  53    2.1290   550.1    4.663     111.527
2015    6       25    11  59    2.1102   549.2    4.581     111.311
2015    6       25    12   5    2.0926   548.3    4.499     111.100
2015    6       25    12  12    2.0766   547.4    4.418     110.895
2015    6       25    12  18    2.0618   546.5    4.339     110.695
2015    6       25    12  24    2.0485   545.6    4.261     110.501
2015    6       25    12  30    2.0364   544.7    4.184     110.310
2015    6       25    12  37    2.0258   543.8    4.108     110.124
2015    6       25    12  43    2.0162   542.9    4.033     109.942
2015    6       25    12  49    2.0081   542.0    3.960     109.764
2015    6       25    12  56    2.0011   541.1    3.887     109.589
2015    6       25    13   2    1.9954   540.3    3.815     109.417
2015    6       25    13   8    1.9907   539.4    3.745     109.248
2015    6       25    13  14    1.9872   538.5    3.675     109.081
2015    6       25    13  21    1.9848   537.7    3.607     108.916
2015    6       25    13  27    1.9835   536.8    3.540     108.754
2015    6       25    13  33    1.9831   536.0    3.473     108.592
2015    6       25    13  40    1.9838   535.2    3.408     108.432
2015    6       25    13  46    1.9853   534.3    3.343     108.272
2015    6       25    13  52    1.9878   533.5    3.280     108.114
2015    6       25    13  58    1.9910   532.7    3.217     107.956
2015    6       25    14   5    1.9951   531.9    3.156     107.798
2015    6       25    14  11    1.9998   531.0    3.095     107.640
2015    6       25    14  17    2.0054   530.2    3.036     107.482
2015    6       25    14  24    2.0114   529.4    2.977     107.322
2015    6       25    14  30    2.0182   528.6    2.919     107.162
2015    6       25    14  36    2.0255   527.9    2.862     107.001
2015    6       25    14  42    2.0333   527.1    2.806     106.838
2015    6       25    14  49    2.0416   526.3    2.751     106.674
2015    6       25    14  55    2.0504   525.5    2.697     106.508
2015    6       25    15   1    2.0595   524.8    2.643     106.339
2015    6       25    15   8    2.0691   524.0    2.591     106.169
2015    6       25    15  14    2.0789   523.3    2.539     105.995
2015    6       25    15  20    2.0892   522.5    2.488     105.818
2015    6       25    15  26    2.0996   521.8    2.437     105.637
2015    6       25    15  33    2.1104   521.1    2.388     105.453
2015    6       25    15  39    2.1214   520.3    2.339     105.263
2015    6       25    15  45    2.1326   519.6    2.292     105.068
2015    6       25    15  51    2.1439   518.9    2.244     104.867
2015    6       25    15  58    2.1556   518.2    2.198     104.658
2015    6       25    16   4    2.1672   517.5    2.153     104.441
2015    6       25    16  10    2.1791   516.8    2.108     104.218
2015    6       25    16  17    2.1909   516.2    2.063     103.986
2015    6       25    16  23    2.2030   515.5    2.020     103.747
2015    6       25    16  29    2.2150   514.8    1.977     103.499
2015    6       25    16  35    2.2272   514.2    1.935     103.245
2015    6       25    16  42    2.2392   513.5    1.894     102.982
2015    6       25    16  48    2.2515   512.9    1.853     102.713
2015    6       25    16  54    2.2635   512.3    1.813     102.435
2015    6       25    17   0    2.2757   511.6    1.774     102.150
2015    6       25    17   7    2.2878   511.0    1.735     101.859
2015    6       25    17  13    2.2999   510.4    1.697     101.562
2015    6       25    17  19    2.3119   509.8    1.660     101.259
2015    6       25    17  26    2.3239   509.2    1.623     100.950
2015    6       25    17  32    2.3358   508.7    1.587     100.634
2015    6       25    17  38    2.3477   508.1    1.551     100.311
2015    6       25    17  44    2.3594   507.5    1.516      99.982
2015    6       25    17  51    2.3711   507.0    1.482      99.646
2015    6       25    17  57    2.3826   506.4    1.448      99.302
2015    6       25    18   3    2.3941   505.9    1.415      98.952
2015    6       25    18   9    2.4054   505.4    1.383      98.593
2015    6       25    18  16    2.4167   504.9    1.351      98.228
2015    6       25    18  22    2.4277   504.4    1.319      97.854
2015    6       25    18  28    2.4388   503.9    1.288      97.474
2015    6       25    18  35    2.4496   503.4    1.258      97.084
2015    6       25    18  41    2.4604   503.0    1.228      96.688
2015    6       25    18  47    2.4709   502.5    1.199      96.281
2015    6       25    18  53    2.4815   502.1    1.170      95.867
2015    6       25    19   0    2.4918   501.6    1.142      95.442
2015    6       25    19   6    2.5021   501.2    1.115      95.008
2015    6       25    19  12    2.5121   500.8    1.088      94.562
2015    6       25    19  19    2.5221   500.4    1.061      94.105
2015    6       25    19  25    2.5318   500.0    1.035      93.635
2015    6       25    19  31    2.5415   499.7    1.010      93.152
2015    6       25    19  37    2.5509   499.3    1.000      92.652
2015    6       25    19  44    2.5603   499.0    1.000      92.137
2015    6       25    19  50    2.5695   498.6    1.000      91.602
2015    6       25    19  56    2.5786   498.3    1.000      91.047
2015    6       25    20   3    2.5875   498.0    1.000      90.469
2015    6       25    20   9    2.5963   497.8    1.000      89.866
2015    6       25    20  15    2.6048   497.5    1.000      89.237
2015    6       25    20  21    2.6133   497.3    1.000      88.576
2015    6       25    20  28    2.6216   497.0    1.000      87.879
2015    6       25    20  34    2.6298   496.8    1.000      87.149
2015    6       25    20  40    2.6378   496.7    1.000      86.382
2015    6       25    20  46    2.6457   496.5    1.000      85.584
2015    6       25    20  53    2.6534   496.3    1.000      84.749
2015    6       25    20  59    2.6610   496.2    1.000      83.884
2015    6       25    21   5    2.6684   496.1    1.000      82.984
2015    6       25    21  12    2.6757   496.0    1.000      82.057
2015    6       25    21  18    2.6828   495.9    1.000      81.098
2015    6       25    21  24    2.6898   495.9    1.000      80.113
2015    6       25    21  31    2.6966   495.8    1.000      79.099
2015    6       25    21  37    2.7034   495.8    1.000      78.063
2015    6       25    21  43    2.7098   495.8    1.000      77.001
2015    6       25    21  49    2.7163   495.9    1.000      75.927
2015    6       25    21  56    2.7225   495.9    1.000      74.833
2015    6       25    22   2    2.7286   496.0    1.000      73.726
2015    6       25    22   8    2.7345   496.1    1.000      72.600
2015    6       25    22  14    2.7403   496.2    1.000      71.460
2015    6       25    22  21    2.7459   496.3    1.000      70.301
2015    6       25    22  27    2.7515   496.4    1.000      69.128
2015    6       25    22  33    2.7568   496.6    1.000      67.937
2015    6       25    22  40    2.7621   496.8    1.000      66.734
2015    6       25    22  46    2.7671   496.9    1.000      65.514
2015    6       25    22  52    2.7722   497.1    1.000      64.282
2015    6       25    22  58    2.7770   497.3    1.000      63.033
2015    6       25    23   5    2.7818   497.6    1.000      61.774
2015    6       25    23  11    2.7863   497.8    1.000      60.500
2015    6       25    23  17    2.7909   498.1    1.000      59.217
2015    6       25    23  23    2.7952   498.3    1.000      57.920
2015    6       25    23  30    2.7995   498.6    1.000      56.616
2015    6       25    23  36    2.8037   498.9    1.000      55.301
2015    6       25    23  42    2.8078   499.2    1.000      53.981
2015    6       25    23  49    2.8118   499.5    1.000      52.653
2015    6       25    23  55    2.8157   499.8    1.000      51.323
2015    6       26     0   1    2.8195   500.1    1.000      49.988
2015    6       26     0   7    2.8233   500.4    1.000      48.654
2015    6       26     0  14    2.8269   500.8    1.000      47.317
2015    6       26     0  20    2.8305   501.1    1.000      45.985
2015    6       26     0  26    2.8339   501.4    1.000      44.654
2015    6       26     0  32    2.8374   501.7    1.000      43.330
2015    6       26     0  39    2.8406   502.1    1.000      42.010
2015    6       26     0  45    2.8439   502.4    1.000      40.702
2015    6       26     0  51    2.8470   502.7    1.000      39.401
2015    6       26     0  58    2.8502   503.0    1.000      38.114
2015    6       26     1   4    2.8531   503.3    1.000      36.838
2015    6       26     1  10    2.8561   503.6    1.000      35.580
2015    6       26     1  16    2.8590   503.9    1.000      34.336
2015    6       26     1  23    2.8618   504.1    1.000      33.112
2015    6       26     1  29    2.8645   504.4    1.000      31.906
2015    6       26     1  35    2.8672   504.6    1.000      30.723
2015    6       26     1  41    2.8698   504.9    1.000      29.561
2015    6       26     1  48    2.8724   505.1    1.000      28.425
2015    6       26     1  54    2.8749   505.3    1.000      27.311
2015    6       26     2   0    2.8774   505.5    1.000      26.227
2015    6       26     2   7    2.8798   505.6    1.000      25.168
2015    6       26     2  13    2.8822   505.8    1.000      24.138
2015    6       26     2  19    2.8845   505.9    1.000      23.137
2015    6       26     2  25    2.8868   506.0    1.000      22.166
2015    6       26     2  32    2.8890   506.1    1.000      21.225
2015    6       26     2  38    2.8912   506.2    1.000      20.315
2015    6       26     2  44    2.8934   506.2    1.000      19.435
2015    6       26     2  51    2.8956   506.3    1.000      18.588
2015    6       26     2  57    2.8977   506.3    1.000      17.770
2015    6       26     3   3    2.8998   506.3    1.000      16.985
2015    6       26     3   9    2.9018   506.2    1.000      16.230
2015    6       26     3  16    2.9039   506.2    1.000      15.507
2015    6       26     3  22    2.9059   506.1    1.000      14.814
2015    6       26     3  28    2.9079   506.0    1.000      14.151
2015    6       26     3  34    2.9098   505.9    1.000      13.518
2015    6       26     3  41    2.9118   505.8    1.000      12.915
2015    6       26     3  47    2.9137   505.6    1.000      12.341
2015    6       26     3  53    2.9156   505.5    1.000      11.795
2015    6       26     4   0    2.9175   505.3    1.000      11.276
2015    6       26     4   6    2.9193   505.1    1.000      10.785
2015    6       26     4  12    2.9212   504.9    1.000      10.319
2015    6       26     4  18    2.9230   504.7    1.000       9.879
2015    6       26     4  25    2.9248   504.5    1.000       9.464
2015    6       26     4  31    2.9266   504.3    1.000       9.072
2015    6       26     4  37    2.9284   504.0    1.000       8.702
2015    6       26     4  44    2.9302   503.8    1.000       8.355
2015    6       26     4  50    2.9319   503.5    1.000       8.028
2015    6       26     4  56    2.9337   503.2    1.000       7.721
2015    6       26     5   2    2.9354   503.0    1.000       7.433
2015    6       26     5   9    2.9372   502.7    1.000       7.164
2015    6       26     5  15    2.9389   502.4    1.000       6.911
2015    6       26     5  21    2.9406   502.0    1.000       6.675
2015    6       26     5  28    2.9423   501.7    1.000       6.454
2015    6       26     5  34    2.9440   501.3    1.000       6.248
2015    6       26     5  40    2.9457   500.9    1.000       6.056
2015    6       26     5  46    2.9474   500.4    1.000       5.877
2015    6       26     5  53    2.9491   500.0    1.000       5.710
2015    6       26     5  59    2.9508   499.5    1.000       5.554
2015    6       26     6   5    2.9525   499.0    1.000       5.410
2015    6       26     6  12    2.9543   498.5    1.000       5.275
2015    6       26     6  18    2.9560   497.9    1.000       5.149
2015    6       26     6  24    2.9577   497.3    1.000       5.032
2015    6       26     6  30    2.9594   496.7    1.000       4.923
2015    6       26     6  37    2.9611   496.1    1.000       4.822
2015    6       26     6  43    2.9629   495.5    1.000       4.729
2015    6       26     6  49    2.9646   494.9    1.000       4.642
2015    6       26     6  55    2.9664   494.3    1.000       4.562
2015    6       26     7   2    2.9682   493.7    1.000       4.488
2015    6       26     7   8    2.9699   493.1    1.000       4.420
2015    6       26     7  14    2.9717   492.5    1.000       4.358
2015    6       26     7  20    2.9735   491.9    1.000       4.302
2015    6       26     7  27    2.9754   491.3    1.000       4.251
2015    6       26     7  33    2.9772   490.7    1.000       4.206
2015    6       26     7  39    2.9790   490.1    1.000       4.165
2015    6       26     7  46    2.9809   489.5    1.000       4.130
2015    6       26     7  52    2.9827   488.9    1.000       4.099
2015    6       26     7  58    2.9846   488.3    1.000       4.073
2015    6       26     8   4    2.9864   487.8    1.000       4.051
2015    6       26     8  11    2.9883   487.1    1.000       4.033
2015    6       26     8  17    2.9902   486.5    1.000       4.018
2015    6       26     8  23    2.9920   485.9    1.000       4.007
2015    6       26     8  29    2.9939   485.3    1.000       3.998
2015    6       26     8  36    2.9958   484.6    1.000       3.993
2015    6       26     8  42    2.9977   484.0    1.000       3.989
2015    6       26     8  48    2.9995   483.3    1.000       3.988
2015    6       26     8  55    3.0014   482.6    1.000       3.988
2015    6       26     9   1    3.0033   482.0    1.000       3.990
2015    6       26     9   7    3.0051   481.3    1.000       3.992
2015    6       26     9  13    3.0070   480.6    1.000       3.997
2015    6       26     9  20    3.0088   479.9    1.000       4.002
2015    6       26     9  26    3.0107   479.2    1.000       4.008
2015    6       26     9  32    3.0125   478.5    1.000       4.015
2015    6       26     9  38    3.0143   477.8    1.000       4.023
2015    6       26     9  45    3.0162   477.2    1.000       4.032
2015    6       26     9  51    3.0180   476.5    1.000       4.042
2015    6       26     9  57    3.0198   475.8    1.000       4.052
2015    6       26    10   4    3.0216   475.1    1.000       4.064
2015    6       26    10  10    3.0234   474.5    1.000       4.076
2015    6       26    10  16    3.0251   473.8    1.000       4.090
2015    6       26    10  22    3.0269   473.2    1.000       4.104
2015    6       26    10  29    3.0287   472.5    1.000       4.120
2015    6       26    10  35    3.0305   471.9    1.000       4.137
2015    6       26    10  41    3.0322   471.3    1.000       4.155
2015    6       26    10  48    3.0340   470.7    1.000       4.174
2015    6       26    10  54    3.0357   470.1    1.000       4.194
2015    6       26    11   0    3.0375   469.5    1.000       4.214
2015    6       26    11   6    3.0392   468.9    1.000       4.236
2015    6       26    11  13    3.0409   468.4    1.000       4.258
2015    6       26    11  19    3.0426   467.8    1.000       4.281
2015    6       26    11  25    3.0444   467.2    1.000       4.305
2015    6       26    11  32    3.0461   466.7    1.000       4.329
2015    6       26    11  38    3.0477   466.1    1.000       4.354
2015    6       26    11  44    3.0494   465.6    1.000       4.380
2015    6       26    11  50    3.0511   465.1    1.000       4.405
2015    6       26    11  57    3.0527   464.5    1.000       4.431
2015    6       26    12   3    3.0544   464.0    1.000       4.458
2015    6       26    12   9    3.0560   463.5    1.000       4.484
2015    6       26    12  16    3.0576   463.0    1.000       4.511
2015    6       26    12  22    3.0592   462.5    1.000       4.538
2015    6       26    12  28    3.0608   461.9    1.000       4.565
2015    6       26    12  34    3.0624   461.4    1.000       4.592
2015    6       26    12  41    3.0640   460.9    1.000       4.619
2015    6       26    12  47    3.0655   460.4    1.000       4.646
2015    6       26    12  53    3.0671   459.9    1.000       4.673
2015    6       26    12  59    3.0686   459.4    1.000       4.700
2015    6       26    13   6    3.0701   458.9    1.000       4.727
2015    6       26    13  12    3.0716   458.4    1.000       4.754
2015    6       26    13  18    3.0731   457.9    1.000       4.781
2015    6       26    13  25    3.0746   457.4    1.000       4.808
2015    6       26    13  31    3.0761   456.8    1.000       4.835
2015    6       26    13  37    3.0775   456.3    1.000       4.862
2015    6       26    13  43    3.0790   455.8    1.000       4.889
2015    6       26    13  50    3.0804   455.3    1.000       4.916
2015    6       26    13  56    3.0819   454.8    1.000       4.943
2015    6       26    14   2    3.0833   454.3    1.000       4.971
2015    6       26    14   8    3.0847   453.7    1.000       4.998
2015    6       26    14  15    3.0861   453.2    1.000       5.026
2015    6       26    14  21    3.0875   452.7    1.000       5.054
2015    6       26    14  27    3.0888   452.2    1.000       5.082
2015    6       26    14  34    3.0902   451.7    1.000       5.110
2015    6       26    14  40    3.0915   451.2    1.000       5.138
2015    6       26    14  46    3.0929   450.7    1.000       5.167
2015    6       26    14  52    3.0942   450.2    1.000       5.195
2015    6       26    14  59    3.0955   449.7    1.000       5.224
2015    6       26    15   5    3.0968   449.2    1.000       5.254
2015    6       26    15  11    3.0981   448.7    1.000       5.283
2015    6       26    15  17    3.0994   448.2    1.000       5.313
2015    6       26    15  24    3.1007   447.7    1.000       5.343
2015    6       26    15  30    3.1019   447.2    1.000       5.373
2015    6       26    15  36    3.1032   446.7    1.000       5.404
2015    6       26    15  42    3.1044   446.3    1.000       5.434
2015    6       26    15  49    3.1057   445.8    1.000       5.465
2015    6       26    15  55    3.1069   445.3    1.000       5.496
2015    6       26    16   1    3.1081   444.8    1.000       5.527
2015    6       26    16   8    3.1093   444.3    1.000       5.559
2015    6       26    16  14    3.1105   443.8    1.000       5.590
2015    6       26    16  20    3.1116   443.4    1.000       5.622
2015    6       26    16  26    3.1128   442.9    1.000       5.654
2015    6       26    16  33    3.1139   442.4    1.000       5.686
2015    6       26    16  39    3.1151   442.0    1.000       5.718
2015    6       26    16  45    3.1162   441.5    1.000       5.751
2015    6       26    16  51    3.1173   441.0    1.000       5.783
2015    6       26    16  58    3.1184   440.5    1.000       5.816
2015    6       26    17   4    3.1195   440.1    1.000       5.848
2015    6       26    17  10    3.1206   439.6    1.000       5.881
2015    6       26    17  17    3.1217   439.2    1.000       5.914
2015    6       26    17  23    3.1227   438.7    1.000       5.947
2015    6       26    17  29    3.1238   438.2    1.000       5.980
2015    6       26    17  35    3.1248   437.8    1.000       6.013
2015    6       26    17  42    3.1258   437.3    1.000       6.047
2015    6       26    17  48    3.1269   436.9    1.000       6.080
2015    6       26    17  54    3.1279   436.4    1.000       6.113
2015    6       26    18   1    3.1288   436.0    1.000       6.147
2015    6       26    18   7    3.1298   435.5    1.000       6.180
2015    6       26    18  13    3.1308   435.1    1.000       6.214
2015    6       26    18  19    3.1317   434.6    1.000       6.248
2015    6       26    18  26    3.1327   434.2    1.000       6.281
2015    6       26    18  32    3.1336   433.7    1.000       6.315
2015    6       26    18  38    3.1345   433.3    1.000       6.349
2015    6       26    18  45    3.1355   432.8    1.000       6.383
2015    6       26    18  51    3.1364   432.4    1.000       6.416
2015    6       26    18  57    3.1372   432.0    1.000       6.450
2015    6       26    19   3    3.1381   431.5    1.000       6.484
2015    6       26    19  10    3.1390   431.1    1.000       6.518
2015    6       26    19  16    3.1398   430.7    1.000       6.552
2015    6       26    19  22    3.1407   430.2    1.000       6.586
2015    6       26    19  29    3.1415   429.8    1.000       6.620
2015    6       26    19  35    3.1423   429.4    1.000       6.653
2015    6       26    19  41    3.1432   428.9    1.000       6.687
2015    6       26    19  47    3.1440   428.5    1.000       6.721
2015    6       26    19  54    3.1448   428.1    1.000       6.755
2015    6       26    20   0    3.1455   427.7    1.000       6.789
2015    6       26    20   6    3.1463   427.2    1.000       6.823
2015    6       26    20  12    3.1471   426.8    1.000       6.856
2015    6       26    20  19    3.1478   426.4    1.000       6.890
2015    6       26    20  25    3.1486   426.0    1.000       6.924
2015    6       26    20  31    3.1493   425.6    1.000       6.958
2015    6       26    20  38    3.1500   425.2    1.000       6.991
2015    6       26    20  44    3.1507   424.8    1.000       7.025
2015    6       26    20  50    3.1514   424.3    1.000       7.058
2015    6       26    20  56    3.1521   423.9    1.000       7.092
2015    6       26    21   3    3.1528   423.5    1.000       7.125
2015    6       26    21   9    3.1535   423.1    1.000       7.159
2015    6       26    21  15    3.1542   422.7    1.000       7.192
2015    6       26    21  21    3.1548   422.3    1.000       7.225
2015    6       26    21  28    3.1555   421.9    1.000       7.259
2015    6       26    21  34    3.1561   421.5    1.000       7.292
2015    6       26    21  40    3.1567   421.1    1.000       7.325
2015    6       26    21  47    3.1574   420.8    1.000       7.358
2015    6       26    21  53    3.1580   420.4    1.000       7.391
2015    6       26    21  59    3.1586   420.0    1.000       7.424
2015    6       26    22   5    3.1592   419.6    1.000       7.457
2015    6       26    22  12    3.1598   419.2    1.000       7.489
2015    6       26    22  18    3.1604   418.8    1.000       7.522
2015    6       26    22  24    3.1609   418.4    1.000       7.555
2015    6       26    22  30    3.1615   418.1    1.000       7.587
2015    6       26    22  37    3.1621   417.7    1.000       7.619
2015    6       26    22  43    3.1626   417.3    1.000       7.652
2015    6       26    22  49    3.1632   416.9    1.000       7.684
2015    6       26    22  55    3.1637   416.5    1.000       7.716
2015    6       26    23   2    3.1642   416.2    1.000       7.748
2015    6       26    23   8    3.1648   415.8    1.000       7.780
2015    6       26    23  14    3.1653   415.4    1.000       7.811
2015    6       26    23  21    3.1658   415.1    1.000       7.843
2015    6       26    23  27    3.1663   414.7    1.000       7.875
2015    6       26    23  33    3.1668   414.3    1.000       7.906
2015    6       26    23  39    3.1673   413.9    1.000       7.938
2015    6       26    23  46    3.1678   413.6    1.000       7.969
2015    6       26    23  52    3.1682   413.2    1.000       8.000
2015    6       26    23  58    3.1687   412.9    1.000       8.031
2015    6       27     0   4    3.1692   412.5    1.000       8.062
2015    6       27     0  11    3.1696   412.1    1.000       8.093
2015    6       27     0  17    3.1701   411.8    1.000       8.124
2015    6       27     0  23    3.1705   411.4    1.000       8.154
2015    6       27     0  30    3.1710   411.1    1.000       8.185
2015    6       27     0  36    3.1714   410.7    1.000       8.215
2015    6       27     0  42    3.1719   410.3    1.000       8.246
2015    6       27     0  48    3.1723   410.0    1.000       8.276
2015    6       27     0  55    3.1727   409.6    1.000       8.306
2015    6       27     1   1    3.1731   409.3    1.000       8.336
2015    6       27     1   7    3.1736   408.9    1.000       8.366
2015    6       27     1  14    3.1740   408.6    1.000       8.396
2015    6       27     1  20    3.1744   408.2    1.000       8.426
2015    6       27     1  26    3.1748   407.9    1.000       8.455
2015    6       27     1  32    3.1752   407.5    1.000       8.485
2015    6       27     1  39    3.1756   407.2    1.000       8.514
2015    6       27     1  45    3.1760   406.8    1.000       8.544
2015    6       27     1  51    3.1764   406.5    1.000       8.573
2015    6       27     1  58    3.1767   406.2    1.000       8.603
2015    6       27     2   4    3.1771   405.8    1.000       8.632
2015    6       27     2  10    3.1775   405.5    1.000       8.661
2015    6       27     2  16    3.1779   405.1    1.000       8.690
2015    6       27     2  23    3.1782   404.8    1.000       8.719
2015    6       27     2  29    3.1786   404.5    1.000       8.748
2015    6       27     2  35    3.1790   404.1    1.000       8.777
2015    6       27     2  41    3.1793   403.8    1.000       8.806
2015    6       27     2  48    3.1797   403.4    1.000       8.834
2015    6       27     2  54    3.1801   403.1    1.000       8.863
2015    6       27     3   0    3.1804   402.8    1.000       8.892
2015    6       27     3   7    3.1808   402.4    1.000       8.920
2015    6       27     3  13    3.1811   402.1    1.000       8.949
2015    6       27     3  19    3.1815   401.8    1.000       8.977
2015    6       27     3  25    3.1818   401.4    1.000       9.006
2015    6       27     3  32    3.1822   401.1    1.000       9.034
2015    6       27     3  38    3.1825   400.8    1.000       9.062
2015    6       27     3  44    3.1828   400.5    1.000       9.091
2015    6       27     3  51    3.1832   400.1    1.000       9.119
2015    6       27     3  57    3.1835   399.8    1.000       9.147
2015    6       27     4   3    3.1838   399.5    1.000       9.175
2015    6       27     4   9    3.1841   399.2    1.000       9.203
2015    6       27     4  16    3.1845   398.8    1.000       9.232
2015    6       27     4  22    3.1848   398.5    1.001       9.260
2015    6       27     4  28    3.1851   398.2    1.011       9.288
2015    6       27     4  34    3.1854   397.9    1.022       9.316
2015    6       27     4  41    3.1857   397.5    1.033       9.343
2015    6       27     4  47    3.1860   397.2    1.043       9.371
2015    6       27     4  53    3.1863   396.9    1.054       9.399
2015    6       27     4  59    3.1866   396.6    1.065       9.427
2015    6       27     5   6    3.1869   396.3    1.076       9.455
2015    6       27     5  12    3.1872   396.0    1.087       9.483
2015    6       27     5  18    3.1875   395.6    1.099       9.510
2015    6       27     5  25    3.1878   395.3    1.110       9.538
2015    6       27     5  31    3.1881   395.0    1.121       9.566
2015    6       27     5  37    3.1884   394.7    1.133       9.593
2015    6       27     5  43    3.1887   394.4    1.144       9.621
2015    6       27     5  50    3.1890   394.1    1.156       9.648
2015    6       27     5  56    3.1892   393.8    1.168       9.676
2015    6       27     6   2    3.1895   393.5    1.179       9.704
2015    6       27     6   8    3.1898   393.1    1.191       9.731
2015    6       27     6  15    3.1901   392.8    1.203       9.758
2015    6       27     6  21    3.1903   392.5    1.216       9.786
2015    6       27     6  27    3.1906   392.2    1.228       9.813
2015    6       27     6  33    3.1909   391.9    1.240       9.841
2015    6       27     6  40    3.1912   391.6    1.252       9.868
2015    6       27     6  46    3.1914   391.3    1.265       9.895
2015    6       27     6  52    3.1917   391.0    1.278       9.922
2015    6       27     6  59    3.1920   390.7    1.290       9.950
2015    6       27     7   5    3.1922   390.4    1.303       9.977
2015    6       27     7  11    3.1925   390.1    1.316      10.004
2015    6       27     7  17    3.1928   389.8    1.329      10.031
2015    6       27     7  24    3.1930   389.5    1.342      10.058
2015    6       27     7  30    3.1933   389.2    1.355      10.085
2015    6       27     7  36    3.1936   388.9    1.368      10.112
2015    6       27     7  42    3.1938   388.6    1.382      10.139
2015    6       27     7  49    3.1941   388.3    1.395      10.166
2015    6       27     7  55    3.1944   388.0    1.409      10.193
2015    6       27     8   1    3.1946   387.7    1.422      10.220
2015    6       27     8   8    3.1949   387.4    1.436      10.247
2015    6       27     8  14    3.1951   387.1    1.450      10.273
2015    6       27     8  20    3.1954   386.8    1.464      10.300
2015    6       27     8  26    3.1957   386.5    1.478      10.327
2015    6       27     8  33    3.1959   386.3    1.492      10.354
2015    6       27     8  39    3.1962   386.0    1.506      10.380
2015    6       27     8  45    3.1964   385.7    1.521      10.407
2015    6       27     8  52    3.1967   385.4    1.535      10.434
2015    6       27     8  58    3.1969   385.1    1.550      10.460
2015    6       27     9   4    3.1972   384.8    1.564      10.487
2015    6       27     9  10    3.1974   384.5    1.579      10.513
2015    6       27     9  17    3.1977   384.2    1.594      10.540
2015    6       27     9  23    3.1980   383.9    1.609      10.566
2015    6       27     9  29    3.1982   383.7    1.623      10.593
2015    6       27     9  36    3.1985   383.4    1.639      10.619
2015    6       27     9  42    3.1987   383.1    1.654      10.646
2015    6       27     9  48    3.1990   382.8    1.669      10.672
2015    6       27     9  54    3.1992   382.5    1.684      10.699
2015    6       27    10   1    3.1995   382.2    1.699      10.725
2015    6       27    10   7    3.1997   382.0    1.715      10.752
2015    6       27    10  13    3.2000   381.7    1.731      10.778
2015    6       27    10  19    3.2003   381.4    1.746      10.804
2015    6       27    10  26    3.2005   381.1    1.762      10.831
2015    6       27    10  32    3.2008   380.8    1.778      10.857
2015    6       27    10  38    3.2010   380.6    1.794      10.883
2015    6       27    10  45    3.2013   380.3    1.810      10.910
2015    6       27    10  51    3.2015   380.0    1.826      10.936
2015    6       27    10  57    3.2018   379.7    1.842      10.963
2015    6       27    11   3    3.2021   379.5    1.858      10.989
2015    6       27    11  10    3.2023   379.2    1.874      11.016
2015    6       27    11  16    3.2026   378.9    1.891      11.042
2015    6       27    11  22    3.2028   378.6    1.907      11.069
2015    6       27    11  28    3.2031   378.4    1.924      11.096
2015    6       27    11  35    3.2034   378.1    1.940      11.122
2015    6       27    11  41    3.2036   377.8    1.957      11.149
2015    6       27    11  47    3.2039   377.6    1.974      11.176
2015    6       27    11  54    3.2042   377.3    1.991      11.203
2015    6       27    12   0    3.2045   377.0    2.008      11.229
2015    6       27    12   6    3.2047   376.7    2.025      11.256
2015    6       27    12  12    3.2050   376.5    2.042      11.283
2015    6       27    12  19    3.2053   376.2    2.060      11.310
2015    6       27    12  25    3.2056   375.9    2.077      11.338
2015    6       27    12  31    3.2058   375.7    2.094      11.365
2015    6       27    12  37    3.2061   375.4    2.112      11.392
2015    6       27    12  44    3.2064   375.1    2.130      11.419
2015    6       27    12  50    3.2067   374.9    2.147      11.447
2015    6       27    12  56    3.2070   374.6    2.165      11.475
2015    6       27    13   2    3.2073   374.4    2.183      11.502
2015    6       27    13   9    3.2076   374.1    2.201      11.530
2015    6       27    13  15    3.2079   373.8    2.220      11.558
2015    6       27    13  21    3.2082   373.6    2.238      11.586
2015    6       27    13  27    3.2085   373.3    2.256      11.614
2015    6       27    13  34    3.2088   373.0    2.275      11.643
2015    6       27    13  40    3.2092   372.8    2.293      11.671
2015    6       27    13  46    3.2095   372.5    2.312      11.700
2015    6       27    13  53    3.2098   372.3    2.331      11.728
2015    6       27    13  59    3.2101   372.0    2.350      11.757
2015    6       27    14   5    3.2104   371.8    2.369      11.786
2015    6       27    14  11    3.2108   371.5    2.388      11.815
2015    6       27    14  18    3.2111   371.2    2.407      11.844
2015    6       27    14  24    3.2115   371.0    2.426      11.873
2015    6       27    14  30    3.2118   370.7    2.446      11.903
2015    6       27    14  36    3.2121   370.5    2.465      11.932
2015    6       27    14  43    3.2125   370.2    2.485      11.962
2015    6       27    14  49    3.2128   370.0    2.505      11.992
2015    6       27    14  55    3.2132   369.7    2.525      12.022
2015    6       27    15   2    3.2136   369.5    2.545      12.052
2015    6       27    15   8    3.2139   369.2    2.565      12.083
2015    6       27    15  14    3.2143   369.0    2.585      12.113
2015    6       27    15  20    3.2147   368.7    2.605      12.144
2015    6       27    15  27    3.2151   368.5    2.626      12.175
2015    6       27    15  33    3.2155   368.2    2.647      12.206
2015    6       27    15  39    3.2159   368.0    2.667      12.236
2015    6       27    15  45    3.2163   367.7    2.688      12.268
2015    6       27    15  52    3.2167   367.5    2.709      12.299
2015    6       27    15  58    3.2171   367.3    2.730      12.331
2015    6       27    16   4    3.2175   367.0    2.751      12.362
2015    6       27    16  11    3.2179   366.8    2.772      12.394
2015    6       27    16  17    3.2183   366.5    2.794      12.426
2015    6       27    16  23    3.2188   366.3    2.815      12.458
2015    6       27    16  29    3.2192   366.0    2.836      12.491
2015    6       27    16  36    3.2196   365.8    2.858      12.523
2015    6       27    16  42    3.2201   365.6    2.880      12.556
2015    6       27    16  48    3.2205   365.3    2.902      12.588
2015    6       27    16  55    3.2210   365.1    2.924      12.621
2015    6       27    17   1    3.2215   364.8    2.946      12.654
2015    6       27    17   7    3.2220   364.6    2.968      12.687
2015    6       27    17  13    3.2225   364.4    2.990      12.721
2015    6       27    17  20    3.2230   364.1    3.013      12.754
2015    6       27    17  26    3.2235   363.9    3.035      12.788
2015    6       27    17  32    3.2240   363.7    3.058      12.822
2015    6       27    17  39    3.2245   363.4    3.080      12.856
2015    6       27    17  45    3.2250   363.2    3.103      12.890
2015    6       27    17  51    3.2256   363.0    3.126      12.924
2015    6       27    17  57    3.2261   362.7    3.149      12.959
2015    6       27    18   4    3.2267   362.5    3.172      12.994
2015    6       27    18  10    3.2273   362.3    3.195      13.028
2015    6       27    18  16    3.2278   362.0    3.218      13.064
2015    6       27    18  22    3.2284   361.8    3.242      13.099
2015    6       27    18  29    3.2290   361.6    3.265      13.134
2015    6       27    18  35    3.2296   361.4    3.289      13.170
2015    6       27    18  41    3.2302   361.1    3.313      13.206
2015    6       27    18  48    3.2309   360.9    3.336      13.242
2015    6       27    18  54    3.2315   360.7    3.360      13.278
2015    6       27    19   0    3.2322   360.4    3.384      13.314
2015    6       27    19   6    3.2329   360.2    3.409      13.351
2015    6       27    19  13    3.2335   360.0    3.433      13.388
2015    6       27    19  19    3.2342   359.8    3.457      13.425
2015    6       27    19  25    3.2349   359.5    3.482      13.462
2015    6       27    19  31    3.2357   359.3    3.506      13.500
2015    6       27    19  38    3.2364   359.1    3.531      13.538
2015    6       27    19  44    3.2371   358.9    3.556      13.576
2015    6       27    19  50    3.2379   358.7    3.581      13.614
2015    6       27    19  56    3.2387   358.4    3.606      13.653
2015    6       27    20   3    3.2394   358.2    3.631      13.691
2015    6       27    20   9    3.2402   358.0    3.656      13.730
2015    6       27    20  15    3.2411   357.8    3.681      13.770
2015    6       27    20  21    3.2419   357.6    3.707      13.809
2015    6       27    20  28    3.2427   357.4    3.732      13.849
2015    6       27    20  34    3.2436   357.1    3.758      13.889
2015    6       27    20  40    3.2445   356.9    3.784      13.929
2015    6       27    20  47    3.2453   356.7    3.810      13.970
2015    6       27    20  53    3.2462   356.5    3.836      14.011
2015    6       27    20  59    3.2471   356.3    3.862      14.052
2015    6       27    21   5    3.2481   356.1    3.888      14.093
2015    6       27    21  12    3.2490   355.9    3.915      14.134
2015    6       27    21  18    3.2500   355.7    3.941      14.176
2015    6       27    21  24    3.2510   355.5    3.968      14.218
2015    6       27    21  30    3.2519   355.3    3.994      14.261
2015    6       27    21  37    3.2529   355.1    4.021      14.303
2015    6       27    21  43    3.2540   354.9    4.048      14.346
2015    6       27    21  49    3.2550   354.7    4.075      14.389
2015    6       27    21  56    3.2560   354.5    4.102      14.432
2015    6       27    22   2    3.2571   354.3    4.129      14.476
2015    6       27    22   8    3.2582   354.1    4.156      14.519
2015    6       27    22  14    3.2592   353.9    4.183      14.563
2015    6       27    22  21    3.2603   353.7    4.211      14.607
2015    6       27    22  27    3.2615   353.5    4.238      14.651
2015    6       27    22  33    3.2626   353.3    4.265      14.696
2015    6       27    22  39    3.2637   353.1    4.293      14.741
2015    6       27    22  46    3.2649   352.9    4.320      14.785
2015    6       27    22  52    3.2661   352.7    4.348      14.830
2015    6       27    22  58    3.2673   352.5    4.376      14.876
2015    6       27    23   5    3.2685   352.3    4.403      14.921
2015    6       27    23  11    3.2697   352.1    4.431      14.967
2015    6       27    23  17    3.2709   351.9    4.459      15.012
2015    6       27    23  23    3.2721   351.7    4.486      15.058
2015    6       27    23  30    3.2734   351.5    4.514      15.104
2015    6       27    23  36    3.2747   351.3    4.542      15.151
2015    6       27    23  42    3.2759   351.2    4.570      15.197
2015    6       27    23  49    3.2772   351.0    4.598      15.244
2015    6       27    23  55    3.2786   350.8    4.626      15.290
2015    6       28     0   1    3.2799   350.6    4.653      15.337
2015    6       28     0   7    3.2813   350.4    4.681      15.384
2015    6       28     0  14    3.2826   350.2    4.709      15.431
2015    6       28     0  20    3.2840   350.0    4.737      15.479
2015    6       28     0  26    3.2854   349.9    4.765      15.526
2015    6       28     0  33    3.2868   349.7    4.792      15.574
2015    6       28     0  39    3.2882   349.5    4.820      15.621
2015    6       28     0  45    3.2896   349.3    4.848      15.669
2015    6       28     0  51    3.2911   349.1    4.876      15.717
2015    6       28     0  58    3.2926   348.9    4.903      15.765
2015    6       28     1   4    3.2941   348.8    4.931      15.814
2015    6       28     1  10    3.2956   348.6    4.959      15.862
2015    6       28     1  16    3.2971   348.4    4.986      15.911
2015    6       28     1  23    3.2986   348.2    5.014      15.959
2015    6       28     1  29    3.3002   348.0    5.042      16.008
2015    6       28     1  35    3.3018   347.9    5.069      16.057
2015    6       28     1  42    3.3034   347.7    5.097      16.106
2015    6       28     1  48    3.3050   347.5    5.124      16.155
2015    6       28     1  54    3.3066   347.3    5.152      16.205
2015    6       28     2   0    3.3083   347.2    5.179      16.254
2015    6       28     2   7    3.3099   347.0    5.206      16.304
2015    6       28     2  13    3.3116   346.8    5.234      16.354
2015    6       28     2  19    3.3133   346.6    5.261      16.403
2015    6       28     2  25    3.3151   346.5    5.288      16.453
2015    6       28     2  32    3.3168   346.3    5.315      16.503
2015    6       28     2  38    3.3186   346.1    5.343      16.553
2015    6       28     2  44    3.3204   345.9    5.370      16.604
2015    6       28     2  50    3.3222   345.8    5.397      16.654
2015    6       28     2  57    3.3240   345.6    5.424      16.704
2015    6       28     3   3    3.3259   345.4    5.451      16.755
2015    6       28     3   9    3.3277   345.3    5.478      16.806
2015    6       28     3  16    3.3296   345.1    5.505      16.856
2015    6       28     3  22    3.3316   344.9    5.532      16.907
2015    6       28     3  28    3.3335   344.8    5.559      16.958
2015    6       28     3  34    3.3355   344.6    5.586      17.009
2015    6       28     3  41    3.3374   344.4    5.612      17.060
2015    6       28     3  47    3.3394   344.2    5.639      17.111
2015    6       28     3  53    3.3415   344.1    5.666      17.163
2015    6       28     3  59    3.3435   343.9    5.693      17.214
2015    6       28     4   6    3.3456   343.7    5.720      17.265
2015    6       28     4  12    3.3477   343.6    5.746      17.317
2015    6       28     4  18    3.3498   343.4    5.773      17.369
2015    6       28     4  24    3.3520   343.2    5.800      17.420
2015    6       28     4  31    3.3542   343.1    5.827      17.472
2015    6       28     4  37    3.3563   342.9    5.853      17.524
2015    6       28     4  43    3.3586   342.7    5.880      17.576
2015    6       28     4  49    3.3609   342.6    5.907      17.628
2015    6       28     4  56    3.3631   342.4    5.934      17.681
2015    6       28     5   2    3.3655   342.2    5.961      17.733
2015    6       28     5   8    3.3678   342.1    5.988      17.786
2015    6       28     5  15    3.3702   341.9    6.015      17.839
2015    6       28     5  21    3.3726   341.7    6.042      17.892
2015    6       28     5  27    3.3751   341.6    6.070      17.945
2015    6       28     5  33    3.3775   341.4    6.097      17.999
2015    6       28     5  40    3.3801   341.3    6.124      18.052
2015    6       28     5  46    3.3826   341.1    6.152      18.106
2015    6       28     5  52    3.3852   340.9    6.180      18.160
2015    6       28     5  59    3.3878   340.8    6.207      18.214
2015    6       28     6   5    3.3905   340.6    6.235      18.269
2015    6       28     6  11    3.3932   340.4    6.263      18.323
2015    6       28     6  17    3.3959   340.3    6.291      18.378
2015    6       28     6  24    3.3987   340.1    6.320      18.434
2015    6       28     6  30    3.4015   340.0    6.348      18.489
2015    6       28     6  36    3.4043   339.8    6.377      18.545
2015    6       28     6  42    3.4072   339.7    6.405      18.600
2015    6       28     6  49    3.4102   339.5    6.434      18.657
2015    6       28     6  55    3.4131   339.4    6.463      18.713
2015    6       28     7   1    3.4161   339.2    6.493      18.769
2015    6       28     7   8    3.4192   339.0    6.522      18.826
2015    6       28     7  14    3.4222   338.9    6.551      18.883
2015    6       28     7  20    3.4253   338.7    6.581      18.940
2015    6       28     7  26    3.4285   338.6    6.611      18.997
2015    6       28     7  33    3.4316   338.4    6.641      19.054
2015    6       28     7  39    3.4349   338.3    6.671      19.112
2015    6       28     7  45    3.4381   338.1    6.701      19.169
2015    6       28     7  52    3.4414   338.0    6.731      19.227
2015    6       28     7  58    3.4447   337.9    6.762      19.285
2015    6       28     8   4    3.4480   337.7    6.792      19.343
2015    6       28     8  10    3.4514   337.6    6.823      19.401
2015    6       28     8  17    3.4548   337.4    6.854      19.460
2015    6       28     8  23    3.4583   337.3    6.885      19.518
2015    6       28     8  29    3.4617   337.1    6.916      19.576
2015    6       28     8  36    3.4652   337.0    6.947      19.635
2015    6       28     8  42    3.4687   336.9    6.978      19.693
2015    6       28     8  48    3.4723   336.7    7.010      19.751
2015    6       28     8  54    3.4758   336.6    7.041      19.810
2015    6       28     9   1    3.4794   336.4    7.072      19.868
2015    6       28     9   7    3.4831   336.3    7.104      19.927
2015    6       28     9  13    3.4867   336.2    7.135      19.985
2015    6       28     9  19    3.4904   336.0    7.167      20.043
2015    6       28     9  26    3.4940   335.9    7.199      20.101
2015    6       28     9  32    3.4977   335.7    7.231      20.159
2015    6       28     9  38    3.5015   335.6    7.262      20.217
2015    6       28     9  44    3.5052   335.5    7.294      20.275
2015    6       28     9  51    3.5090   335.3    7.326      20.333
2015    6       28     9  57    3.5128   335.2    7.358      20.391
2015    6       28    10   3    3.5166   335.1    7.390      20.448
2015    6       28    10  10    3.5204   334.9    7.421      20.506
2015    6       28    10  16    3.5242   334.8    7.453      20.563
2015    6       28    10  22    3.5281   334.6    7.485      20.620
2015    6       28    10  28    3.5319   334.5    7.517      20.678
2015    6       28    10  35    3.5358   334.4    7.549      20.735
2015    6       28    10  41    3.5397   334.2    7.581      20.791
2015    6       28    10  47    3.5436   334.1    7.613      20.848
2015    6       28    10  53    3.5476   334.0    7.644      20.904
2015    6       28    11   0    3.5515   333.8    7.676      20.961
2015    6       28    11   6    3.5555   333.7    7.708      21.017
2015    6       28    11  12    3.5595   333.6    7.740      21.073
2015    6       28    11  18    3.5635   333.4    7.772      21.129
2015    6       28    11  25    3.5675   333.3    7.804      21.184
2015    6       28    11  31    3.5715   333.1    7.835      21.240
2015    6       28    11  37    3.5756   333.0    7.867      21.295
2015    6       28    11  43    3.5797   332.9    7.899      21.351
2015    6       28    11  50    3.5838   332.7    7.931      21.406
2015    6       28    11  56    3.5880   332.6    7.963      21.461
2015    6       28    12   2    3.5922   332.5    7.995      21.516
2015    6       28    12   9    3.5963   332.3    8.027      21.571
2015    6       28    12  15    3.6006   332.2    8.059      21.626
2015    6       28    12  21    3.6048   332.0    8.092      21.681
2015    6       28    12  27    3.6092   331.9    8.124      21.736
2015    6       28    12  34    3.6135   331.7    8.156      21.791
2015    6       28    12  40    3.6179   331.6    8.189      21.846
2015    6       28    12  46    3.6223   331.5    8.222      21.901
2015    6       28    12  52    3.6268   331.3    8.255      21.956
2015    6       28    12  59    3.6313   331.2    8.288      22.011
2015    6       28    13   5    3.6359   331.0    8.322      22.067
2015    6       28    13  11    3.6406   330.9    8.356      22.123
2015    6       28    13  18    3.6453   330.7    8.390      22.179
2015    6       28    13  24    3.6501   330.6    8.424      22.235
2015    6       28    13  30    3.6549   330.5    8.459      22.292
2015    6       28    13  36    3.6599   330.3    8.494      22.349
2015    6       28    13  43    3.6649   330.2    8.530      22.407
2015    6       28    13  49    3.6700   330.0    8.566      22.465
2015    6       28    13  55    3.6751   329.9    8.603      22.523
2015    6       28    14   2    3.6804   329.8    8.640      22.582
2015    6       28    14   8    3.6858   329.6    8.677      22.642
2015    6       28    14  14    3.6913   329.5    8.716      22.702
2015    6       28    14  20    3.6969   329.4    8.755      22.763
2015    6       28    14  27    3.7025   329.2    8.794      22.824
2015    6       28    14  33    3.7084   329.1    8.835      22.886
2015    6       28    14  39    3.7143   329.0    8.876      22.948
2015    6       28    14  46    3.7204   328.9    8.917      23.012
2015    6       28    14  52    3.7265   328.7    8.959      23.077
2015    6       28    14  58    3.7329   328.6    9.002      23.142
2015    6       28    15   4    3.7393   328.5    9.045      23.209
2015    6       28    15  11    3.7459   328.4    9.088      23.277
2015    6       28    15  17    3.7526   328.3    9.132      23.347
2015    6       28    15  23    3.7595   328.2    9.176      23.418
2015    6       28    15  29    3.7665   328.1    9.220      23.491
2015    6       28    15  36    3.7737   328.0    9.264      23.566
2015    6       28    15  42    3.7809   327.9    9.308      23.642
2015    6       28    15  48    3.7884   327.9    9.351      23.720
2015    6       28    15  55    3.7959   327.8    9.395      23.798
2015    6       28    16   1    3.8036   327.7    9.439      23.878
2015    6       28    16   7    3.8114   327.6    9.482      23.958
2015    6       28    16  13    3.8194   327.6    9.524      24.039
2015    6       28    16  20    3.8275   327.5    9.566      24.121
2015    6       28    16  26    3.8357   327.4    9.608      24.203
2015    6       28    16  32    3.8441   327.4    9.649      24.285
2015    6       28    16  38    3.8526   327.3    9.690      24.368
2015    6       28    16  45    3.8612   327.2    9.730      24.450
2015    6       28    16  51    3.8699   327.2    9.770      24.532
2015    6       28    16  57    3.8787   327.1    9.809      24.613
2015    6       28    17   4    3.8877   327.1    9.848      24.694
2015    6       28    17  10    3.8968   327.0    9.886      24.774
2015    6       28    17  16    3.9060   326.9    9.924      24.853
2015    6       28    17  22    3.9153   326.9    9.961      24.931
2015    6       28    17  29    3.9248   326.8    9.998      25.007
2015    6       28    17  35    3.9343   326.8   10.035      25.083
2015    6       28    17  41    3.9440   326.7   10.071      25.157
2015    6       28    17  47    3.9538   326.7   10.107      25.230
2015    6       28    17  54    3.9638   326.6   10.143      25.302
2015    6       28    18   0    3.9738   326.5   10.178      25.373
2015    6       28    18   6    3.9840   326.5   10.214      25.444
2015    6       28    18  12    3.9942   326.4   10.249      25.513
2015    6       28    18  19    4.0046   326.4   10.284      25.581
2015    6       28    18  25    4.0151   326.3   10.318      25.648
2015    6       28    18  31    4.0258   326.3   10.353      25.715
2015    6       28    18  37    4.0365   326.2   10.387      25.781
2015    6       28    18  44    4.0474   326.2   10.421      25.846
2015    6       28    18  50    4.0584   326.1   10.455      25.910
2015    6       28    18  56    4.0695   326.1   10.489      25.973
2015    6       28    19   3    4.0807   326.0   10.523      26.035
2015    6       28    19   9    4.0921   326.0   10.557      26.097
2015    6       28    19  15    4.1035   325.9   10.590      26.158
2015    6       28    19  21    4.1151   325.9   10.624      26.218
2015    6       28    19  28    4.1267   325.8   10.657      26.278
2015    6       28    19  34    4.1386   325.8   10.691      26.337
2015    6       28    19  40    4.1504   325.7   10.724      26.395
2015    6       28    19  46    4.1624   325.7   10.757      26.453
2015    6       28    19  53    4.1745   325.6   10.790      26.510
2015    6       28    19  59    4.1867   325.6   10.823      26.567
2015    6       28    20   5    4.1990   325.5   10.856      26.622
2015    6       28    20  12    4.2114   325.5   10.889      26.678
2015    6       28    20  18    4.2239   325.4   10.922      26.732
2015    6       28    20  24    4.2365   325.4   10.956      26.787
2015    6       28    20  30    4.2492   325.3   10.989      26.840
2015    6       28    20  37    4.2620   325.3   11.022      26.894
2015    6       28    20  43    4.2748   325.2   11.055      26.947
2015    6       28    20  49    4.2878   325.2   11.089      26.999
2015    6       28    20  55    4.3009   325.2   11.123      27.052
2015    6       28    21   2    4.3142   325.1   11.157      27.104
2015    6       28    21   8    4.3275   325.1   11.191      27.156
2015    6       28    21  14    4.3410   325.0   11.226      27.208
2015    6       28    21  21    4.3545   325.0   11.261      27.260
2015    6       28    21  27    4.3682   324.9   11.297      27.312
2015    6       28    21  33    4.3819   324.9   11.333      27.364
2015    6       28    21  39    4.3959   324.9   11.370      27.416
2015    6       28    21  46    4.4098   324.8   11.407      27.468
2015    6       28    21  52    4.4239   324.8   11.444      27.521
2015    6       28    21  58    4.4381   324.8   11.483      27.575
2015    6       28    22   5    4.4525   324.7   11.521      27.630
2015    6       28    22  11    4.4669   324.7   11.560      27.686
2015    6       28    22  17    4.4815   324.7   11.600      27.745
2015    6       28    22  23    4.4961   324.7   11.640      27.805
2015    6       28    22  30    4.5109   324.7   11.681      27.866
2015    6       28    22  36    4.5257   324.7   11.723      27.929
2015    6       28    22  42    4.5406   324.6   11.764      27.994
2015    6       28    22  49    4.5555   324.6   11.807      28.059
2015    6       28    22  55    4.5705   324.6   11.849      28.127
2015    6       28    23   1    4.5855   324.7   11.891      28.197
2015    6       28    23   7    4.6005   324.7   11.934      28.267
2015    6       28    23  14    4.6155   324.7   11.976      28.341
2015    6       28    23  20    4.6305   324.7   12.018      28.416
2015    6       28    23  26    4.6455   324.7   12.060      28.493
2015    6       28    23  32    4.6605   324.8   12.102      28.573
2015    6       28    23  39    4.6754   324.8   12.144      28.654
2015    6       28    23  45    4.6904   324.9   12.185      28.736
2015    6       28    23  51    4.7052   324.9   12.225      28.820
2015    6       28    23  58    4.7201   324.9   12.265      28.905
2015    6       29     0   4    4.7348   325.0   12.305      28.991
2015    6       29     0  10    4.7496   325.1   12.344      29.078
2015    6       29     0  16    4.7641   325.1   12.382      29.165
2015    6       29     0  23    4.7787   325.2   12.420      29.252
2015    6       29     0  29    4.7932   325.3   12.456      29.340
2015    6       29     0  35    4.8077   325.3   12.492      29.427
2015    6       29     0  41    4.8220   325.4   12.528      29.515
2015    6       29     0  48    4.8363   325.5   12.562      29.602
2015    6       29     0  54    4.8506   325.6   12.596      29.690
2015    6       29     1   0    4.8648   325.6   12.629      29.777
2015    6       29     1   6    4.8788   325.7   12.662      29.863
2015    6       29     1  13    4.8929   325.8   12.694      29.948
2015    6       29     1  19    4.9068   325.9   12.725      30.032
2015    6       29     1  25    4.9207   326.0   12.756      30.115
2015    6       29     1  31    4.9345   326.0   12.786      30.198
2015    6       29     1  38    4.9482   326.1   12.815      30.279
2015    6       29     1  44    4.9617   326.2   12.844      30.359
2015    6       29     1  50    4.9752   326.3   12.872      30.438
2015    6       29     1  56    4.9886   326.4   12.899      30.517
2015    6       29     2   3    5.0019   326.5   12.926      30.594
2015    6       29     2   9    5.0150   326.6   12.953      30.670
2015    6       29     2  15    5.0281   326.7   12.979      30.745
2015    6       29     2  22    5.0410   326.8   13.004      30.819
2015    6       29     2  28    5.0539   326.9   13.029      30.892
2015    6       29     2  34    5.0666   326.9   13.053      30.964
2015    6       29     2  40    5.0792   327.0   13.077      31.035
2015    6       29     2  47    5.0916   327.1   13.100      31.104
2015    6       29     2  53    5.1040   327.2   13.123      31.173
2015    6       29     2  59    5.1162   327.3   13.145      31.241
2015    6       29     3   5    5.1283   327.4   13.167      31.308
2015    6       29     3  12    5.1403   327.5   13.189      31.374
2015    6       29     3  18    5.1523   327.5   13.210      31.439
2015    6       29     3  24    5.1640   327.6   13.231      31.503
2015    6       29     3  31    5.1758   327.7   13.252      31.567
2015    6       29     3  37    5.1874   327.8   13.272      31.630
2015    6       29     3  43    5.1989   327.9   13.293      31.692
2015    6       29     3  49    5.2103   328.0   13.313      31.754
2015    6       29     3  56    5.2216   328.0   13.332      31.815
2015    6       29     4   2    5.2328   328.1   13.352      31.875
2015    6       29     4   8    5.2439   328.2   13.372      31.935
2015    6       29     4  15    5.2548   328.3   13.392      31.994
2015    6       29     4  21    5.2657   328.4   13.411      32.053
2015    6       29     4  27    5.2765   328.4   13.431      32.112
2015    6       29     4  33    5.2872   328.5   13.451      32.170
2015    6       29     4  40    5.2978   328.6   13.471      32.228
2015    6       29     4  46    5.3082   328.7   13.492      32.286
2015    6       29     4  52    5.3186   328.7   13.512      32.344
2015    6       29     4  59    5.3288   328.8   13.532      32.403
2015    6       29     5   5    5.3389   328.9   13.553      32.462
2015    6       29     5  11    5.3489   329.0   13.573      32.523
2015    6       29     5  17    5.3589   329.1   13.594      32.584
2015    6       29     5  24    5.3686   329.2   13.614      32.646
2015    6       29     5  30    5.3784   329.3   13.635      32.708
2015    6       29     5  36    5.3880   329.3   13.655      32.772
2015    6       29     5  42    5.3975   329.4   13.675      32.836
2015    6       29     5  49    5.4069   329.5   13.695      32.901
2015    6       29     5  55    5.4162   329.6   13.715      32.967
2015    6       29     6   1    5.4254   329.7   13.735      33.033
2015    6       29     6   8    5.4346   329.8   13.754      33.100
2015    6       29     6  14    5.4436   329.9   13.774      33.168
2015    6       29     6  20    5.4526   330.1   13.792      33.237
2015    6       29     6  26    5.4616   330.2   13.811      33.307
2015    6       29     6  33    5.4705   330.3   13.830      33.377
2015    6       29     6  39    5.4794   330.4   13.848      33.449
2015    6       29     6  45    5.4882   330.5   13.866      33.520
2015    6       29     6  51    5.4970   330.6   13.885      33.593
2015    6       29     6  58    5.5057   330.8   13.903      33.666
2015    6       29     7   4    5.5145   330.9   13.921      33.739
2015    6       29     7  10    5.5233   331.0   13.939      33.813
2015    6       29     7  17    5.5320   331.1   13.957      33.888
2015    6       29     7  23    5.5408   331.3   13.975      33.964
2015    6       29     7  29    5.5496   331.4   13.993      34.040
2015    6       29     7  35    5.5585   331.6   14.011      34.116
2015    6       29     7  42    5.5673   331.7   14.029      34.194
2015    6       29     7  48    5.5762   331.9   14.048      34.274
2015    6       29     7  54    5.5850   332.0   14.066      34.355
2015    6       29     8   0    5.5939   332.2   14.085      34.437
2015    6       29     8   7    5.6027   332.3   14.103      34.520
2015    6       29     8  13    5.6115   332.5   14.121      34.605
2015    6       29     8  19    5.6202   332.7   14.138      34.690
2015    6       29     8  25    5.6288   332.8   14.155      34.775
2015    6       29     8  32    5.6374   333.0   14.172      34.861
2015    6       29     8  38    5.6459   333.2   14.188      34.947
2015    6       29     8  44    5.6542   333.4   14.204      35.033
2015    6       29     8  50    5.6623   333.6   14.219      35.118
2015    6       29     8  57    5.6703   333.7   14.233      35.203
2015    6       29     9   3    5.6780   333.9   14.246      35.288
2015    6       29     9   9    5.6856   334.1   14.258      35.372
2015    6       29     9  16    5.6930   334.3   14.270      35.454
2015    6       29     9  22    5.7002   334.5   14.280      35.535
2015    6       29     9  28    5.7072   334.6   14.290      35.614
2015    6       29     9  34    5.7140   334.8   14.298      35.692
2015    6       29     9  41    5.7206   335.0   14.306      35.767
2015    6       29     9  47    5.7270   335.2   14.313      35.842
2015    6       29     9  53    5.7331   335.4   14.319      35.914
2015    6       29     9  59    5.7391   335.5   14.324      35.985
2015    6       29    10   6    5.7449   335.7   14.328      36.054
2015    6       29    10  12    5.7505   335.9   14.332      36.121
2015    6       29    10  18    5.7559   336.0   14.334      36.187
2015    6       29    10  25    5.7611   336.2   14.337      36.251
2015    6       29    10  31    5.7662   336.4   14.338      36.313
2015    6       29    10  37    5.7711   336.5   14.339      36.375
2015    6       29    10  43    5.7758   336.7   14.339      36.434
2015    6       29    10  50    5.7804   336.8   14.339      36.492
2015    6       29    10  56    5.7847   337.0   14.338      36.549
2015    6       29    11   2    5.7890   337.1   14.337      36.604
2015    6       29    11   8    5.7931   337.3   14.335      36.658
2015    6       29    11  15    5.7970   337.4   14.333      36.711
2015    6       29    11  21    5.8009   337.6   14.330      36.762
2015    6       29    11  27    5.8046   337.7   14.327      36.813
2015    6       29    11  34    5.8082   337.9   14.324      36.862
2015    6       29    11  40    5.8116   338.0   14.321      36.910
2015    6       29    11  46    5.8150   338.2   14.317      36.958
2015    6       29    11  52    5.8182   338.3   14.313      37.005
2015    6       29    11  59    5.8214   338.5   14.308      37.051
2015    6       29    12   5    5.8245   338.6   14.304      37.096
2015    6       29    12  11    5.8275   338.7   14.299      37.141
2015    6       29    12  18    5.8304   338.9   14.294      37.186
2015    6       29    12  24    5.8332   339.0   14.290      37.230
2015    6       29    12  30    5.8360   339.2   14.284      37.273
2015    6       29    12  36    5.8387   339.3   14.279      37.317
2015    6       29    12  43    5.8414   339.4   14.274      37.360
2015    6       29    12  49    5.8440   339.6   14.269      37.403
2015    6       29    12  55    5.8465   339.7   14.263      37.446
2015    6       29    13   2    5.8490   339.9   14.258      37.489
2015    6       29    13   8    5.8515   340.0   14.253      37.532
2015    6       29    13  14    5.8540   340.2   14.247      37.575
2015    6       29    13  20    5.8564   340.3   14.242      37.618
2015    6       29    13  27    5.8588   340.4   14.237      37.661
2015    6       29    13  33    5.8612   340.6   14.231      37.704
2015    6       29    13  39    5.8635   340.7   14.226      37.748
2015    6       29    13  45    5.8659   340.9   14.222      37.792
2015    6       29    13  52    5.8683   341.0   14.217      37.836
2015    6       29    13  58    5.8707   341.2   14.213      37.880
2015    6       29    14   4    5.8732   341.3   14.209      37.925
2015    6       29    14  11    5.8757   341.5   14.205      37.971
2015    6       29    14  17    5.8782   341.6   14.201      38.017
2015    6       29    14  23    5.8807   341.8   14.199      38.064
2015    6       29    14  29    5.8834   341.9   14.196      38.111
2015    6       29    14  36    5.8861   342.1   14.195      38.159
2015    6       29    14  42    5.8889   342.2   14.193      38.209
2015    6       29    14  48    5.8918   342.4   14.193      38.260
2015    6       29    14  54    5.8947   342.6   14.192      38.313
2015    6       29    15   1    5.8977   342.7   14.192      38.366
2015    6       29    15   7    5.9009   342.9   14.193      38.421
2015    6       29    15  13    5.9040   343.1   14.194      38.477
2015    6       29    15  19    5.9072   343.2   14.195      38.534
2015    6       29    15  26    5.9104   343.4   14.196      38.592
2015    6       29    15  32    5.9137   343.6   14.198      38.651
2015    6       29    15  38    5.9170   343.8   14.199      38.710
2015    6       29    15  44    5.9203   343.9   14.201      38.770
2015    6       29    15  51    5.9237   344.1   14.203      38.830
2015    6       29    15  57    5.9270   344.3   14.205      38.890
2015    6       29    16   3    5.9304   344.5   14.207      38.952
2015    6       29    16  10    5.9338   344.7   14.209      39.014
2015    6       29    16  16    5.9372   344.9   14.212      39.076
2015    6       29    16  22    5.9407   345.0   14.214      39.139
2015    6       29    16  28    5.9443   345.2   14.217      39.201
2015    6       29    16  35    5.9480   345.4   14.221      39.263
2015    6       29    16  41    5.9518   345.6   14.225      39.326
2015    6       29    16  47    5.9557   345.8   14.230      39.392
2015    6       29    16  53    5.9597   346.0   14.235      39.460
2015    6       29    17   0    5.9638   346.2   14.241      39.529
2015    6       29    17   6    5.9679   346.4   14.246      39.600
2015    6       29    17  12    5.9720   346.6   14.252      39.672
2015    6       29    17  18    5.9761   346.8   14.257      39.745
2015    6       29    17  25    5.9802   347.1   14.263      39.819
2015    6       29    17  31    5.9842   347.3   14.267      39.894
2015    6       29    17  37    5.9880   347.5   14.271      39.967
2015    6       29    17  44    5.9917   347.8   14.275      40.041
2015    6       29    17  50    5.9952   348.0   14.277      40.113
2015    6       29    17  56    5.9985   348.3   14.278      40.184
2015    6       29    18   2    6.0015   348.5   14.278      40.254
2015    6       29    18   9    6.0041   348.8   14.276      40.323
2015    6       29    18  15    6.0065   349.0   14.272      40.389
2015    6       29    18  21    6.0085   349.3   14.267      40.452
2015    6       29    18  27    6.0102   349.5   14.261      40.512
2015    6       29    18  34    6.0117   349.7   14.253      40.568
2015    6       29    18  40    6.0129   350.0   14.244      40.622
2015    6       29    18  46    6.0138   350.2   14.234      40.673
2015    6       29    18  53    6.0145   350.4   14.222      40.721
2015    6       29    18  59    6.0150   350.7   14.210      40.766
2015    6       29    19   5    6.0153   350.9   14.196      40.809
2015    6       29    19  11    6.0154   351.1   14.182      40.850
2015    6       29    19  18    6.0153   351.3   14.168      40.889
2015    6       29    19  24    6.0152   351.5   14.152      40.926
2015    6       29    19  30    6.0149   351.7   14.137      40.961
2015    6       29    19  37    6.0145   351.9   14.120      40.996
2015    6       29    19  43    6.0141   352.1   14.104      41.029
2015    6       29    19  49    6.0136   352.3   14.087      41.061
2015    6       29    19  55    6.0131   352.5   14.070      41.093
2015    6       29    20   2    6.0125   352.7   14.053      41.123
2015    6       29    20   8    6.0119   352.9   14.035      41.153
2015    6       29    20  14    6.0113   353.1   14.018      41.182
2015    6       29    20  21    6.0106   353.3   14.000      41.211
2015    6       29    20  27    6.0100   353.5   13.982      41.239
2015    6       29    20  33    6.0093   353.7   13.964      41.266
2015    6       29    20  39    6.0087   353.9   13.945      41.293
2015    6       29    20  46    6.0081   354.1   13.927      41.319
2015    6       29    20  52    6.0074   354.3   13.908      41.345
2015    6       29    20  58    6.0068   354.5   13.889      41.371
2015    6       29    21   4    6.0062   354.6   13.870      41.396
2015    6       29    21  11    6.0056   354.8   13.851      41.420
2015    6       29    21  17    6.0050   355.0   13.832      41.443
2015    6       29    21  23    6.0044   355.2   13.812      41.467
2015    6       29    21  30    6.0038   355.4   13.792      41.489
2015    6       29    21  36    6.0032   355.6   13.773      41.511
2015    6       29    21  42    6.0026   355.8   13.753      41.533
2015    6       29    21  48    6.0020   356.0   13.733      41.554
2015    6       29    21  55    6.0014   356.2   13.713      41.575
2015    6       29    22   1    6.0008   356.4   13.692      41.596
2015    6       29    22   7    6.0001   356.7   13.672      41.618
2015    6       29    22  13    5.9994   356.9   13.650      41.641
2015    6       29    22  20    5.9986   357.1   13.629      41.662
2015    6       29    22  26    5.9977   357.3   13.608      41.682
2015    6       29    22  32    5.9966   357.6   13.586      41.699
2015    6       29    22  38    5.9955   357.8   13.565      41.717
2015    6       29    22  45    5.9943   358.0   13.544      41.733
2015    6       29    22  51    5.9931   358.2   13.522      41.750
2015    6       29    22  57    5.9919   358.4   13.502      41.765
2015    6       29    23   3    5.9907   358.6   13.482      41.779
2015    6       29    23  10    5.9895   358.8   13.463      41.793
2015    6       29    23  16    5.9884   359.0   13.444      41.807
2015    6       29    23  22    5.9874   359.2   13.427      41.822
2015    6       29    23  29    5.9866   359.4   13.411      41.838
2015    6       29    23  35    5.9859   359.6   13.396      41.853
2015    6       29    23  41    5.9855   359.7   13.383      41.868
2015    6       29    23  47    5.9853   359.9   13.372      41.883
2015    6       29    23  54    5.9854   360.0   13.363      41.902
2015    6       30     0   0    5.9858   360.2   13.355      41.926
2015    6       30     0   6    5.9865   360.3   13.348      41.955
2015    6       30     0  12    5.9875   360.5   13.344      41.988
2015    6       30     0  19    5.9888   360.7   13.340      42.026
2015    6       30     0  25    5.9902   360.9   13.338      42.070
2015    6       30     0  31    5.9919   361.1   13.337      42.119
2015    6       30     0  37    5.9936   361.4   13.336      42.174
2015    6       30     0  44    5.9954   361.6   13.335      42.232
2015    6       30     0  50    5.9972   361.9   13.335      42.294
2015    6       30     0  56    5.9988   362.2   13.334      42.357
2015    6       30     1   3    6.0003   362.5   13.332      42.423
2015    6       30     1   9    6.0016   362.8   13.330      42.489
2015    6       30     1  15    6.0026   363.1   13.326      42.557
2015    6       30     1  21    6.0033   363.4   13.320      42.625
2015    6       30     1  28    6.0037   363.7   13.314      42.691
2015    6       30     1  34    6.0038   364.0   13.306      42.753
2015    6       30     1  40    6.0037   364.4   13.297      42.813
2015    6       30     1  47    6.0032   364.7   13.286      42.871
2015    6       30     1  53    6.0024   365.0   13.274      42.926
2015    6       30     1  59    6.0013   365.3   13.261      42.978
2015    6       30     2   5    5.9999   365.6   13.247      43.026
2015    6       30     2  12    5.9983   365.8   13.231      43.071
2015    6       30     2  18    5.9964   366.1   13.215      43.112
2015    6       30     2  24    5.9944   366.4   13.198      43.150
2015    6       30     2  30    5.9922   366.7   13.180      43.185
2015    6       30     2  37    5.9900   366.9   13.162      43.219
2015    6       30     2  43    5.9877   367.2   13.143      43.251
2015    6       30     2  49    5.9854   367.4   13.124      43.282
2015    6       30     2  56    5.9830   367.7   13.105      43.312
2015    6       30     3   2    5.9806   367.9   13.086      43.340
2015    6       30     3   8    5.9782   368.2   13.066      43.368
2015    6       30     3  14    5.9758   368.4   13.046      43.396
2015    6       30     3  21    5.9734   368.7   13.025      43.423
2015    6       30     3  27    5.9710   368.9   13.005      43.449
2015    6       30     3  33    5.9686   369.2   12.984      43.474
2015    6       30     3  40    5.9662   369.4   12.962      43.499
2015    6       30     3  46    5.9639   369.7   12.941      43.523
2015    6       30     3  52    5.9615   370.0   12.919      43.546
2015    6       30     3  58    5.9592   370.2   12.896      43.569
2015    6       30     4   5    5.9569   370.5   12.873      43.591
2015    6       30     4  11    5.9546   370.7   12.850      43.612
2015    6       30     4  17    5.9522   371.0   12.827      43.632
2015    6       30     4  23    5.9499   371.3   12.802      43.652
2015    6       30     4  30    5.9474   371.6   12.778      43.672
2015    6       30     4  36    5.9450   371.9   12.752      43.692
2015    6       30     4  42    5.9424   372.2   12.726      43.711
2015    6       30     4  49    5.9397   372.5   12.699      43.729
2015    6       30     4  55    5.9370   372.8   12.672      43.746
2015    6       30     5   1    5.9340   373.1   12.644      43.761
2015    6       30     5   7    5.9310   373.4   12.616      43.776
2015    6       30     5  14    5.9278   373.7   12.587      43.790
2015    6       30     5  20    5.9246   374.0   12.558      43.802
2015    6       30     5  26    5.9212   374.3   12.529      43.813
2015    6       30     5  32    5.9178   374.6   12.499      43.822
2015    6       30     5  39    5.9142   374.9   12.470      43.830
2015    6       30     5  45    5.9105   375.2   12.440      43.837
2015    6       30     5  51    5.9067   375.5   12.410      43.842
2015    6       30     5  57    5.9028   375.8   12.379      43.846
2015    6       30     6   4    5.8987   376.0   12.349      43.846
2015    6       30     6  10    5.8945   376.3   12.319      43.845
2015    6       30     6  16    5.8900   376.5   12.288      43.842
2015    6       30     6  23    5.8854   376.8   12.257      43.839
2015    6       30     6  29    5.8807   377.0   12.226      43.835
2015    6       30     6  35    5.8760   377.3   12.195      43.830
2015    6       30     6  41    5.8712   377.5   12.164      43.824
2015    6       30     6  48    5.8664   377.7   12.134      43.818
2015    6       30     6  54    5.8615   378.0   12.103      43.813
2015    6       30     7   0    5.8566   378.2   12.073      43.808
2015    6       30     7   6    5.8516   378.5   12.043      43.805
2015    6       30     7  13    5.8465   378.7   12.013      43.802
2015    6       30     7  19    5.8414   379.0   11.983      43.799
2015    6       30     7  25    5.8362   379.3   11.953      43.797
2015    6       30     7  31    5.8309   379.5   11.923      43.795
2015    6       30     7  38    5.8255   379.8   11.893      43.794
2015    6       30     7  44    5.8201   380.1   11.863      43.793
2015    6       30     7  50    5.8147   380.4   11.834      43.791
2015    6       30     7  57    5.8092   380.6   11.804      43.789
2015    6       30     8   3    5.8037   380.9   11.776      43.787
2015    6       30     8   9    5.7982   381.2   11.747      43.784
2015    6       30     8  15    5.7926   381.4   11.718      43.782
2015    6       30     8  22    5.7868   381.7   11.690      43.780
2015    6       30     8  28    5.7810   382.0   11.661      43.778
2015    6       30     8  34    5.7751   382.2   11.632      43.774
2015    6       30     8  40    5.7691   382.5   11.603      43.769
2015    6       30     8  47    5.7630   382.7   11.574      43.764
2015    6       30     8  53    5.7570   383.0   11.545      43.758
2015    6       30     8  59    5.7508   383.2   11.516      43.752
2015    6       30     9   6    5.7446   383.5   11.488      43.745
2015    6       30     9  12    5.7384   383.8   11.459      43.739
2015    6       30     9  18    5.7322   384.0   11.430      43.732
2015    6       30     9  24    5.7259   384.2   11.401      43.726
2015    6       30     9  31    5.7196   384.5   11.373      43.719
2015    6       30     9  37    5.7133   384.7   11.344      43.712
2015    6       30     9  43    5.7071   385.0   11.316      43.705
2015    6       30     9  50    5.7008   385.3   11.287      43.697
2015    6       30     9  56    5.6945   385.5   11.259      43.690
2015    6       30    10   2    5.6882   385.8   11.230      43.683
2015    6       30    10   8    5.6819   386.0   11.202      43.676
2015    6       30    10  15    5.6756   386.3   11.173      43.668
2015    6       30    10  21    5.6693   386.5   11.145      43.660
2015    6       30    10  27    5.6630   386.8   11.116      43.652
2015    6       30    10  33    5.6567   387.0   11.087      43.643
2015    6       30    10  40    5.6503   387.3   11.059      43.634
2015    6       30    10  46    5.6440   387.5   11.030      43.625
2015    6       30    10  52    5.6376   387.8   11.001      43.615
2015    6       30    10  59    5.6312   388.0   10.972      43.605
2015    6       30    11   5    5.6247   388.3   10.943      43.594
2015    6       30    11  11    5.6182   388.5   10.914      43.583
2015    6       30    11  17    5.6116   388.8   10.884      43.571
2015    6       30    11  24    5.6049   389.0   10.855      43.559
2015    6       30    11  30    5.5982   389.3   10.825      43.546
2015    6       30    11  36    5.5914   389.6   10.795      43.533
2015    6       30    11  43    5.5846   389.8   10.765      43.519
2015    6       30    11  49    5.5777   390.1   10.735      43.505
2015    6       30    11  55    5.5706   390.4   10.704      43.490
2015    6       30    12   1    5.5635   390.6   10.673      43.475
2015    6       30    12   8    5.5563   390.9   10.643      43.459
2015    6       30    12  14    5.5490   391.1   10.611      43.442
2015    6       30    12  20    5.5415   391.4   10.580      43.424
2015    6       30    12  26    5.5339   391.7   10.549      43.406
2015    6       30    12  33    5.5261   391.9   10.517      43.386
2015    6       30    12  39    5.5182   392.2   10.484      43.366
2015    6       30    12  45    5.5101   392.5   10.452      43.344
2015    6       30    12  51    5.5019   392.7   10.419      43.321
2015    6       30    12  58    5.4934   393.0   10.386      43.296
2015    6       30    13   4    5.4848   393.2   10.352      43.269
2015    6       30    13  10    5.4760   393.5   10.318      43.240
2015    6       30    13  16    5.4670   393.7   10.284      43.210
2015    6       30    13  23    5.4577   394.0   10.248      43.177
2015    6       30    13  29    5.4483   394.2   10.213      43.142
2015    6       30    13  35    5.4387   394.4   10.177      43.102
2015    6       30    13  42    5.4291   394.7   10.141      43.060
2015    6       30    13  48    5.4193   394.9   10.104      43.015
2015    6       30    13  54    5.4094   395.1   10.068      42.967
2015    6       30    14   0    5.3995   395.3   10.031      42.916
2015    6       30    14   7    5.3895   395.5    9.995      42.862
2015    6       30    14  13    5.3795   395.7    9.958      42.806
2015    6       30    14  19    5.3696   395.9    9.922      42.748
2015    6       30    14  25    5.3595   396.1    9.886      42.689
2015    6       30    14  32    5.3496   396.3    9.850      42.628
2015    6       30    14  38    5.3396   396.5    9.814      42.566
2015    6       30    14  44    5.3298   396.7    9.779      42.503
2015    6       30    14  50    5.3200   396.9    9.744      42.439
2015    6       30    14  57    5.3103   397.0    9.709      42.373
2015    6       30    15   3    5.3006   397.2    9.675      42.307
2015    6       30    15   9    5.2910   397.4    9.642      42.241
2015    6       30    15  16    5.2815   397.5    9.609      42.176
2015    6       30    15  22    5.2720   397.7    9.576      42.111
2015    6       30    15  28    5.2626   397.9    9.543      42.046
2015    6       30    15  34    5.2532   398.0    9.511      41.981
2015    6       30    15  41    5.2439   398.2    9.479      41.917
2015    6       30    15  47    5.2346   398.4    9.448      41.852
2015    6       30    15  53    5.2254   398.5    9.416      41.787
2015    6       30    15  59    5.2162   398.7    9.385      41.723
2015    6       30    16   6    5.2071   398.9    9.355      41.658
2015    6       30    16  12    5.1980   399.0    9.324      41.593
2015    6       30    16  18    5.1889   399.2    9.294      41.529
2015    6       30    16  25    5.1799   399.3    9.264      41.464
2015    6       30    16  31    5.1708   399.5    9.234      41.400
2015    6       30    16  37    5.1619   399.6    9.205      41.335
2015    6       30    16  43    5.1529   399.8    9.175      41.270
2015    6       30    16  50    5.1441   399.9    9.146      41.206
2015    6       30    16  56    5.1352   400.0    9.117      41.141
2015    6       30    17   2    5.1263   400.2    9.089      41.076
2015    6       30    17   9    5.1175   400.3    9.060      41.012
2015    6       30    17  15    5.1087   400.5    9.032      40.948
2015    6       30    17  21    5.0999   400.6    9.004      40.883
2015    6       30    17  27    5.0912   400.7    8.976      40.820
2015    6       30    17  34    5.0824   400.9    8.949      40.756
2015    6       30    17  40    5.0737   401.0    8.921      40.692
2015    6       30    17  46    5.0650   401.1    8.894      40.628
2015    6       30    17  53    5.0563   401.3    8.867      40.565
2015    6       30    17  59    5.0476   401.4    8.840      40.501
2015    6       30    18   5    5.0390   401.5    8.814      40.437
2015    6       30    18  11    5.0303   401.6    8.787      40.374
2015    6       30    18  18    5.0217   401.7    8.761      40.310
2015    6       30    18  24    5.0130   401.8    8.735      40.247
2015    6       30    18  30    5.0044   401.9    8.709      40.183
2015    6       30    18  36    4.9957   402.1    8.683      40.120
2015    6       30    18  43    4.9871   402.2    8.658      40.056
2015    6       30    18  49    4.9784   402.3    8.632      39.992
2015    6       30    18  55    4.9698   402.4    8.607      39.929
2015    6       30    19   2    4.9612   402.5    8.582      39.865
2015    6       30    19   8    4.9525   402.5    8.557      39.802
2015    6       30    19  14    4.9439   402.6    8.532      39.738
2015    6       30    19  20    4.9352   402.7    8.508      39.675
2015    6       30    19  27    4.9265   402.8    8.484      39.611
2015    6       30    19  33    4.9179   402.9    8.460      39.547
2015    6       30    19  39    4.9092   403.0    8.436      39.483
2015    6       30    19  45    4.9005   403.1    8.412      39.419
2015    6       30    19  52    4.8918   403.1    8.389      39.354
2015    6       30    19  58    4.8831   403.2    8.365      39.290
2015    6       30    20   4    4.8744   403.3    8.342      39.225
2015    6       30    20  10    4.8657   403.3    8.320      39.161
2015    6       30    20  17    4.8570   403.4    8.297      39.095
2015    6       30    20  23    4.8484   403.5    8.275      39.030
2015    6       30    20  29    4.8398   403.5    8.253      38.964
2015    6       30    20  36    4.8312   403.6    8.231      38.898
2015    6       30    20  42    4.8227   403.6    8.210      38.831
2015    6       30    20  48    4.8143   403.7    8.189      38.764
2015    6       30    20  54    4.8059   403.7    8.168      38.696
2015    6       30    21   1    4.7975   403.8    8.147      38.627
2015    6       30    21   7    4.7892   403.8    8.127      38.558
2015    6       30    21  13    4.7810   403.9    8.108      38.489
2015    6       30    21  19    4.7728   403.9    8.088      38.419
2015    6       30    21  26    4.7648   403.9    8.069      38.350
2015    6       30    21  32    4.7568   404.0    8.050      38.279
2015    6       30    21  38    4.7488   404.0    8.032      38.209
2015    6       30    21  44    4.7410   404.0    8.014      38.138
2015    6       30    21  51    4.7332   404.0    7.996      38.067
2015    6       30    21  57    4.7254   404.1    7.979      37.996
2015    6       30    22   3    4.7178   404.1    7.962      37.925
2015    6       30    22   9    4.7102   404.1    7.945      37.854
2015    6       30    22  16    4.7026   404.1    7.929      37.784
2015    6       30    22  22    4.6952   404.1    7.912      37.714
2015    6       30    22  28    4.6878   404.2    7.896      37.644
2015    6       30    22  35    4.6804   404.2    7.880      37.575
2015    6       30    22  41    4.6732   404.2    7.864      37.506
2015    6       30    22  47    4.6660   404.2    7.849      37.438
2015    6       30    22  53    4.6588   404.2    7.833      37.371
2015    6       30    23   0    4.6518   404.2    7.818      37.304
2015    6       30    23   6    4.6448   404.2    7.803      37.237
2015    6       30    23  12    4.6379   404.2    7.788      37.171
2015    6       30    23  18    4.6310   404.2    7.774      37.106
2015    6       30    23  25    4.6242   404.2    7.759      37.042
2015    6       30    23  31    4.6175   404.2    7.745      36.978
2015    6       30    23  37    4.6109   404.2    7.731      36.915
2015    6       30    23  44    4.6043   404.2    7.717      36.853
2015    6       30    23  50    4.5978   404.1    7.703      36.791
2015    6       30    23  56    4.5914   404.1    7.689      36.730
2015    7        1     0   2    4.5851   404.1    7.675      36.669
2015    7        1     0   9    4.5788   404.1    7.662      36.609
2015    7        1     0  15    4.5726   404.1    7.649      36.550
2015    7        1     0  21    4.5664   404.1    7.636      36.491
2015    7        1     0  28    4.5603   404.1    7.623      36.433
2015    7        1     0  34    4.5543   404.1    7.610      36.375
2015    7        1     0  40    4.5483   404.0    7.597      36.318
2015    7        1     0  46    4.5424   404.0    7.584      36.261
2015    7        1     0  53    4.5365   404.0    7.572      36.204
2015    7        1     0  59    4.5307   404.0    7.560      36.148
2015    7        1     1   5    4.5249   404.0    7.547      36.092
2015    7        1     1  12    4.5191   403.9    7.535      36.037
2015    7        1     1  18    4.5134   403.9    7.523      35.982
2015    7        1     1  24    4.5078   403.9    7.511      35.927
2015    7        1     1  30    4.5022   403.9    7.500      35.873
2015    7        1     1  37    4.4966   403.9    7.488      35.819
2015    7        1     1  43    4.4910   403.8    7.476      35.765
2015    7        1     1  49    4.4855   403.8    7.465      35.712
2015    7        1     1  55    4.4801   403.8    7.454      35.659
2015    7        1     2   2    4.4746   403.8    7.442      35.606
2015    7        1     2   8    4.4692   403.7    7.431      35.553
2015    7        1     2  14    4.4638   403.7    7.420      35.501
2015    7        1     2  21    4.4585   403.7    7.409      35.449
2015    7        1     2  27    4.4532   403.6    7.398      35.398
2015    7        1     2  33    4.4480   403.6    7.388      35.346
2015    7        1     2  39    4.4427   403.6    7.377      35.296
2015    7        1     2  46    4.4375   403.5    7.367      35.245
2015    7        1     2  52    4.4324   403.5    7.357      35.194
2015    7        1     2  58    4.4273   403.4    7.346      35.144
2015    7        1     3   4    4.4222   403.4    7.337      35.094
2015    7        1     3  11    4.4172   403.4    7.327      35.044
2015    7        1     3  17    4.4122   403.3    7.317      34.994
2015    7        1     3  23    4.4073   403.3    7.308      34.944
2015    7        1     3  29    4.4024   403.2    7.299      34.894
2015    7        1     3  36    4.3976   403.2    7.290      34.844
2015    7        1     3  42    4.3928   403.1    7.281      34.794
2015    7        1     3  48    4.3881   403.1    7.273      34.743
2015    7        1     3  55    4.3835   403.0    7.265      34.693
2015    7        1     4   1    4.3788   403.0    7.257      34.643
2015    7        1     4   7    4.3743   402.9    7.249      34.593
2015    7        1     4  13    4.3698   402.9    7.242      34.543
2015    7        1     4  20    4.3654   402.8    7.235      34.492
2015    7        1     4  26    4.3610   402.7    7.228      34.442
2015    7        1     4  32    4.3566   402.7    7.221      34.392
2015    7        1     4  38    4.3523   402.6    7.215      34.342
2015    7        1     4  45    4.3481   402.6    7.209      34.293
2015    7        1     4  51    4.3439   402.5    7.203      34.243
2015    7        1     4  57    4.3398   402.5    7.197      34.195
2015    7        1     5   3    4.3357   402.4    7.192      34.147
2015    7        1     5  10    4.3316   402.3    7.186      34.099
2015    7        1     5  16    4.3276   402.3    7.181      34.053
2015    7        1     5  22    4.3236   402.2    7.176      34.007
2015    7        1     5  28    4.3197   402.1    7.171      33.962
2015    7        1     5  35    4.3159   402.1    7.165      33.918
2015    7        1     5  41    4.3120   402.0    7.160      33.875
2015    7        1     5  47    4.3082   402.0    7.155      33.832
2015    7        1     5  54    4.3045   401.9    7.150      33.790
2015    7        1     6   0    4.3007   401.8    7.146      33.748
2015    7        1     6   6    4.2971   401.8    7.141      33.707
2015    7        1     6  12    4.2934   401.7    7.136      33.667
2015    7        1     6  19    4.2898   401.6    7.131      33.627
2015    7        1     6  25    4.2862   401.6    7.126      33.587
2015    7        1     6  31    4.2827   401.5    7.121      33.548
2015    7        1     6  38    4.2792   401.4    7.116      33.510
2015    7        1     6  44    4.2757   401.3    7.111      33.471
2015    7        1     6  50    4.2723   401.3    7.106      33.433
2015    7        1     6  56    4.2689   401.2    7.101      33.395
2015    7        1     7   3    4.2655   401.1    7.096      33.358
2015    7        1     7   9    4.2622   401.1    7.091      33.320
2015    7        1     7  15    4.2589   401.0    7.086      33.282
2015    7        1     7  21    4.2556   400.9    7.081      33.244
2015    7        1     7  28    4.2524   400.8    7.076      33.207
2015    7        1     7  34    4.2492   400.8    7.071      33.169
2015    7        1     7  40    4.2460   400.7    7.066      33.132
2015    7        1     7  47    4.2429   400.6    7.061      33.095
2015    7        1     7  53    4.2398   400.5    7.057      33.058
2015    7        1     7  59    4.2367   400.5    7.052      33.020
2015    7        1     8   5    4.2337   400.4    7.047      32.983
2015    7        1     8  12    4.2307   400.3    7.042      32.946
2015    7        1     8  18    4.2277   400.3    7.038      32.909
2015    7        1     8  24    4.2248   400.2    7.033      32.872
2015    7        1     8  31    4.2218   400.1    7.028      32.835
2015    7        1     8  37    4.2190   400.0    7.024      32.798
2015    7        1     8  43    4.2161   400.0    7.019      32.761
2015    7        1     8  49    4.2133   399.9    7.015      32.724
2015    7        1     8  56    4.2105   399.8    7.011      32.687
2015    7        1     9   2    4.2077   399.7    7.006      32.650
2015    7        1     9   8    4.2049   399.7    7.002      32.613
2015    7        1     9  15    4.2022   399.6    6.998      32.576
2015    7        1     9  21    4.1995   399.5    6.994      32.539
2015    7        1     9  27    4.1969   399.4    6.990      32.502
2015    7        1     9  33    4.1942   399.3    6.986      32.465
2015    7        1     9  40    4.1916   399.3    6.982      32.428
2015    7        1     9  46    4.1891   399.2    6.978      32.392
2015    7        1     9  52    4.1865   399.1    6.975      32.355
2015    7        1     9  58    4.1840   399.0    6.971      32.319
2015    7        1    10   5    4.1816   398.9    6.968      32.282
2015    7        1    10  11    4.1791   398.9    6.965      32.246
2015    7        1    10  17    4.1767   398.8    6.961      32.211
2015    7        1    10  23    4.1744   398.7    6.958      32.175
2015    7        1    10  30    4.1720   398.6    6.955      32.140
2015    7        1    10  36    4.1698   398.5    6.952      32.105
2015    7        1    10  42    4.1675   398.4    6.950      32.070
2015    7        1    10  49    4.1653   398.3    6.947      32.036
2015    7        1    10  55    4.1631   398.3    6.945      32.002
2015    7        1    11   1    4.1610   398.2    6.942      31.968
2015    7        1    11   7    4.1589   398.1    6.940      31.935
2015    7        1    11  14    4.1569   398.0    6.938      31.902
2015    7        1    11  20    4.1549   397.9    6.936      31.869
2015    7        1    11  26    4.1529   397.8    6.934      31.837
2015    7        1    11  32    4.1510   397.7    6.932      31.805
2015    7        1    11  39    4.1491   397.6    6.931      31.774
2015    7        1    11  45    4.1472   397.5    6.929      31.743
2015    7        1    11  51    4.1454   397.4    6.927      31.712
2015    7        1    11  57    4.1436   397.4    6.926      31.682
2015    7        1    12   4    4.1419   397.3    6.925      31.652
2015    7        1    12  10    4.1402   397.2    6.923      31.623
2015    7        1    12  16    4.1385   397.1    6.922      31.594
2015    7        1    12  22    4.1369   397.0    6.921      31.565
2015    7        1    12  29    4.1353   396.9    6.920      31.537
2015    7        1    12  35    4.1337   396.8    6.919      31.509
2015    7        1    12  41    4.1322   396.7    6.918      31.481
2015    7        1    12  48    4.1307   396.6    6.917      31.453
2015    7        1    12  54    4.1292   396.5    6.916      31.426
2015    7        1    13   0    4.1277   396.4    6.915      31.399
2015    7        1    13   6    4.1263   396.3    6.914      31.372
2015    7        1    13  13    4.1249   396.2    6.913      31.346
2015    7        1    13  19    4.1235   396.1    6.912      31.319
2015    7        1    13  25    4.1221   396.0    6.911      31.293
2015    7        1    13  31    4.1208   395.9    6.910      31.267
2015    7        1    13  38    4.1195   395.8    6.910      31.240
2015    7        1    13  44    4.1182   395.7    6.909      31.214
2015    7        1    13  50    4.1170   395.6    6.908      31.189
2015    7        1    13  57    4.1157   395.5    6.907      31.163
2015    7        1    14   3    4.1146   395.4    6.907      31.137
2015    7        1    14   9    4.1134   395.3    6.906      31.111
2015    7        1    14  15    4.1122   395.2    6.905      31.086
2015    7        1    14  22    4.1111   395.1    6.905      31.060
2015    7        1    14  28    4.1100   395.0    6.904      31.035
2015    7        1    14  34    4.1089   394.9    6.904      31.009
2015    7        1    14  40    4.1079   394.8    6.903      30.984
2015    7        1    14  47    4.1069   394.7    6.903      30.959
2015    7        1    14  53    4.1059   394.6    6.902      30.934
2015    7        1    14  59    4.1049   394.5    6.902      30.909
2015    7        1    15   6    4.1040   394.4    6.902      30.883
2015    7        1    15  12    4.1031   394.3    6.901      30.858
2015    7        1    15  18    4.1023   394.2    6.901      30.833
2015    7        1    15  24    4.1014   394.1    6.901      30.808
2015    7        1    15  31    4.1006   393.9    6.901      30.784
2015    7        1    15  37    4.0999   393.8    6.901      30.759
2015    7        1    15  43    4.0991   393.7    6.901      30.734
2015    7        1    15  50    4.0984   393.6    6.901      30.709
2015    7        1    15  56    4.0978   393.5    6.901      30.684
2015    7        1    16   2    4.0971   393.4    6.901      30.660
2015    7        1    16   8    4.0965   393.3    6.902      30.635
2015    7        1    16  15    4.0960   393.2    6.902      30.611
2015    7        1    16  21    4.0954   393.1    6.903      30.587
2015    7        1    16  27    4.0949   393.0    6.903      30.562
2015    7        1    16  34    4.0945   392.9    6.904      30.538
2015    7        1    16  40    4.0940   392.8    6.905      30.514
2015    7        1    16  46    4.0936   392.7    6.905      30.490
2015    7        1    16  52    4.0933   392.6    6.906      30.467
2015    7        1    16  59    4.0929   392.5    6.907      30.443
2015    7        1    17   5    4.0926   392.4    6.908      30.420
2015    7        1    17  11    4.0924   392.3    6.910      30.397
2015    7        1    17  17    4.0922   392.2    6.911      30.374
2015    7        1    17  24    4.0920   392.1    6.912      30.351
2015    7        1    17  30    4.0918   392.0    6.914      30.329
2015    7        1    17  36    4.0917   391.8    6.916      30.306
2015    7        1    17  42    4.0916   391.7    6.917      30.285
2015    7        1    17  49    4.0916   391.6    6.919      30.263
2015    7        1    17  55    4.0916   391.5    6.921      30.242
2015    7        1    18   1    4.0917   391.4    6.923      30.221
2015    7        1    18   8    4.0918   391.3    6.926      30.200
2015    7        1    18  14    4.0919   391.2    6.928      30.180
2015    7        1    18  20    4.0921   391.1    6.930      30.160
2015    7        1    18  26    4.0923   390.9    6.933      30.141
2015    7        1    18  33    4.0925   390.8    6.936      30.122
2015    7        1    18  39    4.0929   390.7    6.939      30.103
2015    7        1    18  45    4.0932   390.6    6.942      30.085
2015    7        1    18  51    4.0936   390.5    6.945      30.068
2015    7        1    18  58    4.0941   390.4    6.948      30.050
2015    7        1    19   4    4.0946   390.2    6.952      30.034
2015    7        1    19  10    4.0951   390.1    6.955      30.018
2015    7        1    19  16    4.0957   390.0    6.959      30.002
2015    7        1    19  23    4.0964   389.9    6.963      29.987
2015    7        1    19  29    4.0971   389.8    6.967      29.972
2015    7        1    19  35    4.0978   389.6    6.971      29.957
2015    7        1    19  41    4.0987   389.5    6.975      29.944
2015    7        1    19  48    4.0995   389.4    6.980      29.930
2015    7        1    19  54    4.1005   389.3    6.984      29.917
2015    7        1    20   0    4.1014   389.2    6.989      29.905
2015    7        1    20   7    4.1025   389.0    6.994      29.892
2015    7        1    20  13    4.1036   388.9    6.999      29.881
2015    7        1    20  19    4.1048   388.8    7.004      29.870
2015    7        1    20  25    4.1060   388.7    7.009      29.859
2015    7        1    20  32    4.1074   388.5    7.015      29.849
2015    7        1    20  38    4.1087   388.4    7.021      29.839
2015    7        1    20  44    4.1102   388.3    7.027      29.829
2015    7        1    20  50    4.1117   388.2    7.033      29.820
2015    7        1    20  57    4.1133   388.1    7.039      29.811
2015    7        1    21   3    4.1150   387.9    7.045      29.803
2015    7        1    21   9    4.1167   387.8    7.052      29.795
2015    7        1    21  16    4.1185   387.7    7.059      29.788
2015    7        1    21  22    4.1204   387.6    7.066      29.781
2015    7        1    21  28    4.1223   387.4    7.073      29.774
2015    7        1    21  34    4.1244   387.3    7.080      29.768
2015    7        1    21  41    4.1265   387.2    7.087      29.762
2015    7        1    21  47    4.1287   387.1    7.095      29.757
2015    7        1    21  53    4.1309   386.9    7.103      29.752
2015    7        1    22   0    4.1333   386.8    7.111      29.748
2015    7        1    22   6    4.1357   386.7    7.119      29.744
2015    7        1    22  12    4.1382   386.6    7.127      29.740
2015    7        1    22  18    4.1407   386.5    7.135      29.736
2015    7        1    22  25    4.1434   386.3    7.144      29.733
2015    7        1    22  31    4.1460   386.2    7.153      29.731
2015    7        1    22  37    4.1488   386.1    7.161      29.729
2015    7        1    22  44    4.1517   386.0    7.170      29.727
2015    7        1    22  50    4.1546   385.9    7.180      29.726
2015    7        1    22  56    4.1575   385.7    7.189      29.725
2015    7        1    23   2    4.1606   385.6    7.198      29.725
2015    7        1    23   9    4.1637   385.5    7.208      29.725
2015    7        1    23  15    4.1669   385.4    7.217      29.725
2015    7        1    23  21    4.1701   385.3    7.227      29.726
2015    7        1    23  27    4.1734   385.2    7.237      29.728
2015    7        1    23  34    4.1767   385.0    7.247      29.730
2015    7        1    23  40    4.1802   384.9    7.258      29.732
2015    7        1    23  46    4.1837   384.8    7.268      29.735
2015    7        1    23  53    4.1872   384.7    7.278      29.738
2015    7        1    23  59    4.1908   384.6    7.289      29.742
2015    7        2     0   5    4.1945   384.5    7.300      29.747
