year    month   day   hour  minute  B_enl V_enl   n_enl       T_enl
[year] [month] [day] [hour][minute] [nT]  [km/s]  [cm-3]      [kK]
2015    6       24     0   4    4.4650   442.7    5.669      37.715
2015    6       24     0  10    4.4611   442.6    5.666      37.690
2015    6       24     0  15    4.4572   442.6    5.663      37.664
2015    6       24     0  21    4.4533   442.5    5.659      37.639
2015    6       24     0  27    4.4494   442.5    5.656      37.614
2015    6       24     0  33    4.4456   442.5    5.653      37.589
2015    6       24     0  39    4.4419   442.4    5.650      37.565
2015    6       24     0  45    4.4381   442.4    5.646      37.540
2015    6       24     0  51    4.4344   442.3    5.643      37.516
2015    6       24     0  57    4.4306   442.3    5.640      37.492
2015    6       24     1   3    4.4269   442.2    5.637      37.468
2015    6       24     1   9    4.4232   442.2    5.635      37.444
2015    6       24     1  14    4.4194   442.2    5.632      37.420
2015    6       24     1  20    4.4157   442.1    5.629      37.396
2015    6       24     1  26    4.4120   442.1    5.626      37.372
2015    6       24     1  32    4.4083   442.0    5.623      37.348
2015    6       24     1  38    4.4045   442.0    5.621      37.324
2015    6       24     1  44    4.4008   442.0    5.618      37.300
2015    6       24     1  50    4.3970   441.9    5.615      37.276
2015    6       24     1  56    4.3933   441.9    5.612      37.252
2015    6       24     2   2    4.3895   441.8    5.610      37.227
2015    6       24     2   7    4.3857   441.8    5.607      37.202
2015    6       24     2  13    4.3819   441.7    5.604      37.177
2015    6       24     2  19    4.3781   441.7    5.602      37.152
2015    6       24     2  25    4.3742   441.7    5.599      37.127
2015    6       24     2  31    4.3704   441.6    5.596      37.102
2015    6       24     2  37    4.3666   441.6    5.593      37.077
2015    6       24     2  43    4.3627   441.5    5.591      37.051
2015    6       24     2  49    4.3589   441.5    5.588      37.026
2015    6       24     2  55    4.3550   441.4    5.585      37.000
2015    6       24     3   1    4.3511   441.4    5.582      36.974
2015    6       24     3   6    4.3473   441.3    5.579      36.948
2015    6       24     3  12    4.3434   441.3    5.576      36.922
2015    6       24     3  18    4.3395   441.2    5.573      36.896
2015    6       24     3  24    4.3357   441.2    5.570      36.870
2015    6       24     3  30    4.3318   441.1    5.567      36.843
2015    6       24     3  36    4.3280   441.1    5.564      36.816
2015    6       24     3  42    4.3241   441.0    5.561      36.790
2015    6       24     3  48    4.3203   441.0    5.558      36.763
2015    6       24     3  54    4.3164   440.9    5.555      36.736
2015    6       24     4   0    4.3126   440.9    5.552      36.709
2015    6       24     4   5    4.3087   440.8    5.549      36.681
2015    6       24     4  11    4.3049   440.8    5.545      36.654
2015    6       24     4  17    4.3011   440.7    5.542      36.626
2015    6       24     4  23    4.2973   440.7    5.539      36.599
2015    6       24     4  29    4.2935   440.6    5.536      36.571
2015    6       24     4  35    4.2897   440.6    5.532      36.543
2015    6       24     4  41    4.2859   440.5    5.529      36.516
2015    6       24     4  47    4.2822   440.5    5.526      36.488
2015    6       24     4  53    4.2784   440.4    5.522      36.460
2015    6       24     4  59    4.2747   440.3    5.519      36.432
2015    6       24     5   4    4.2710   440.3    5.516      36.404
2015    6       24     5  10    4.2673   440.2    5.512      36.376
2015    6       24     5  16    4.2636   440.2    5.509      36.347
2015    6       24     5  22    4.2599   440.1    5.505      36.319
2015    6       24     5  28    4.2562   440.0    5.502      36.291
2015    6       24     5  34    4.2526   440.0    5.499      36.263
2015    6       24     5  40    4.2490   439.9    5.495      36.235
2015    6       24     5  46    4.2454   439.9    5.492      36.207
2015    6       24     5  52    4.2418   439.8    5.488      36.179
2015    6       24     5  57    4.2382   439.7    5.485      36.151
2015    6       24     6   3    4.2347   439.7    5.482      36.123
2015    6       24     6   9    4.2312   439.6    5.478      36.095
2015    6       24     6  15    4.2277   439.6    5.475      36.067
2015    6       24     6  21    4.2242   439.5    5.472      36.039
2015    6       24     6  27    4.2207   439.4    5.468      36.011
2015    6       24     6  33    4.2173   439.4    5.465      35.984
2015    6       24     6  39    4.2139   439.3    5.462      35.957
2015    6       24     6  45    4.2106   439.2    5.459      35.929
2015    6       24     6  51    4.2072   439.2    5.456      35.902
2015    6       24     6  56    4.2039   439.1    5.453      35.875
2015    6       24     7   2    4.2006   439.0    5.450      35.849
2015    6       24     7   8    4.1974   439.0    5.447      35.822
2015    6       24     7  14    4.1941   438.9    5.444      35.795
2015    6       24     7  20    4.1909   438.8    5.441      35.769
2015    6       24     7  26    4.1877   438.8    5.438      35.743
2015    6       24     7  32    4.1846   438.7    5.435      35.718
2015    6       24     7  38    4.1814   438.6    5.433      35.692
2015    6       24     7  44    4.1783   438.6    5.430      35.667
2015    6       24     7  49    4.1753   438.5    5.427      35.642
2015    6       24     7  55    4.1722   438.4    5.425      35.617
2015    6       24     8   1    4.1691   438.4    5.422      35.592
2015    6       24     8   7    4.1661   438.3    5.420      35.568
2015    6       24     8  13    4.1631   438.2    5.417      35.544
2015    6       24     8  19    4.1601   438.2    5.415      35.520
2015    6       24     8  25    4.1571   438.1    5.413      35.497
2015    6       24     8  31    4.1541   438.0    5.411      35.473
2015    6       24     8  37    4.1511   438.0    5.408      35.450
2015    6       24     8  43    4.1481   437.9    5.406      35.427
2015    6       24     8  48    4.1451   437.8    5.404      35.404
2015    6       24     8  54    4.1421   437.8    5.402      35.382
2015    6       24     9   0    4.1391   437.7    5.400      35.360
2015    6       24     9   6    4.1361   437.6    5.398      35.338
2015    6       24     9  12    4.1331   437.6    5.396      35.316
2015    6       24     9  18    4.1300   437.5    5.394      35.294
2015    6       24     9  24    4.1270   437.4    5.392      35.273
2015    6       24     9  30    4.1239   437.4    5.390      35.251
2015    6       24     9  36    4.1209   437.3    5.389      35.230
2015    6       24     9  41    4.1178   437.2    5.387      35.209
2015    6       24     9  47    4.1147   437.2    5.385      35.188
2015    6       24     9  53    4.1116   437.1    5.383      35.167
2015    6       24     9  59    4.1085   437.0    5.381      35.146
2015    6       24    10   5    4.1054   437.0    5.380      35.125
2015    6       24    10  11    4.1022   436.9    5.378      35.104
2015    6       24    10  17    4.0991   436.8    5.376      35.083
2015    6       24    10  23    4.0960   436.7    5.374      35.062
2015    6       24    10  29    4.0928   436.7    5.372      35.041
2015    6       24    10  35    4.0897   436.6    5.371      35.020
2015    6       24    10  40    4.0865   436.5    5.369      34.999
2015    6       24    10  46    4.0834   436.5    5.367      34.978
2015    6       24    10  52    4.0802   436.4    5.365      34.957
2015    6       24    10  58    4.0771   436.3    5.363      34.936
2015    6       24    11   4    4.0740   436.2    5.362      34.914
2015    6       24    11  10    4.0708   436.2    5.360      34.893
2015    6       24    11  16    4.0677   436.1    5.358      34.872
2015    6       24    11  22    4.0646   436.0    5.356      34.851
2015    6       24    11  28    4.0614   435.9    5.354      34.830
2015    6       24    11  34    4.0583   435.9    5.353      34.808
2015    6       24    11  39    4.0552   435.8    5.351      34.787
2015    6       24    11  45    4.0521   435.7    5.349      34.766
2015    6       24    11  51    4.0491   435.6    5.347      34.744
2015    6       24    11  57    4.0460   435.6    5.345      34.723
2015    6       24    12   3    4.0429   435.5    5.344      34.701
2015    6       24    12   9    4.0398   435.4    5.342      34.680
2015    6       24    12  15    4.0368   435.3    5.340      34.658
2015    6       24    12  21    4.0338   435.2    5.338      34.636
2015    6       24    12  27    4.0307   435.2    5.336      34.615
2015    6       24    12  33    4.0277   435.1    5.334      34.593
2015    6       24    12  38    4.0247   435.0    5.333      34.570
2015    6       24    12  44    4.0217   434.9    5.331      34.548
2015    6       24    12  50    4.0187   434.8    5.329      34.525
2015    6       24    12  56    4.0158   434.8    5.327      34.502
2015    6       24    13   2    4.0128   434.7    5.325      34.479
2015    6       24    13   8    4.0099   434.6    5.323      34.455
2015    6       24    13  14    4.0069   434.5    5.321      34.431
2015    6       24    13  20    4.0040   434.4    5.320      34.407
2015    6       24    13  26    4.0011   434.3    5.318      34.383
2015    6       24    13  32    3.9982   434.3    5.316      34.358
2015    6       24    13  37    3.9953   434.2    5.314      34.333
2015    6       24    13  43    3.9924   434.1    5.312      34.308
2015    6       24    13  49    3.9896   434.0    5.310      34.282
2015    6       24    13  55    3.9867   433.9    5.308      34.256
2015    6       24    14   1    3.9839   433.8    5.306      34.230
2015    6       24    14   7    3.9811   433.7    5.304      34.204
2015    6       24    14  13    3.9783   433.7    5.302      34.178
2015    6       24    14  19    3.9755   433.6    5.299      34.151
2015    6       24    14  25    3.9727   433.5    5.297      34.125
2015    6       24    14  30    3.9699   433.4    5.295      34.098
2015    6       24    14  36    3.9672   433.3    5.293      34.071
2015    6       24    14  42    3.9644   433.2    5.291      34.044
2015    6       24    14  48    3.9617   433.1    5.289      34.017
2015    6       24    14  54    3.9590   433.0    5.287      33.990
2015    6       24    15   0    3.9562   432.9    5.284      33.963
2015    6       24    15   6    3.9535   432.8    5.282      33.936
2015    6       24    15  12    3.9508   432.8    5.280      33.909
2015    6       24    15  18    3.9482   432.7    5.278      33.881
2015    6       24    15  23    3.9455   432.6    5.276      33.854
2015    6       24    15  29    3.9428   432.5    5.273      33.827
2015    6       24    15  35    3.9401   432.4    5.271      33.799
2015    6       24    15  41    3.9375   432.3    5.269      33.772
2015    6       24    15  47    3.9348   432.2    5.267      33.745
2015    6       24    15  53    3.9321   432.1    5.265      33.718
2015    6       24    15  59    3.9295   432.0    5.263      33.690
2015    6       24    16   5    3.9268   431.9    5.260      33.663
2015    6       24    16  11    3.9241   431.8    5.258      33.636
2015    6       24    16  17    3.9214   431.7    5.256      33.609
2015    6       24    16  22    3.9188   431.6    5.254      33.582
2015    6       24    16  28    3.9161   431.5    5.252      33.555
2015    6       24    16  34    3.9134   431.4    5.250      33.528
2015    6       24    16  40    3.9108   431.3    5.248      33.502
2015    6       24    16  46    3.9081   431.3    5.246      33.475
2015    6       24    16  52    3.9054   431.2    5.244      33.449
2015    6       24    16  58    3.9027   431.1    5.241      33.422
2015    6       24    17   4    3.9001   431.0    5.239      33.396
2015    6       24    17  10    3.8974   430.9    5.237      33.370
2015    6       24    17  16    3.8947   430.8    5.235      33.343
2015    6       24    17  21    3.8920   430.7    5.234      33.318
2015    6       24    17  27    3.8894   430.6    5.232      33.292
2015    6       24    17  33    3.8867   430.5    5.230      33.266
2015    6       24    17  39    3.8840   430.4    5.228      33.241
2015    6       24    17  45    3.8813   430.3    5.226      33.215
2015    6       24    17  51    3.8787   430.2    5.224      33.190
2015    6       24    17  57    3.8760   430.1    5.222      33.165
2015    6       24    18   3    3.8733   430.0    5.221      33.140
2015    6       24    18   9    3.8706   429.9    5.219      33.116
2015    6       24    18  15    3.8680   429.8    5.217      33.091
2015    6       24    18  20    3.8653   429.7    5.216      33.067
2015    6       24    18  26    3.8627   429.6    5.214      33.043
2015    6       24    18  32    3.8600   429.5    5.213      33.019
2015    6       24    18  38    3.8574   429.4    5.211      32.996
2015    6       24    18  44    3.8547   429.3    5.210      32.973
2015    6       24    18  50    3.8521   429.2    5.209      32.950
2015    6       24    18  56    3.8495   429.1    5.207      32.927
2015    6       24    19   2    3.8469   429.0    5.206      32.905
2015    6       24    19   8    3.8443   428.9    5.205      32.882
2015    6       24    19  14    3.8417   428.8    5.204      32.861
2015    6       24    19  19    3.8392   428.7    5.203      32.839
2015    6       24    19  25    3.8366   428.6    5.202      32.817
2015    6       24    19  31    3.8340   428.4    5.201      32.796
2015    6       24    19  37    3.8315   428.3    5.200      32.775
2015    6       24    19  43    3.8290   428.2    5.200      32.755
2015    6       24    19  49    3.8265   428.1    5.199      32.734
2015    6       24    19  55    3.8240   428.0    5.198      32.714
2015    6       24    20   1    3.8215   427.9    5.198      32.693
2015    6       24    20   7    3.8191   427.8    5.197      32.673
2015    6       24    20  12    3.8167   427.7    5.197      32.653
2015    6       24    20  18    3.8142   427.6    5.196      32.633
2015    6       24    20  24    3.8118   427.5    5.196      32.613
2015    6       24    20  30    3.8094   427.4    5.196      32.592
2015    6       24    20  36    3.8070   427.3    5.195      32.572
2015    6       24    20  42    3.8047   427.2    5.195      32.551
2015    6       24    20  48    3.8023   427.1    5.195      32.531
2015    6       24    20  54    3.8000   426.9    5.194      32.510
2015    6       24    21   0    3.7976   426.8    5.194      32.488
2015    6       24    21   6    3.7953   426.7    5.193      32.467
2015    6       24    21  11    3.7930   426.6    5.193      32.445
2015    6       24    21  17    3.7907   426.5    5.192      32.423
2015    6       24    21  23    3.7885   426.4    5.192      32.401
2015    6       24    21  29    3.7862   426.3    5.191      32.379
2015    6       24    21  35    3.7839   426.2    5.191      32.356
2015    6       24    21  41    3.7817   426.1    5.190      32.333
2015    6       24    21  47    3.7795   425.9    5.189      32.309
2015    6       24    21  53    3.7772   425.8    5.188      32.286
2015    6       24    21  59    3.7750   425.7    5.188      32.262
2015    6       24    22   4    3.7728   425.6    5.187      32.238
2015    6       24    22  10    3.7706   425.5    5.186      32.213
2015    6       24    22  16    3.7683   425.4    5.185      32.188
2015    6       24    22  22    3.7661   425.3    5.184      32.164
2015    6       24    22  28    3.7639   425.1    5.183      32.138
2015    6       24    22  34    3.7617   425.0    5.181      32.113
2015    6       24    22  40    3.7594   424.9    5.180      32.087
2015    6       24    22  46    3.7572   424.8    5.179      32.062
2015    6       24    22  52    3.7550   424.7    5.178      32.036
2015    6       24    22  57    3.7527   424.6    5.176      32.009
2015    6       24    23   3    3.7505   424.5    5.175      31.983
2015    6       24    23   9    3.7483   424.3    5.174      31.956
2015    6       24    23  15    3.7460   424.2    5.172      31.930
2015    6       24    23  21    3.7437   424.1    5.171      31.903
2015    6       24    23  27    3.7415   424.0    5.170      31.875
2015    6       24    23  33    3.7392   423.9    5.168      31.848
2015    6       24    23  39    3.7369   423.8    5.167      31.821
2015    6       24    23  45    3.7347   423.6    5.165      31.793
2015    6       24    23  51    3.7324   423.5    5.163      31.765
2015    6       24    23  56    3.7301   423.4    5.162      31.737
2015    6       25     0   2    3.7278   423.3    5.160      31.709
2015    6       25     0   8    3.7255   423.2    5.159      31.681
2015    6       25     0  14    3.7233   423.0    5.157      31.653
2015    6       25     0  20    3.7210   422.9    5.155      31.625
2015    6       25     0  26    3.7187   422.8    5.154      31.596
2015    6       25     0  32    3.7164   422.7    5.152      31.567
2015    6       25     0  38    3.7141   422.6    5.150      31.539
2015    6       25     0  44    3.7118   422.4    5.149      31.510
2015    6       25     0  50    3.7096   422.3    5.147      31.481
2015    6       25     0  55    3.7073   422.2    5.145      31.453
2015    6       25     1   1    3.7050   422.1    5.144      31.424
2015    6       25     1   7    3.7027   422.0    5.142      31.395
2015    6       25     1  13    3.7004   421.8    5.140      31.366
2015    6       25     1  19    3.6982   421.7    5.139      31.337
2015    6       25     1  25    3.6959   421.6    5.137      31.309
2015    6       25     1  31    3.6936   421.5    5.136      31.280
2015    6       25     1  37    3.6913   421.3    5.134      31.252
2015    6       25     1  43    3.6891   421.2    5.132      31.223
2015    6       25     1  49    3.6868   421.1    5.131      31.195
2015    6       25     1  54    3.6846   421.0    5.130      31.166
2015    6       25     2   0    3.6823   420.8    5.128      31.138
2015    6       25     2   6    3.6801   420.7    5.127      31.110
2015    6       25     2  12    3.6779   420.6    5.126      31.083
2015    6       25     2  18    3.6757   420.5    5.124      31.055
2015    6       25     2  24    3.6734   420.3    5.123      31.028
2015    6       25     2  30    3.6713   420.2    5.122      31.001
2015    6       25     2  36    3.6691   420.1    5.121      30.974
2015    6       25     2  42    3.6669   420.0    5.120      30.947
2015    6       25     2  48    3.6647   419.8    5.119      30.921
2015    6       25     2  53    3.6626   419.7    5.118      30.895
2015    6       25     2  59    3.6604   419.6    5.117      30.869
2015    6       25     3   5    3.6583   419.4    5.117      30.843
2015    6       25     3  11    3.6562   419.3    5.116      30.818
2015    6       25     3  17    3.6541   419.2    5.116      30.793
2015    6       25     3  23    3.6521   419.1    5.115      30.768
2015    6       25     3  29    3.6500   418.9    5.115      30.744
2015    6       25     3  35    3.6479   418.8    5.115      30.719
2015    6       25     3  41    3.6459   418.7    5.114      30.695
2015    6       25     3  46    3.6439   418.5    5.114      30.671
2015    6       25     3  52    3.6419   418.4    5.114      30.648
2015    6       25     3  58    3.6400   418.3    5.114      30.624
2015    6       25     4   4    3.6380   418.1    5.114      30.601
2015    6       25     4  10    3.6361   418.0    5.114      30.577
2015    6       25     4  16    3.6342   417.9    5.114      30.554
2015    6       25     4  22    3.6323   417.7    5.114      30.530
2015    6       25     4  28    3.6305   417.6    5.114      30.507
2015    6       25     4  34    3.6286   417.5    5.114      30.484
2015    6       25     4  40    3.6268   417.3    5.115      30.461
2015    6       25     4  45    3.6250   417.2    5.115      30.438
2015    6       25     4  51    3.6231   417.1    5.115      30.414
2015    6       25     4  57    3.6214   416.9    5.115      30.391
2015    6       25     5   3    3.6196   416.8    5.116      30.367
2015    6       25     5   9    3.6178   416.6    5.116      30.344
2015    6       25     5  15    3.6161   416.5    5.116      30.320
2015    6       25     5  21    3.6143   416.4    5.117      30.297
2015    6       25     5  27    3.6126   416.2    5.117      30.274
2015    6       25     5  33    3.6109   416.1    5.117      30.250
2015    6       25     5  38    3.6091   416.0    5.118      30.227
2015    6       25     5  44    3.6074   415.8    5.118      30.203
2015    6       25     5  50    3.6057   415.7    5.119      30.180
2015    6       25     5  56    3.6040   415.6    5.119      30.156
2015    6       25     6   2    3.6022   415.4    5.120      30.132
2015    6       25     6   8    3.6005   415.3    5.120      30.108
2015    6       25     6  14    3.5988   415.2    5.120      30.085
2015    6       25     6  20    3.5970   415.0    5.121      30.061
2015    6       25     6  26    3.5953   414.9    5.121      30.037
2015    6       25     6  32    3.5936   414.8    5.122      30.013
2015    6       25     6  37    3.5918   414.6    5.122      29.989
2015    6       25     6  43    3.5901   414.5    5.122      29.965
2015    6       25     6  49    3.5883   414.3    5.123      29.942
2015    6       25     6  55    3.5866   414.2    5.123      29.918
2015    6       25     7   1    3.5848   414.1    5.123      29.894
2015    6       25     7   7    3.5831   413.9    5.123      29.870
2015    6       25     7  13    3.5813   413.8    5.123      29.846
2015    6       25     7  19    3.5796   413.6    5.124      29.822
2015    6       25     7  25    3.5779   413.5    5.124      29.798
2015    6       25     7  30    3.5761   413.3    5.124      29.774
2015    6       25     7  36    3.5744   413.2    5.124      29.751
2015    6       25     7  42    3.5727   413.1    5.124      29.727
2015    6       25     7  48    3.5709   412.9    5.124      29.703
2015    6       25     7  54    3.5692   412.8    5.124      29.679
2015    6       25     8   0    3.5675   412.6    5.123      29.654
2015    6       25     8   6    3.5659   412.5    5.123      29.630
2015    6       25     8  12    3.5642   412.3    5.123      29.606
2015    6       25     8  18    3.5625   412.2    5.123      29.581
2015    6       25     8  24    3.5608   412.1    5.122      29.557
2015    6       25     8  29    3.5591   411.9    5.122      29.532
2015    6       25     8  35    3.5575   411.8    5.122      29.506
2015    6       25     8  41    3.5558   411.6    5.121      29.481
2015    6       25     8  47    3.5542   411.5    5.121      29.456
2015    6       25     8  53    3.5525   411.4    5.120      29.430
2015    6       25     8  59    3.5508   411.2    5.120      29.404
2015    6       25     9   5    3.5492   411.1    5.119      29.378
2015    6       25     9  11    3.5475   410.9    5.118      29.351
2015    6       25     9  17    3.5459   410.8    5.118      29.325
2015    6       25     9  23    3.5442   410.6    5.117      29.298
2015    6       25     9  28    3.5425   410.5    5.116      29.271
2015    6       25     9  34    3.5409   410.3    5.115      29.244
2015    6       25     9  40    3.5392   410.2    5.114      29.216
2015    6       25     9  46    3.5375   410.1    5.114      29.189
2015    6       25     9  52    3.5359   409.9    5.113      29.161
2015    6       25     9  58    3.5342   409.8    5.112      29.133
2015    6       25    10   4    3.5326   409.6    5.111      29.105
2015    6       25    10  10    3.5309   409.5    5.110      29.076
2015    6       25    10  16    3.5293   409.3    5.109      29.048
2015    6       25    10  22    3.5276   409.2    5.108      29.019
2015    6       25    10  27    3.5259   409.0    5.108      28.991
2015    6       25    10  33    3.5243   408.9    5.107      28.962
2015    6       25    10  39    3.5227   408.7    5.106      28.933
2015    6       25    10  45    3.5210   408.6    5.105      28.904
2015    6       25    10  51    3.5194   408.4    5.104      28.875
2015    6       25    10  57    3.5178   408.2    5.103      28.846
2015    6       25    11   3    3.5162   408.1    5.103      28.817
2015    6       25    11   8    3.5149   408.0    5.102      28.795
2015    6       25    11  12    3.5136   407.8    5.102      28.775
2015    6       25    11  17    3.5124   407.7    5.101      28.755
2015    6       25    11  21    3.5112   407.6    5.101      28.735
2015    6       25    11  26    3.5100   407.5    5.100      28.716
2015    6       25    11  30    3.5088   407.4    5.100      28.697
2015    6       25    11  35    3.5077   407.3    5.100      28.678
2015    6       25    11  39    3.5065   407.1    5.099      28.659
2015    6       25    11  44    3.5054   407.0    5.099      28.641
2015    6       25    11  48    3.5043   406.9    5.099      28.623
2015    6       25    11  52    3.5032   406.8    5.098      28.605
2015    6       25    11  57    3.5021   406.7    5.098      28.587
2015    6       25    12   1    3.5010   406.6    5.098      28.570
2015    6       25    12   5    3.5000   406.5    5.098      28.552
2015    6       25    12   9    3.4989   406.3    5.098      28.535
2015    6       25    12  14    3.4979   406.2    5.098      28.518
2015    6       25    12  18    3.4968   406.1    5.098      28.501
2015    6       25    12  22    3.4958   406.0    5.098      28.484
2015    6       25    12  27    3.4948   405.9    5.098      28.467
2015    6       25    12  31    3.4938   405.8    5.098      28.450
2015    6       25    12  35    3.4928   405.7    5.098      28.434
2015    6       25    12  39    3.4918   405.5    5.099      28.417
2015    6       25    12  44    3.4908   405.4    5.099      28.401
2015    6       25    12  48    3.4898   405.3    5.099      28.384
2015    6       25    12  52    3.4888   405.2    5.099      28.368
2015    6       25    12  56    3.4879   405.1    5.100      28.352
2015    6       25    13   1    3.4869   405.0    5.100      28.336
2015    6       25    13   5    3.4859   404.9    5.100      28.320
2015    6       25    13   9    3.4850   404.7    5.101      28.304
2015    6       25    13  13    3.4841   404.6    5.101      28.288
2015    6       25    13  18    3.4831   404.5    5.102      28.272
2015    6       25    13  22    3.4822   404.4    5.102      28.256
2015    6       25    13  26    3.4813   404.3    5.103      28.240
2015    6       25    13  31    3.4804   404.2    5.103      28.225
2015    6       25    13  35    3.4794   404.0    5.104      28.209
2015    6       25    13  39    3.4785   403.9    5.104      28.193
2015    6       25    13  43    3.4776   403.8    5.105      28.178
2015    6       25    13  48    3.4767   403.7    5.106      28.163
2015    6       25    13  52    3.4758   403.6    5.106      28.147
2015    6       25    13  56    3.4750   403.4    5.107      28.132
2015    6       25    14   0    3.4741   403.3    5.108      28.117
2015    6       25    14   5    3.4732   403.2    5.109      28.102
2015    6       25    14   9    3.4724   403.1    5.109      28.088
2015    6       25    14  13    3.4715   403.0    5.110      28.073
2015    6       25    14  18    3.4707   402.8    5.111      28.059
2015    6       25    14  22    3.4699   402.7    5.112      28.044
2015    6       25    14  26    3.4691   402.6    5.113      28.030
2015    6       25    14  30    3.4683   402.5    5.114      28.016
2015    6       25    14  35    3.4675   402.3    5.115      28.002
2015    6       25    14  39    3.4668   402.2    5.116      27.988
2015    6       25    14  43    3.4660   402.1    5.117      27.974
2015    6       25    14  48    3.4653   402.0    5.118      27.961
2015    6       25    14  52    3.4646   401.9    5.119      27.947
2015    6       25    14  56    3.4639   401.7    5.120      27.934
2015    6       25    15   0    3.4632   401.6    5.121      27.921
2015    6       25    15   5    3.4626   401.5    5.122      27.907
2015    6       25    15   9    3.4619   401.4    5.124      27.894
2015    6       25    15  13    3.4613   401.2    5.125      27.881
2015    6       25    15  18    3.4607   401.1    5.126      27.867
2015    6       25    15  22    3.4601   401.0    5.128      27.854
2015    6       25    15  26    3.4595   400.9    5.129      27.841
2015    6       25    15  31    3.4589   400.7    5.131      27.828
2015    6       25    15  35    3.4583   400.6    5.132      27.814
2015    6       25    15  40    3.4578   400.5    5.134      27.801
2015    6       25    15  44    3.4573   400.3    5.135      27.788
2015    6       25    15  49    3.4568   400.2    5.137      27.775
2015    6       25    15  53    3.4563   400.1    5.139      27.762
2015    6       25    15  57    3.4558   400.0    5.141      27.749
2015    6       25    16   2    3.4553   399.8    5.143      27.736
2015    6       25    16   6    3.4548   399.7    5.145      27.723
2015    6       25    16  11    3.4543   399.6    5.146      27.710
2015    6       25    16  15    3.4539   399.5    5.149      27.697
2015    6       25    16  20    3.4534   399.3    5.151      27.684
2015    6       25    16  24    3.4529   399.2    5.153      27.672
2015    6       25    16  29    3.4524   399.1    5.155      27.659
2015    6       25    16  33    3.4520   398.9    5.157      27.646
2015    6       25    16  38    3.4515   398.8    5.159      27.634
2015    6       25    16  42    3.4511   398.7    5.161      27.622
2015    6       25    16  47    3.4506   398.6    5.164      27.609
2015    6       25    16  51    3.4501   398.4    5.166      27.597
2015    6       25    16  56    3.4497   398.3    5.168      27.584
2015    6       25    17   0    3.4492   398.2    5.171      27.572
2015    6       25    17   5    3.4487   398.0    5.173      27.560
2015    6       25    17  10    3.4482   397.9    5.175      27.547
2015    6       25    17  14    3.4477   397.8    5.178      27.535
2015    6       25    17  19    3.4472   397.6    5.180      27.523
2015    6       25    17  23    3.4467   397.5    5.183      27.511
2015    6       25    17  28    3.4462   397.4    5.185      27.498
2015    6       25    17  32    3.4457   397.3    5.188      27.486
2015    6       25    17  37    3.4452   397.1    5.190      27.474
2015    6       25    17  41    3.4447   397.0    5.192      27.462
2015    6       25    17  46    3.4442   396.9    5.195      27.449
2015    6       25    17  51    3.4436   396.7    5.197      27.437
2015    6       25    17  55    3.4431   396.6    5.200      27.424
2015    6       25    18   0    3.4426   396.5    5.202      27.412
2015    6       25    18   4    3.4420   396.3    5.204      27.399
2015    6       25    18   9    3.4415   396.2    5.207      27.387
2015    6       25    18  14    3.4410   396.1    5.209      27.374
2015    6       25    18  18    3.4404   395.9    5.211      27.361
2015    6       25    18  23    3.4399   395.8    5.213      27.348
2015    6       25    18  28    3.4394   395.6    5.216      27.336
2015    6       25    18  32    3.4388   395.5    5.218      27.323
2015    6       25    18  37    3.4383   395.4    5.220      27.310
2015    6       25    18  41    3.4378   395.2    5.222      27.297
2015    6       25    18  46    3.4373   395.1    5.224      27.284
2015    6       25    18  51    3.4368   394.9    5.227      27.271
2015    6       25    18  55    3.4363   394.8    5.229      27.258
2015    6       25    19   0    3.4358   394.7    5.231      27.244
2015    6       25    19   5    3.4353   394.5    5.233      27.231
2015    6       25    19   9    3.4348   394.4    5.235      27.218
2015    6       25    19  14    3.4343   394.2    5.237      27.205
2015    6       25    19  19    3.4339   394.1    5.239      27.191
2015    6       25    19  23    3.4334   394.0    5.241      27.178
2015    6       25    19  28    3.4330   393.8    5.243      27.165
2015    6       25    19  33    3.4326   393.7    5.245      27.151
2015    6       25    19  38    3.4322   393.5    5.247      27.138
2015    6       25    19  42    3.4318   393.4    5.249      27.124
2015    6       25    19  47    3.4314   393.2    5.251      27.110
2015    6       25    19  52    3.4310   393.1    5.253      27.097
2015    6       25    19  56    3.4307   393.0    5.255      27.083
2015    6       25    20   1    3.4303   392.8    5.256      27.069
2015    6       25    20   6    3.4300   392.7    5.258      27.055
2015    6       25    20  11    3.4297   392.5    5.260      27.041
2015    6       25    20  15    3.4294   392.4    5.262      27.027
2015    6       25    20  20    3.4291   392.2    5.264      27.013
2015    6       25    20  25    3.4288   392.1    5.266      26.999
2015    6       25    20  30    3.4286   391.9    5.268      26.985
2015    6       25    20  34    3.4284   391.8    5.270      26.970
2015    6       25    20  39    3.4281   391.6    5.272      26.956
2015    6       25    20  44    3.4279   391.5    5.273      26.941
2015    6       25    20  49    3.4277   391.3    5.275      26.927
2015    6       25    20  53    3.4276   391.2    5.277      26.912
2015    6       25    20  58    3.4274   391.0    5.279      26.897
2015    6       25    21   3    3.4273   390.9    5.281      26.882
2015    6       25    21   8    3.4272   390.7    5.283      26.867
2015    6       25    21  13    3.4271   390.6    5.285      26.852
2015    6       25    21  18    3.4270   390.4    5.287      26.836
2015    6       25    21  22    3.4270   390.3    5.289      26.821
2015    6       25    21  27    3.4270   390.1    5.291      26.805
2015    6       25    21  32    3.4270   390.0    5.294      26.790
2015    6       25    21  37    3.4270   389.8    5.296      26.774
2015    6       25    21  42    3.4271   389.6    5.298      26.759
2015    6       25    21  47    3.4271   389.5    5.301      26.743
2015    6       25    21  52    3.4272   389.3    5.303      26.727
2015    6       25    21  57    3.4274   389.2    5.305      26.712
2015    6       25    22   2    3.4275   389.0    5.308      26.696
2015    6       25    22   6    3.4277   388.8    5.311      26.681
2015    6       25    22  11    3.4279   388.7    5.313      26.665
2015    6       25    22  16    3.4281   388.5    5.316      26.649
2015    6       25    22  21    3.4284   388.4    5.319      26.634
2015    6       25    22  26    3.4286   388.2    5.322      26.619
2015    6       25    22  31    3.4290   388.0    5.325      26.603
2015    6       25    22  37    3.4293   387.9    5.328      26.588
2015    6       25    22  42    3.4297   387.7    5.332      26.573
2015    6       25    22  47    3.4301   387.6    5.335      26.558
2015    6       25    22  52    3.4305   387.4    5.339      26.543
2015    6       25    22  57    3.4310   387.2    5.342      26.528
2015    6       25    23   2    3.4314   387.1    5.346      26.514
2015    6       25    23   7    3.4320   386.9    5.350      26.499
2015    6       25    23  12    3.4325   386.7    5.354      26.485
2015    6       25    23  17    3.4331   386.6    5.358      26.471
2015    6       25    23  22    3.4337   386.4    5.362      26.457
2015    6       25    23  28    3.4343   386.2    5.366      26.444
2015    6       25    23  33    3.4349   386.1    5.371      26.430
2015    6       25    23  38    3.4355   385.9    5.375      26.417
2015    6       25    23  43    3.4362   385.7    5.380      26.404
2015    6       25    23  48    3.4369   385.6    5.385      26.391
2015    6       25    23  54    3.4376   385.4    5.390      26.378
2015    6       25    23  59    3.4383   385.2    5.395      26.365
2015    6       26     0   4    3.4390   385.1    5.400      26.353
2015    6       26     0   9    3.4397   384.9    5.405      26.341
2015    6       26     0  15    3.4405   384.8    5.411      26.329
2015    6       26     0  20    3.4413   384.6    5.416      26.317
2015    6       26     0  25    3.4420   384.4    5.422      26.305
2015    6       26     0  30    3.4428   384.3    5.428      26.294
2015    6       26     0  36    3.4436   384.1    5.434      26.282
2015    6       26     0  41    3.4444   383.9    5.439      26.271
2015    6       26     0  46    3.4452   383.8    5.445      26.261
2015    6       26     0  52    3.4461   383.6    5.452      26.250
2015    6       26     0  57    3.4469   383.4    5.458      26.239
2015    6       26     1   2    3.4478   383.2    5.464      26.229
2015    6       26     1   8    3.4487   383.1    5.470      26.218
2015    6       26     1  13    3.4496   382.9    5.477      26.209
2015    6       26     1  18    3.4505   382.7    5.483      26.198
2015    6       26     1  24    3.4515   382.6    5.490      26.189
2015    6       26     1  29    3.4524   382.4    5.497      26.179
2015    6       26     1  35    3.4534   382.2    5.503      26.170
2015    6       26     1  40    3.4545   382.0    5.510      26.160
2015    6       26     1  46    3.4555   381.9    5.517      26.151
2015    6       26     1  51    3.4566   381.7    5.524      26.142
2015    6       26     1  56    3.4577   381.5    5.531      26.134
2015    6       26     2   2    3.4589   381.3    5.538      26.125
2015    6       26     2   7    3.4600   381.2    5.545      26.117
2015    6       26     2  13    3.4613   381.0    5.553      26.109
2015    6       26     2  18    3.4625   380.8    5.560      26.101
2015    6       26     2  24    3.4638   380.6    5.567      26.094
2015    6       26     2  29    3.4651   380.5    5.575      26.086
2015    6       26     2  35    3.4665   380.3    5.582      26.079
2015    6       26     2  40    3.4679   380.1    5.590      26.072
2015    6       26     2  46    3.4693   380.0    5.598      26.065
2015    6       26     2  51    3.4708   379.8    5.605      26.059
2015    6       26     2  57    3.4723   379.6    5.613      26.052
2015    6       26     3   2    3.4739   379.4    5.621      26.046
2015    6       26     3   8    3.4754   379.3    5.629      26.040
2015    6       26     3  14    3.4771   379.1    5.637      26.034
2015    6       26     3  19    3.4787   378.9    5.645      26.028
2015    6       26     3  25    3.4804   378.8    5.653      26.023
2015    6       26     3  30    3.4822   378.6    5.661      26.017
2015    6       26     3  36    3.4840   378.4    5.669      26.012
2015    6       26     3  42    3.4858   378.2    5.678      26.006
2015    6       26     3  47    3.4876   378.1    5.686      26.001
2015    6       26     3  53    3.4895   377.9    5.694      25.996
2015    6       26     3  58    3.4914   377.7    5.702      25.991
2015    6       26     4   4    3.4933   377.6    5.711      25.986
2015    6       26     4  10    3.4953   377.4    5.719      25.981
2015    6       26     4  15    3.4973   377.2    5.727      25.976
2015    6       26     4  21    3.4993   377.1    5.736      25.971
2015    6       26     4  27    3.5014   376.9    5.744      25.966
2015    6       26     4  32    3.5035   376.7    5.753      25.961
2015    6       26     4  38    3.5056   376.5    5.761      25.956
2015    6       26     4  44    3.5077   376.4    5.770      25.951
2015    6       26     4  50    3.5099   376.2    5.779      25.946
2015    6       26     4  55    3.5121   376.0    5.787      25.941
2015    6       26     5   1    3.5143   375.9    5.796      25.936
2015    6       26     5   7    3.5166   375.7    5.804      25.930
2015    6       26     5  13    3.5188   375.5    5.813      25.925
2015    6       26     5  18    3.5211   375.3    5.822      25.920
2015    6       26     5  24    3.5234   375.2    5.830      25.915
2015    6       26     5  30    3.5257   375.0    5.839      25.910
2015    6       26     5  36    3.5281   374.8    5.848      25.905
2015    6       26     5  41    3.5305   374.7    5.857      25.900
2015    6       26     5  47    3.5329   374.5    5.866      25.895
2015    6       26     5  53    3.5353   374.3    5.875      25.890
2015    6       26     5  59    3.5378   374.1    5.884      25.885
2015    6       26     6   4    3.5403   374.0    5.893      25.880
2015    6       26     6  10    3.5428   373.8    5.902      25.875
2015    6       26     6  16    3.5453   373.6    5.911      25.870
2015    6       26     6  22    3.5479   373.5    5.920      25.866
2015    6       26     6  28    3.5505   373.3    5.930      25.861
2015    6       26     6  34    3.5531   373.1    5.939      25.856
2015    6       26     6  39    3.5558   373.0    5.949      25.852
2015    6       26     6  45    3.5585   372.8    5.958      25.848
2015    6       26     6  51    3.5612   372.6    5.968      25.844
2015    6       26     6  57    3.5639   372.4    5.977      25.840
2015    6       26     7   3    3.5667   372.3    5.987      25.836
2015    6       26     7   9    3.5695   372.1    5.997      25.833
2015    6       26     7  15    3.5723   371.9    6.007      25.829
2015    6       26     7  20    3.5751   371.8    6.017      25.826
2015    6       26     7  26    3.5780   371.6    6.027      25.823
2015    6       26     7  32    3.5810   371.4    6.038      25.821
2015    6       26     7  38    3.5839   371.3    6.048      25.819
2015    6       26     7  44    3.5869   371.1    6.059      25.817
2015    6       26     7  50    3.5899   370.9    6.069      25.815
2015    6       26     7  56    3.5930   370.8    6.080      25.814
2015    6       26     8   2    3.5961   370.6    6.091      25.813
2015    6       26     8   8    3.5992   370.5    6.102      25.813
2015    6       26     8  13    3.6024   370.3    6.113      25.813
2015    6       26     8  19    3.6056   370.1    6.124      25.813
2015    6       26     8  25    3.6088   370.0    6.136      25.814
2015    6       26     8  31    3.6121   369.8    6.147      25.815
2015    6       26     8  37    3.6154   369.7    6.159      25.817
2015    6       26     8  43    3.6187   369.5    6.171      25.819
2015    6       26     8  49    3.6221   369.4    6.182      25.822
2015    6       26     8  55    3.6256   369.2    6.194      25.825
2015    6       26     9   1    3.6290   369.1    6.207      25.828
2015    6       26     9   6    3.6325   368.9    6.219      25.832
2015    6       26     9  12    3.6361   368.8    6.231      25.837
2015    6       26     9  18    3.6397   368.6    6.244      25.842
2015    6       26     9  24    3.6433   368.5    6.256      25.847
2015    6       26     9  30    3.6470   368.3    6.269      25.853
2015    6       26     9  36    3.6507   368.2    6.282      25.860
2015    6       26     9  42    3.6544   368.0    6.295      25.866
2015    6       26     9  48    3.6582   367.9    6.308      25.874
2015    6       26     9  54    3.6620   367.8    6.321      25.882
2015    6       26    10   0    3.6659   367.6    6.334      25.890
2015    6       26    10   5    3.6698   367.5    6.347      25.899
2015    6       26    10  11    3.6737   367.4    6.361      25.908
2015    6       26    10  17    3.6776   367.2    6.374      25.918
2015    6       26    10  23    3.6816   367.1    6.388      25.928
2015    6       26    10  29    3.6856   367.0    6.402      25.938
2015    6       26    10  35    3.6897   366.8    6.415      25.949
2015    6       26    10  41    3.6937   366.7    6.429      25.960
2015    6       26    10  47    3.6978   366.6    6.443      25.971
2015    6       26    10  53    3.7019   366.4    6.457      25.983
2015    6       26    10  58    3.7060   366.3    6.471      25.995
2015    6       26    11   4    3.7102   366.2    6.485      26.008
2015    6       26    11  10    3.7143   366.1    6.499      26.021
2015    6       26    11  16    3.7185   365.9    6.513      26.034
2015    6       26    11  22    3.7226   365.8    6.527      26.047
2015    6       26    11  28    3.7268   365.7    6.541      26.061
2015    6       26    11  34    3.7310   365.6    6.555      26.074
2015    6       26    11  40    3.7352   365.5    6.569      26.088
2015    6       26    11  46    3.7394   365.3    6.583      26.103
2015    6       26    11  51    3.7437   365.2    6.597      26.117
2015    6       26    11  57    3.7479   365.1    6.612      26.131
2015    6       26    12   3    3.7521   365.0    6.626      26.146
2015    6       26    12   9    3.7563   364.9    6.640      26.161
2015    6       26    12  15    3.7606   364.8    6.654      26.176
2015    6       26    12  21    3.7648   364.6    6.668      26.191
2015    6       26    12  27    3.7691   364.5    6.682      26.206
2015    6       26    12  33    3.7733   364.4    6.696      26.222
2015    6       26    12  39    3.7776   364.3    6.711      26.237
2015    6       26    12  44    3.7818   364.2    6.725      26.253
2015    6       26    12  50    3.7861   364.1    6.739      26.269
2015    6       26    12  56    3.7904   364.0    6.753      26.284
2015    6       26    13   2    3.7946   363.9    6.767      26.300
2015    6       26    13   8    3.7989   363.8    6.781      26.316
2015    6       26    13  14    3.8032   363.7    6.795      26.332
2015    6       26    13  20    3.8075   363.6    6.810      26.348
2015    6       26    13  26    3.8118   363.5    6.824      26.365
2015    6       26    13  32    3.8161   363.3    6.838      26.381
2015    6       26    13  38    3.8205   363.2    6.852      26.397
2015    6       26    13  43    3.8248   363.1    6.866      26.414
2015    6       26    13  49    3.8291   363.0    6.880      26.430
2015    6       26    13  55    3.8335   362.9    6.895      26.447
2015    6       26    14   1    3.8379   362.8    6.909      26.464
2015    6       26    14   7    3.8422   362.7    6.923      26.481
2015    6       26    14  13    3.8466   362.6    6.937      26.498
2015    6       26    14  19    3.8510   362.5    6.952      26.515
2015    6       26    14  25    3.8554   362.5    6.966      26.532
2015    6       26    14  31    3.8598   362.4    6.980      26.549
2015    6       26    14  36    3.8643   362.3    6.995      26.567
2015    6       26    14  42    3.8687   362.2    7.009      26.584
2015    6       26    14  48    3.8731   362.1    7.024      26.602
2015    6       26    14  54    3.8776   362.0    7.038      26.619
2015    6       26    15   0    3.8821   361.9    7.053      26.637
2015    6       26    15   6    3.8866   361.8    7.068      26.656
2015    6       26    15  12    3.8911   361.7    7.083      26.674
2015    6       26    15  18    3.8956   361.6    7.098      26.692
2015    6       26    15  24    3.9001   361.5    7.113      26.711
2015    6       26    15  29    3.9047   361.4    7.128      26.730
2015    6       26    15  35    3.9093   361.4    7.143      26.750
2015    6       26    15  41    3.9139   361.3    7.158      26.769
2015    6       26    15  47    3.9185   361.2    7.174      26.789
2015    6       26    15  53    3.9231   361.1    7.189      26.809
2015    6       26    15  59    3.9278   361.0    7.205      26.829
2015    6       26    16   5    3.9325   360.9    7.220      26.850
2015    6       26    16  11    3.9373   360.9    7.236      26.872
2015    6       26    16  17    3.9420   360.8    7.252      26.894
2015    6       26    16  23    3.9468   360.7    7.268      26.916
2015    6       26    16  28    3.9516   360.6    7.283      26.939
2015    6       26    16  34    3.9564   360.6    7.299      26.963
2015    6       26    16  40    3.9612   360.5    7.315      26.988
2015    6       26    16  46    3.9661   360.4    7.331      27.014
2015    6       26    16  52    3.9709   360.4    7.346      27.040
2015    6       26    16  58    3.9758   360.3    7.362      27.067
2015    6       26    17   4    3.9806   360.2    7.378      27.095
2015    6       26    17  10    3.9855   360.2    7.393      27.122
2015    6       26    17  16    3.9903   360.1    7.408      27.151
2015    6       26    17  21    3.9952   360.0    7.424      27.180
2015    6       26    17  27    4.0001   360.0    7.439      27.209
2015    6       26    17  33    4.0049   359.9    7.454      27.239
2015    6       26    17  39    4.0098   359.9    7.468      27.270
2015    6       26    17  45    4.0146   359.8    7.483      27.300
2015    6       26    17  51    4.0194   359.8    7.497      27.331
2015    6       26    17  57    4.0242   359.7    7.512      27.361
2015    6       26    18   3    4.0290   359.6    7.526      27.392
2015    6       26    18   9    4.0338   359.6    7.540      27.423
2015    6       26    18  15    4.0385   359.5    7.554      27.453
2015    6       26    18  20    4.0433   359.5    7.568      27.484
2015    6       26    18  26    4.0480   359.4    7.582      27.514
2015    6       26    18  32    4.0528   359.4    7.595      27.544
2015    6       26    18  38    4.0575   359.3    7.609      27.575
2015    6       26    18  44    4.0621   359.3    7.622      27.605
2015    6       26    18  50    4.0668   359.2    7.636      27.634
2015    6       26    18  56    4.0715   359.2    7.649      27.664
2015    6       26    19   2    4.0761   359.1    7.662      27.694
2015    6       26    19   8    4.0808   359.1    7.675      27.723
2015    6       26    19  13    4.0854   359.0    7.688      27.752
2015    6       26    19  19    4.0899   359.0    7.700      27.781
2015    6       26    19  25    4.0945   358.9    7.713      27.810
2015    6       26    19  31    4.0991   358.9    7.726      27.839
2015    6       26    19  37    4.1036   358.9    7.738      27.868
2015    6       26    19  43    4.1081   358.8    7.750      27.896
2015    6       26    19  49    4.1126   358.8    7.763      27.924
2015    6       26    19  55    4.1171   358.7    7.775      27.953
2015    6       26    20   1    4.1216   358.7    7.787      27.980
2015    6       26    20   6    4.1261   358.6    7.799      28.008
2015    6       26    20  12    4.1305   358.6    7.811      28.036
2015    6       26    20  18    4.1349   358.6    7.823      28.063
2015    6       26    20  24    4.1394   358.5    7.835      28.090
2015    6       26    20  30    4.1437   358.5    7.846      28.117
2015    6       26    20  36    4.1481   358.4    7.858      28.144
2015    6       26    20  42    4.1525   358.4    7.869      28.171
2015    6       26    20  48    4.1569   358.3    7.881      28.198
2015    6       26    20  54    4.1612   358.3    7.892      28.224
2015    6       26    20  59    4.1656   358.3    7.904      28.250
2015    6       26    21   5    4.1699   358.2    7.915      28.276
2015    6       26    21  11    4.1743   358.2    7.927      28.301
2015    6       26    21  17    4.1786   358.1    7.938      28.327
2015    6       26    21  23    4.1829   358.1    7.949      28.352
2015    6       26    21  29    4.1872   358.1    7.960      28.377
2015    6       26    21  35    4.1915   358.0    7.971      28.402
2015    6       26    21  41    4.1958   358.0    7.983      28.427
2015    6       26    21  47    4.2001   358.0    7.994      28.452
2015    6       26    21  53    4.2044   357.9    8.005      28.476
2015    6       26    21  58    4.2087   357.9    8.016      28.501
2015    6       26    22   4    4.2130   357.8    8.027      28.525
2015    6       26    22  10    4.2172   357.8    8.038      28.549
2015    6       26    22  16    4.2215   357.8    8.049      28.573
2015    6       26    22  22    4.2258   357.7    8.061      28.597
2015    6       26    22  28    4.2301   357.7    8.072      28.620
2015    6       26    22  34    4.2344   357.7    8.083      28.644
2015    6       26    22  40    4.2387   357.6    8.094      28.668
2015    6       26    22  46    4.2430   357.6    8.106      28.691
2015    6       26    22  51    4.2474   357.6    8.117      28.715
2015    6       26    22  57    4.2517   357.5    8.129      28.738
2015    6       26    23   3    4.2561   357.5    8.140      28.761
2015    6       26    23   9    4.2605   357.5    8.152      28.785
2015    6       26    23  15    4.2649   357.4    8.164      28.808
2015    6       26    23  21    4.2693   357.4    8.175      28.832
2015    6       26    23  27    4.2737   357.4    8.187      28.856
2015    6       26    23  33    4.2782   357.4    8.199      28.880
2015    6       26    23  39    4.2826   357.3    8.211      28.905
2015    6       26    23  45    4.2871   357.3    8.223      28.930
2015    6       26    23  50    4.2915   357.3    8.235      28.955
2015    6       26    23  56    4.2960   357.3    8.247      28.982
2015    6       27     0   2    4.3005   357.2    8.258      29.008
2015    6       27     0   8    4.3049   357.2    8.270      29.035
2015    6       27     0  14    4.3093   357.2    8.282      29.063
2015    6       27     0  20    4.3137   357.2    8.294      29.091
2015    6       27     0  26    4.3181   357.2    8.305      29.120
2015    6       27     0  32    4.3225   357.1    8.316      29.149
2015    6       27     0  38    4.3269   357.1    8.328      29.179
2015    6       27     0  43    4.3312   357.1    8.339      29.209
2015    6       27     0  49    4.3354   357.1    8.350      29.239
2015    6       27     0  55    4.3397   357.1    8.360      29.270
2015    6       27     1   1    4.3439   357.1    8.371      29.301
2015    6       27     1   7    4.3481   357.1    8.381      29.333
2015    6       27     1  13    4.3522   357.1    8.391      29.364
2015    6       27     1  19    4.3563   357.0    8.401      29.396
2015    6       27     1  25    4.3604   357.0    8.411      29.427
2015    6       27     1  31    4.3644   357.0    8.421      29.459
2015    6       27     1  36    4.3684   357.0    8.430      29.490
2015    6       27     1  42    4.3723   357.0    8.439      29.521
2015    6       27     1  48    4.3763   357.0    8.449      29.552
2015    6       27     1  54    4.3802   357.0    8.457      29.583
2015    6       27     2   0    4.3840   357.0    8.466      29.613
2015    6       27     2   6    4.3879   357.0    8.475      29.643
2015    6       27     2  12    4.3917   357.0    8.483      29.673
2015    6       27     2  18    4.3955   357.0    8.492      29.703
2015    6       27     2  24    4.3993   356.9    8.500      29.732
2015    6       27     2  30    4.4030   356.9    8.508      29.761
2015    6       27     2  35    4.4067   356.9    8.516      29.790
2015    6       27     2  41    4.4104   356.9    8.524      29.818
2015    6       27     2  47    4.4141   356.9    8.531      29.846
2015    6       27     2  53    4.4178   356.9    8.539      29.873
2015    6       27     2  59    4.4214   356.9    8.547      29.901
2015    6       27     3   5    4.4250   356.9    8.554      29.927
2015    6       27     3  11    4.4286   356.9    8.561      29.954
2015    6       27     3  17    4.4322   356.9    8.568      29.980
2015    6       27     3  23    4.4358   356.9    8.576      30.006
2015    6       27     3  28    4.4393   356.9    8.583      30.032
2015    6       27     3  34    4.4429   356.9    8.590      30.058
2015    6       27     3  40    4.4464   356.8    8.596      30.083
2015    6       27     3  46    4.4499   356.8    8.603      30.107
2015    6       27     3  52    4.4534   356.8    8.610      30.132
2015    6       27     3  58    4.4569   356.8    8.617      30.156
2015    6       27     4   4    4.4604   356.8    8.623      30.180
2015    6       27     4  10    4.4639   356.8    8.630      30.204
2015    6       27     4  16    4.4673   356.8    8.636      30.227
2015    6       27     4  21    4.4708   356.8    8.643      30.250
2015    6       27     4  27    4.4742   356.8    8.649      30.273
2015    6       27     4  33    4.4777   356.8    8.655      30.296
2015    6       27     4  39    4.4811   356.8    8.662      30.318
2015    6       27     4  45    4.4845   356.8    8.668      30.341
2015    6       27     4  51    4.4880   356.8    8.674      30.363
2015    6       27     4  57    4.4914   356.8    8.680      30.384
2015    6       27     5   3    4.4948   356.8    8.686      30.406
2015    6       27     5   9    4.4982   356.8    8.693      30.427
2015    6       27     5  15    4.5016   356.8    8.699      30.448
2015    6       27     5  20    4.5050   356.8    8.705      30.469
2015    6       27     5  26    4.5084   356.7    8.711      30.490
2015    6       27     5  32    4.5118   356.7    8.717      30.511
2015    6       27     5  38    4.5152   356.7    8.723      30.532
2015    6       27     5  44    4.5186   356.7    8.728      30.552
2015    6       27     5  50    4.5220   356.7    8.734      30.572
2015    6       27     5  56    4.5254   356.7    8.740      30.593
2015    6       27     6   2    4.5289   356.7    8.746      30.613
2015    6       27     6   8    4.5323   356.7    8.752      30.633
2015    6       27     6  13    4.5357   356.7    8.758      30.653
2015    6       27     6  19    4.5391   356.7    8.764      30.672
2015    6       27     6  25    4.5426   356.7    8.770      30.692
2015    6       27     6  31    4.5460   356.7    8.776      30.712
2015    6       27     6  37    4.5495   356.7    8.782      30.732
2015    6       27     6  43    4.5529   356.7    8.788      30.752
2015    6       27     6  49    4.5564   356.7    8.794      30.771
2015    6       27     6  55    4.5598   356.7    8.800      30.791
2015    6       27     7   1    4.5632   356.7    8.806      30.811
2015    6       27     7   7    4.5666   356.7    8.813      30.831
2015    6       27     7  12    4.5700   356.7    8.819      30.851
2015    6       27     7  18    4.5734   356.7    8.825      30.871
2015    6       27     7  24    4.5768   356.7    8.831      30.892
2015    6       27     7  30    4.5801   356.7    8.837      30.912
2015    6       27     7  36    4.5835   356.7    8.844      30.933
2015    6       27     7  42    4.5868   356.7    8.850      30.954
2015    6       27     7  48    4.5900   356.7    8.856      30.975
2015    6       27     7  54    4.5933   356.7    8.862      30.997
2015    6       27     8   0    4.5965   356.7    8.868      31.018
2015    6       27     8   5    4.5997   356.8    8.874      31.040
2015    6       27     8  11    4.6028   356.8    8.880      31.062
2015    6       27     8  17    4.6059   356.8    8.885      31.084
2015    6       27     8  23    4.6090   356.8    8.891      31.107
2015    6       27     8  29    4.6120   356.8    8.896      31.129
2015    6       27     8  35    4.6151   356.8    8.902      31.151
2015    6       27     8  41    4.6181   356.8    8.907      31.174
2015    6       27     8  47    4.6210   356.8    8.912      31.196
2015    6       27     8  53    4.6239   356.8    8.918      31.219
2015    6       27     8  59    4.6268   356.8    8.923      31.241
2015    6       27     9   4    4.6297   356.8    8.928      31.263
2015    6       27     9  10    4.6326   356.9    8.932      31.285
2015    6       27     9  16    4.6354   356.9    8.937      31.306
2015    6       27     9  22    4.6382   356.9    8.942      31.328
2015    6       27     9  28    4.6410   356.9    8.946      31.349
2015    6       27     9  34    4.6437   356.9    8.951      31.370
2015    6       27     9  40    4.6464   356.9    8.955      31.391
2015    6       27     9  46    4.6492   356.9    8.960      31.412
2015    6       27     9  52    4.6519   356.9    8.964      31.432
2015    6       27     9  57    4.6546   356.9    8.968      31.452
2015    6       27    10   3    4.6572   356.9    8.973      31.472
2015    6       27    10   9    4.6599   356.9    8.977      31.492
2015    6       27    10  15    4.6625   357.0    8.981      31.511
2015    6       27    10  21    4.6651   357.0    8.985      31.530
2015    6       27    10  27    4.6677   357.0    8.989      31.549
2015    6       27    10  33    4.6704   357.0    8.993      31.568
2015    6       27    10  39    4.6729   357.0    8.996      31.586
2015    6       27    10  45    4.6755   357.0    9.000      31.604
2015    6       27    10  50    4.6781   357.0    9.004      31.622
2015    6       27    10  56    4.6806   357.0    9.008      31.640
2015    6       27    11   2    4.6832   357.0    9.011      31.657
2015    6       27    11   8    4.6857   357.0    9.015      31.675
2015    6       27    11  14    4.6883   357.0    9.019      31.692
2015    6       27    11  20    4.6908   357.1    9.022      31.709
2015    6       27    11  26    4.6933   357.1    9.026      31.725
2015    6       27    11  32    4.6958   357.1    9.029      31.742
2015    6       27    11  38    4.6983   357.1    9.032      31.758
2015    6       27    11  44    4.7008   357.1    9.036      31.774
2015    6       27    11  49    4.7032   357.1    9.039      31.791
2015    6       27    11  55    4.7057   357.1    9.043      31.806
2015    6       27    12   1    4.7082   357.1    9.046      31.822
2015    6       27    12   7    4.7106   357.1    9.049      31.837
2015    6       27    12  13    4.7131   357.1    9.052      31.853
2015    6       27    12  19    4.7155   357.1    9.056      31.868
2015    6       27    12  25    4.7180   357.1    9.059      31.884
2015    6       27    12  31    4.7204   357.2    9.062      31.898
2015    6       27    12  37    4.7228   357.2    9.065      31.913
2015    6       27    12  42    4.7252   357.2    9.069      31.928
2015    6       27    12  48    4.7277   357.2    9.072      31.943
2015    6       27    12  54    4.7301   357.2    9.075      31.958
2015    6       27    13   0    4.7325   357.2    9.078      31.973
2015    6       27    13   6    4.7349   357.2    9.081      31.987
2015    6       27    13  12    4.7373   357.2    9.085      32.002
2015    6       27    13  18    4.7397   357.2    9.088      32.016
2015    6       27    13  24    4.7421   357.2    9.091      32.031
2015    6       27    13  30    4.7445   357.2    9.094      32.045
2015    6       27    13  36    4.7469   357.3    9.097      32.060
2015    6       27    13  41    4.7493   357.3    9.101      32.074
2015    6       27    13  47    4.7516   357.3    9.104      32.089
2015    6       27    13  53    4.7540   357.3    9.107      32.103
2015    6       27    13  59    4.7563   357.3    9.110      32.118
2015    6       27    14   5    4.7587   357.3    9.114      32.132
2015    6       27    14  11    4.7610   357.3    9.117      32.147
2015    6       27    14  17    4.7633   357.3    9.120      32.162
2015    6       27    14  23    4.7656   357.3    9.123      32.177
2015    6       27    14  29    4.7679   357.4    9.126      32.192
2015    6       27    14  34    4.7702   357.4    9.130      32.207
2015    6       27    14  40    4.7724   357.4    9.133      32.222
2015    6       27    14  46    4.7746   357.4    9.136      32.238
2015    6       27    14  52    4.7769   357.4    9.139      32.253
2015    6       27    14  58    4.7790   357.4    9.142      32.268
2015    6       27    15   4    4.7812   357.4    9.145      32.284
2015    6       27    15  10    4.7834   357.4    9.148      32.299
2015    6       27    15  16    4.7855   357.5    9.150      32.314
2015    6       27    15  22    4.7876   357.5    9.153      32.329
2015    6       27    15  27    4.7897   357.5    9.156      32.344
2015    6       27    15  33    4.7918   357.5    9.158      32.359
2015    6       27    15  39    4.7938   357.5    9.161      32.374
2015    6       27    15  45    4.7959   357.5    9.163      32.389
2015    6       27    15  51    4.7979   357.6    9.165      32.404
2015    6       27    15  57    4.7999   357.6    9.168      32.418
2015    6       27    16   3    4.8019   357.6    9.170      32.432
2015    6       27    16   9    4.8039   357.6    9.172      32.446
2015    6       27    16  15    4.8058   357.6    9.174      32.459
2015    6       27    16  21    4.8078   357.6    9.176      32.472
2015    6       27    16  26    4.8097   357.6    9.178      32.485
2015    6       27    16  32    4.8116   357.6    9.180      32.498
2015    6       27    16  38    4.8135   357.7    9.182      32.510
2015    6       27    16  44    4.8154   357.7    9.184      32.522
2015    6       27    16  50    4.8173   357.7    9.186      32.534
2015    6       27    16  56    4.8192   357.7    9.188      32.545
2015    6       27    17   2    4.8210   357.7    9.189      32.557
2015    6       27    17   8    4.8229   357.7    9.191      32.568
2015    6       27    17  14    4.8247   357.7    9.193      32.578
2015    6       27    17  19    4.8265   357.7    9.194      32.589
2015    6       27    17  25    4.8283   357.8    9.196      32.600
2015    6       27    17  31    4.8301   357.8    9.197      32.610
2015    6       27    17  37    4.8319   357.8    9.199      32.620
2015    6       27    17  43    4.8337   357.8    9.200      32.631
2015    6       27    17  49    4.8355   357.8    9.202      32.641
2015    6       27    17  55    4.8372   357.8    9.203      32.651
2015    6       27    18   1    4.8390   357.8    9.204      32.661
2015    6       27    18   7    4.8407   357.8    9.206      32.671
2015    6       27    18  13    4.8424   357.9    9.207      32.681
2015    6       27    18  18    4.8441   357.9    9.209      32.690
2015    6       27    18  24    4.8458   357.9    9.210      32.700
2015    6       27    18  30    4.8475   357.9    9.211      32.710
2015    6       27    18  36    4.8491   357.9    9.213      32.720
2015    6       27    18  42    4.8508   357.9    9.214      32.730
2015    6       27    18  48    4.8524   357.9    9.216      32.740
2015    6       27    18  54    4.8539   357.9    9.217      32.750
2015    6       27    19   0    4.8555   357.9    9.219      32.760
2015    6       27    19   6    4.8570   358.0    9.220      32.771
2015    6       27    19  11    4.8585   358.0    9.222      32.781
2015    6       27    19  17    4.8599   358.0    9.224      32.792
2015    6       27    19  23    4.8613   358.0    9.225      32.804
2015    6       27    19  29    4.8627   358.0    9.227      32.815
2015    6       27    19  35    4.8640   358.0    9.229      32.828
2015    6       27    19  41    4.8653   358.0    9.231      32.840
2015    6       27    19  47    4.8666   358.0    9.233      32.853
2015    6       27    19  53    4.8678   358.1    9.235      32.867
2015    6       27    19  59    4.8690   358.1    9.237      32.882
2015    6       27    20   4    4.8702   358.1    9.240      32.898
2015    6       27    20  10    4.8714   358.1    9.242      32.915
2015    6       27    20  16    4.8725   358.1    9.245      32.933
2015    6       27    20  22    4.8736   358.1    9.248      32.953
2015    6       27    20  28    4.8748   358.1    9.251      32.974
2015    6       27    20  34    4.8759   358.2    9.254      32.996
2015    6       27    20  40    4.8770   358.2    9.257      33.021
2015    6       27    20  46    4.8782   358.2    9.261      33.048
2015    6       27    20  52    4.8793   358.2    9.265      33.078
2015    6       27    20  58    4.8806   358.2    9.269      33.111
2015    6       27    21   3    4.8817   358.3    9.274      33.146
2015    6       27    21   9    4.8830   358.3    9.278      33.186
2015    6       27    21  15    4.8843   358.3    9.284      33.229
2015    6       27    21  21    4.8857   358.4    9.290      33.277
2015    6       27    21  27    4.8870   358.4    9.296      33.331
2015    6       27    21  33    4.8886   358.4    9.303      33.389
2015    6       27    21  39    4.8901   358.5    9.310      33.455
2015    6       27    21  45    4.8918   358.5    9.319      33.528
2015    6       27    21  51    4.8935   358.6    9.328      33.608
2015    6       27    21  56    4.8955   358.6    9.337      33.698
2015    6       27    22   2    4.8974   358.7    9.348      33.799
2015    6       27    22   8    4.8997   358.8    9.360      33.911
2015    6       27    22  14    4.9019   358.9    9.373      34.037
2015    6       27    22  20    4.9045   359.0    9.387      34.176
2015    6       27    22  26    4.9071   359.1    9.402      34.331
2015    6       27    22  32    4.9101   359.2    9.418      34.502
2015    6       27    22  38    4.9130   359.3    9.436      34.691
2015    6       27    22  44    4.9164   359.4    9.455      34.899
2015    6       27    22  50    4.9197   359.6    9.476      35.128
2015    6       27    22  55    4.9235   359.7    9.498      35.377
2015    6       27    23   1    4.9272   359.9    9.522      35.649
2015    6       27    23   7    4.9315   360.1    9.548      35.943
2015    6       27    23  13    4.9357   360.3    9.576      36.263
2015    6       27    23  19    4.9404   360.5    9.606      36.608
2015    6       27    23  25    4.9451   360.7    9.639      36.979
2015    6       27    23  31    4.9504   361.0    9.674      37.378
2015    6       27    23  37    4.9557   361.2    9.712      37.806
2015    6       27    23  43    4.9617   361.5    9.752      38.265
2015    6       27    23  48    4.9678   361.8    9.796      38.758
2015    6       27    23  54    4.9746   362.1    9.843      39.285
2015    6       28     0   0    4.9816   362.5    9.893      39.847
2015    6       28     0   6    4.9894   362.9    9.947      40.447
2015    6       28     0  12    4.9975   363.3   10.005      41.095
2015    6       28     0  18    5.0066   363.7   10.067      41.784
2015    6       28     0  24    5.0160   364.2   10.133      42.521
2015    6       28     0  30    5.0263   364.7   10.203      43.302
2015    6       28     0  36    5.0371   365.2   10.278      44.131
2015    6       28     0  42    5.0488   365.8   10.357      45.007
2015    6       28     0  47    5.0609   366.3   10.441      45.942
2015    6       28     0  53    5.0739   367.0   10.529      46.926
2015    6       28     0  59    5.0875   367.6   10.621      47.962
2015    6       28     1   5    5.1018   368.3   10.716      49.041
2015    6       28     1  11    5.1166   369.0   10.816      50.162
2015    6       28     1  17    5.1321   369.7   10.919      51.320
2015    6       28     1  23    5.1480   370.5   11.026      52.511
2015    6       28     1  29    5.1646   371.2   11.136      53.732
2015    6       28     1  35    5.1815   372.0   11.249      54.981
2015    6       28     1  40    5.1992   372.8   11.365      56.254
2015    6       28     1  46    5.2172   373.6   11.483      57.546
2015    6       28     1  52    5.2359   374.5   11.604      58.852
2015    6       28     1  58    5.2550   375.3   11.727      60.165
2015    6       28     2   4    5.2750   376.1   11.853      61.484
2015    6       28     2  10    5.2954   377.0   11.981      62.808
2015    6       28     2  16    5.3166   377.8   12.111      64.134
2015    6       28     2  22    5.3382   378.7   12.243      65.463
2015    6       28     2  28    5.3604   379.5   12.378      66.786
2015    6       28     2  33    5.3827   380.3   12.516      68.106
2015    6       28     2  39    5.4055   381.2   12.656      69.419
2015    6       28     2  45    5.4282   382.0   12.799      70.729
2015    6       28     2  51    5.4511   382.9   12.944      72.032
2015    6       28     2  57    5.4739   383.8   13.089      73.349
2015    6       28     3   3    5.4966   384.6   13.236      74.677
2015    6       28     3   9    5.5189   385.5   13.383      76.009
2015    6       28     3  15    5.5407   386.4   13.530      77.343
2015    6       28     3  21    5.5616   387.2   13.677      78.672
2015    6       28     3  27    5.5819   388.0   13.822      79.993
2015    6       28     3  32    5.6014   388.9   13.965      81.298
2015    6       28     3  38    5.6201   389.7   14.106      82.588
2015    6       28     3  44    5.6378   390.5   14.243      83.858
2015    6       28     3  50    5.6547   391.3   14.377      85.105
2015    6       28     3  56    5.6706   392.0   14.508      86.322
2015    6       28     4   2    5.6856   392.7   14.634      87.506
2015    6       28     4   8    5.6997   393.4   14.757      88.641
2015    6       28     4  14    5.7130   394.1   14.876      89.725
2015    6       28     4  20    5.7253   394.7   14.990      90.757
2015    6       28     4  26    5.7369   395.3   15.102      91.737
2015    6       28     4  31    5.7477   395.9   15.209      92.665
2015    6       28     4  37    5.7578   396.4   15.312      93.541
2015    6       28     4  43    5.7672   397.0   15.412      94.367
2015    6       28     4  49    5.7760   397.5   15.508      95.141
2015    6       28     4  55    5.7842   398.0   15.601      95.868
2015    6       28     5   1    5.7917   398.4   15.690      96.545
2015    6       28     5   7    5.7987   398.9   15.775      97.176
2015    6       28     5  13    5.8052   399.3   15.857      97.760
2015    6       28     5  19    5.8113   399.6   15.935      98.300
2015    6       28     5  24    5.8170   400.0   16.011      98.796
2015    6       28     5  30    5.8224   400.4   16.083      99.251
2015    6       28     5  36    5.8275   400.7   16.151      99.666
2015    6       28     5  42    5.8324   401.0   16.217     100.043
2015    6       28     5  48    5.8370   401.3   16.281     100.384
2015    6       28     5  54    5.8415   401.6   16.341     100.692
2015    6       28     6   0    5.8459   401.8   16.400     100.969
2015    6       28     6   6    5.8502   402.0   16.456     101.217
2015    6       28     6  12    5.8544   402.3   16.510     101.436
2015    6       28     6  18    5.8585   402.5   16.563     101.631
2015    6       28     6  23    5.8624   402.7   16.614     101.804
2015    6       28     6  29    5.8663   402.8   16.663     101.957
2015    6       28     6  35    5.8699   403.0   16.712     102.092
2015    6       28     6  41    5.8733   403.2   16.760     102.211
2015    6       28     6  47    5.8764   403.3   16.807     102.315
2015    6       28     6  53    5.8793   403.5   16.853     102.409
2015    6       28     6  59    5.8818   403.6   16.898     102.493
2015    6       28     7   5    5.8840   403.7   16.943     102.570
2015    6       28     7  11    5.8857   403.9   16.987     102.640
2015    6       28     7  16    5.8871   404.0   17.030     102.705
2015    6       28     7  22    5.8879   404.2   17.071     102.770
2015    6       28     7  28    5.8882   404.3   17.112     102.834
2015    6       28     7  34    5.8881   404.4   17.150     102.896
2015    6       28     7  40    5.8874   404.5   17.188     102.955
2015    6       28     7  46    5.8862   404.7   17.223     103.014
2015    6       28     7  52    5.8844   404.8   17.257     103.070
2015    6       28     7  58    5.8821   404.9   17.288     103.126
2015    6       28     8   4    5.8792   405.0   17.316     103.177
2015    6       28     8   9    5.8758   405.2   17.343     103.225
2015    6       28     8  15    5.8718   405.3   17.367     103.267
2015    6       28     8  21    5.8672   405.4   17.388     103.305
2015    6       28     8  27    5.8620   405.5   17.407     103.336
2015    6       28     8  33    5.8562   405.6   17.423     103.358
2015    6       28     8  39    5.8498   405.7   17.436     103.371
2015    6       28     8  45    5.8429   405.8   17.446     103.374
2015    6       28     8  51    5.8354   405.8   17.454     103.367
2015    6       28     8  57    5.8272   405.9   17.459     103.351
2015    6       28     9   3    5.8186   406.0   17.462     103.324
2015    6       28     9   8    5.8093   406.0   17.461     103.287
2015    6       28     9  14    5.7994   406.1   17.458     103.239
2015    6       28     9  20    5.7890   406.1   17.452     103.180
2015    6       28     9  26    5.7781   406.2   17.443     103.108
2015    6       28     9  32    5.7665   406.2   17.431     103.025
2015    6       28     9  38    5.7545   406.2   17.416     102.930
2015    6       28     9  44    5.7419   406.3   17.398     102.823
2015    6       28     9  50    5.7288   406.3   17.377     102.702
2015    6       28     9  56    5.7152   406.3   17.354     102.569
2015    6       28    10   1    5.7011   406.3   17.327     102.422
2015    6       28    10   7    5.6866   406.3   17.298     102.263
2015    6       28    10  13    5.6717   406.3   17.266     102.089
2015    6       28    10  19    5.6565   406.3   17.231     101.903
2015    6       28    10  25    5.6409   406.3   17.194     101.702
2015    6       28    10  31    5.6249   406.2   17.154     101.490
2015    6       28    10  37    5.6087   406.2   17.111     101.264
2015    6       28    10  43    5.5921   406.2   17.066     101.026
2015    6       28    10  49    5.5754   406.1   17.019     100.776
2015    6       28    10  55    5.5583   406.1   16.970     100.514
2015    6       28    11   0    5.5410   406.0   16.919     100.241
2015    6       28    11   6    5.5235   405.9   16.866      99.959
2015    6       28    11  12    5.5058   405.8   16.811      99.665
2015    6       28    11  18    5.4879   405.7   16.755      99.363
2015    6       28    11  24    5.4698   405.6   16.698      99.052
2015    6       28    11  30    5.4514   405.5   16.639      98.733
2015    6       28    11  36    5.4329   405.4   16.579      98.407
2015    6       28    11  42    5.4141   405.3   16.518      98.074
2015    6       28    11  48    5.3952   405.2   16.456      97.735
2015    6       28    11  53    5.3761   405.0   16.394      97.391
2015    6       28    11  59    5.3569   404.9   16.331      97.042
2015    6       28    12   5    5.3377   404.7   16.267      96.689
2015    6       28    12  11    5.3186   404.6   16.203      96.331
2015    6       28    12  17    5.2994   404.4   16.139      95.968
2015    6       28    12  23    5.2803   404.3   16.074      95.602
2015    6       28    12  29    5.2613   404.1   16.010      95.232
2015    6       28    12  35    5.2424   403.9   15.945      94.859
2015    6       28    12  41    5.2237   403.7   15.881      94.484
2015    6       28    12  47    5.2053   403.6   15.817      94.105
2015    6       28    12  52    5.1870   403.4   15.752      93.725
2015    6       28    12  58    5.1689   403.2   15.688      93.341
2015    6       28    13   4    5.1510   403.0   15.624      92.957
2015    6       28    13  10    5.1333   402.9   15.560      92.570
2015    6       28    13  16    5.1157   402.7   15.496      92.182
2015    6       28    13  22    5.0983   402.6   15.433      91.792
2015    6       28    13  28    5.0809   402.4   15.369      91.401
2015    6       28    13  34    5.0638   402.2   15.305      91.008
2015    6       28    13  40    5.0467   402.1   15.242      90.615
2015    6       28    13  45    5.0297   401.9   15.178      90.220
2015    6       28    13  51    5.0127   401.8   15.115      89.825
2015    6       28    13  57    4.9959   401.6   15.051      89.428
2015    6       28    14   3    4.9790   401.5   14.987      89.031
2015    6       28    14   9    4.9622   401.3   14.923      88.633
2015    6       28    14  15    4.9454   401.2   14.859      88.234
2015    6       28    14  21    4.9286   401.0   14.795      87.835
2015    6       28    14  27    4.9117   400.9   14.730      87.435
2015    6       28    14  33    4.8949   400.7   14.665      87.034
2015    6       28    14  39    4.8779   400.6   14.600      86.633
2015    6       28    14  44    4.8609   400.4   14.535      86.232
2015    6       28    14  50    4.8439   400.3   14.470      85.829
2015    6       28    14  56    4.8267   400.1   14.404      85.427
2015    6       28    15   2    4.8095   399.9   14.338      85.024
2015    6       28    15   8    4.7921   399.8   14.272      84.621
2015    6       28    15  14    4.7747   399.6   14.206      84.219
2015    6       28    15  20    4.7572   399.4   14.140      83.817
2015    6       28    15  26    4.7396   399.2   14.073      83.415
2015    6       28    15  32    4.7220   399.1   14.007      83.013
2015    6       28    15  37    4.7043   398.9   13.940      82.612
2015    6       28    15  43    4.6865   398.7   13.873      82.210
2015    6       28    15  49    4.6687   398.5   13.807      81.810
2015    6       28    15  55    4.6509   398.3   13.740      81.409
2015    6       28    16   1    4.6330   398.1   13.673      81.010
2015    6       28    16   7    4.6152   397.9   13.606      80.610
2015    6       28    16  13    4.5974   397.7   13.540      80.211
2015    6       28    16  19    4.5796   397.6   13.473      79.812
2015    6       28    16  25    4.5619   397.4   13.407      79.414
2015    6       28    16  31    4.5443   397.2   13.341      79.017
2015    6       28    16  36    4.5268   397.0   13.275      78.620
2015    6       28    16  42    4.5094   396.8   13.209      78.225
2015    6       28    16  48    4.4921   396.6   13.143      77.830
2015    6       28    16  54    4.4750   396.4   13.078      77.437
2015    6       28    17   0    4.4580   396.2   13.013      77.046
2015    6       28    17   6    4.4411   396.0   12.949      76.656
2015    6       28    17  12    4.4244   395.8   12.884      76.268
2015    6       28    17  18    4.4079   395.6   12.820      75.882
2015    6       28    17  24    4.3916   395.4   12.757      75.498
2015    6       28    17  29    4.3755   395.2   12.693      75.116
2015    6       28    17  35    4.3595   395.0   12.630      74.736
2015    6       28    17  41    4.3438   394.8   12.568      74.359
2015    6       28    17  47    4.3282   394.6   12.505      73.985
2015    6       28    17  53    4.3128   394.4   12.443      73.613
2015    6       28    17  59    4.2976   394.3   12.382      73.244
2015    6       28    18   5    4.2826   394.1   12.320      72.877
2015    6       28    18  11    4.2678   393.9   12.259      72.512
2015    6       28    18  17    4.2532   393.7   12.198      72.149
2015    6       28    18  23    4.2387   393.5   12.137      71.789
2015    6       28    18  28    4.2245   393.3   12.076      71.430
2015    6       28    18  34    4.2105   393.1   12.016      71.074
2015    6       28    18  40    4.1967   393.0   11.956      70.720
2015    6       28    18  46    4.1831   392.8   11.896      70.368
2015    6       28    18  52    4.1698   392.6   11.836      70.017
2015    6       28    18  58    4.1566   392.4   11.776      69.668
2015    6       28    19   4    4.1437   392.2   11.717      69.321
2015    6       28    19  10    4.1311   392.1   11.658      68.976
2015    6       28    19  16    4.1187   391.9   11.599      68.632
2015    6       28    19  21    4.1065   391.7   11.540      68.290
2015    6       28    19  27    4.0946   391.6   11.482      67.950
2015    6       28    19  33    4.0829   391.4   11.424      67.611
2015    6       28    19  39    4.0716   391.2   11.366      67.274
2015    6       28    19  45    4.0605   391.0   11.309      66.939
2015    6       28    19  51    4.0497   390.9   11.252      66.605
2015    6       28    19  57    4.0392   390.7   11.195      66.272
2015    6       28    20   3    4.0290   390.5   11.138      65.940
2015    6       28    20   9    4.0190   390.4   11.082      65.610
2015    6       28    20  15    4.0094   390.2   11.027      65.282
2015    6       28    20  20    4.0001   390.0   10.971      64.956
2015    6       28    20  26    3.9911   389.9   10.916      64.632
2015    6       28    20  32    3.9824   389.7   10.862      64.311
2015    6       28    20  38    3.9740   389.5   10.808      63.991
2015    6       28    20  44    3.9659   389.4   10.754      63.673
2015    6       28    20  50    3.9581   389.2   10.701      63.358
2015    6       28    20  56    3.9506   389.0   10.649      63.046
2015    6       28    21   2    3.9434   388.9   10.597      62.735
2015    6       28    21   8    3.9364   388.7   10.546      62.427
2015    6       28    21  13    3.9297   388.5   10.496      62.122
2015    6       28    21  19    3.9233   388.4   10.447      61.819
2015    6       28    21  25    3.9172   388.2   10.399      61.520
2015    6       28    21  31    3.9113   388.1   10.351      61.223
2015    6       28    21  37    3.9057   387.9   10.304      60.928
2015    6       28    21  43    3.9002   387.7   10.259      60.636
2015    6       28    21  49    3.8950   387.6   10.214      60.346
2015    6       28    21  55    3.8899   387.4   10.171      60.059
2015    6       28    22   1    3.8851   387.3   10.128      59.774
2015    6       28    22   7    3.8804   387.1   10.086      59.492
2015    6       28    22  12    3.8759   387.0   10.046      59.212
2015    6       28    22  18    3.8715   386.8   10.006      58.935
2015    6       28    22  24    3.8672   386.7    9.967      58.660
2015    6       28    22  30    3.8632   386.5    9.930      58.387
2015    6       28    22  36    3.8592   386.4    9.893      58.117
2015    6       28    22  42    3.8554   386.2    9.857      57.850
2015    6       28    22  48    3.8518   386.1    9.823      57.584
2015    6       28    22  54    3.8483   386.0    9.789      57.321
2015    6       28    23   0    3.8450   385.8    9.756      57.060
2015    6       28    23   5    3.8419   385.7    9.723      56.801
2015    6       28    23  11    3.8389   385.6    9.692      56.545
2015    6       28    23  17    3.8361   385.4    9.662      56.290
2015    6       28    23  23    3.8336   385.3    9.632      56.038
2015    6       28    23  29    3.8312   385.2    9.603      55.787
2015    6       28    23  35    3.8291   385.0    9.575      55.538
2015    6       28    23  41    3.8272   384.9    9.547      55.291
2015    6       28    23  47    3.8255   384.8    9.520      55.046
2015    6       28    23  53    3.8241   384.7    9.494      54.803
2015    6       28    23  58    3.8230   384.5    9.468      54.561
2015    6       29     0   4    3.8221   384.4    9.443      54.321
2015    6       29     0  10    3.8215   384.3    9.418      54.082
2015    6       29     0  16    3.8211   384.2    9.394      53.844
2015    6       29     0  22    3.8210   384.1    9.370      53.608
2015    6       29     0  28    3.8212   384.0    9.347      53.374
2015    6       29     0  34    3.8217   383.8    9.324      53.140
2015    6       29     0  40    3.8224   383.7    9.301      52.908
2015    6       29     0  46    3.8234   383.6    9.279      52.677
2015    6       29     0  52    3.8247   383.5    9.257      52.447
2015    6       29     0  57    3.8263   383.4    9.235      52.218
2015    6       29     1   3    3.8282   383.3    9.214      51.990
2015    6       29     1   9    3.8303   383.2    9.193      51.763
2015    6       29     1  15    3.8328   383.1    9.173      51.537
2015    6       29     1  21    3.8355   383.0    9.152      51.311
2015    6       29     1  27    3.8385   382.9    9.132      51.087
2015    6       29     1  33    3.8417   382.8    9.112      50.863
2015    6       29     1  39    3.8453   382.7    9.092      50.640
2015    6       29     1  45    3.8491   382.6    9.072      50.417
2015    6       29     1  51    3.8532   382.5    9.052      50.195
2015    6       29     1  56    3.8576   382.4    9.033      49.973
2015    6       29     2   2    3.8623   382.3    9.014      49.752
2015    6       29     2   8    3.8672   382.2    8.995      49.531
2015    6       29     2  14    3.8725   382.2    8.976      49.310
2015    6       29     2  20    3.8780   382.1    8.957      49.090
2015    6       29     2  26    3.8838   382.0    8.939      48.870
2015    6       29     2  32    3.8899   381.9    8.920      48.651
2015    6       29     2  38    3.8963   381.8    8.902      48.431
2015    6       29     2  44    3.9030   381.7    8.884      48.212
2015    6       29     2  49    3.9100   381.6    8.866      47.993
2015    6       29     2  55    3.9173   381.5    8.848      47.774
2015    6       29     3   1    3.9249   381.4    8.830      47.556
2015    6       29     3   7    3.9329   381.3    8.812      47.337
2015    6       29     3  13    3.9410   381.2    8.794      47.119
2015    6       29     3  19    3.9494   381.1    8.776      46.901
2015    6       29     3  25    3.9579   381.0    8.759      46.684
2015    6       29     3  31    3.9667   380.9    8.741      46.467
2015    6       29     3  37    3.9756   380.8    8.724      46.250
2015    6       29     3  43    3.9846   380.7    8.706      46.033
2015    6       29     3  48    3.9937   380.6    8.689      45.816
2015    6       29     3  54    4.0028   380.4    8.672      45.600
2015    6       29     4   0    4.0120   380.3    8.654      45.384
2015    6       29     4   6    4.0211   380.2    8.637      45.167
2015    6       29     4  12    4.0303   380.1    8.620      44.952
2015    6       29     4  18    4.0394   380.0    8.602      44.736
2015    6       29     4  24    4.0484   379.9    8.585      44.520
2015    6       29     4  30    4.0573   379.8    8.567      44.305
2015    6       29     4  36    4.0660   379.6    8.550      44.089
2015    6       29     4  41    4.0747   379.5    8.533      43.874
2015    6       29     4  47    4.0832   379.4    8.515      43.659
2015    6       29     4  53    4.0916   379.3    8.497      43.443
2015    6       29     4  59    4.0999   379.1    8.480      43.228
2015    6       29     5   5    4.1081   379.0    8.462      43.013
2015    6       29     5  11    4.1161   378.9    8.444      42.799
2015    6       29     5  17    4.1240   378.7    8.426      42.586
2015    6       29     5  23    4.1317   378.6    8.409      42.374
2015    6       29     5  29    4.1394   378.5    8.391      42.163
2015    6       29     5  35    4.1469   378.3    8.373      41.955
2015    6       29     5  40    4.1544   378.2    8.354      41.748
2015    6       29     5  46    4.1616   378.1    8.336      41.543
2015    6       29     5  52    4.1688   377.9    8.318      41.341
2015    6       29     5  58    4.1759   377.8    8.300      41.141
2015    6       29     6   4    4.1829   377.6    8.282      40.943
2015    6       29     6  10    4.1897   377.5    8.264      40.748
2015    6       29     6  16    4.1965   377.3    8.246      40.556
2015    6       29     6  22    4.2031   377.2    8.228      40.367
2015    6       29     6  28    4.2097   377.0    8.210      40.182
2015    6       29     6  33    4.2161   376.9    8.193      40.000
2015    6       29     6  39    4.2225   376.7    8.175      39.821
2015    6       29     6  45    4.2288   376.6    8.158      39.645
2015    6       29     6  51    4.2350   376.4    8.140      39.472
2015    6       29     6  57    4.2410   376.3    8.123      39.302
2015    6       29     7   3    4.2471   376.1    8.106      39.136
2015    6       29     7   9    4.2530   376.0    8.090      38.972
2015    6       29     7  15    4.2588   375.8    8.073      38.811
2015    6       29     7  21    4.2646   375.6    8.057      38.653
2015    6       29     7  26    4.2702   375.5    8.041      38.498
2015    6       29     7  32    4.2758   375.3    8.025      38.347
2015    6       29     7  38    4.2814   375.2    8.009      38.198
2015    6       29     7  44    4.2868   375.0    7.994      38.052
2015    6       29     7  50    4.2922   374.9    7.979      37.909
2015    6       29     7  56    4.2975   374.7    7.964      37.768
2015    6       29     8   2    4.3028   374.5    7.949      37.630
2015    6       29     8   8    4.3079   374.4    7.934      37.495
2015    6       29     8  14    4.3131   374.2    7.920      37.363
2015    6       29     8  20    4.3181   374.1    7.906      37.233
2015    6       29     8  25    4.3232   373.9    7.892      37.106
2015    6       29     8  31    4.3281   373.7    7.878      36.981
2015    6       29     8  37    4.3330   373.6    7.865      36.858
2015    6       29     8  43    4.3378   373.4    7.851      36.738
2015    6       29     8  49    4.3426   373.3    7.838      36.620
2015    6       29     8  55    4.3474   373.1    7.826      36.504
2015    6       29     9   1    4.3521   372.9    7.813      36.389
2015    6       29     9   7    4.3567   372.8    7.801      36.277
2015    6       29     9  13    4.3613   372.6    7.789      36.167
2015    6       29     9  19    4.3658   372.5    7.777      36.058
2015    6       29     9  24    4.3703   372.3    7.765      35.951
2015    6       29     9  30    4.3748   372.2    7.754      35.845
2015    6       29     9  36    4.3792   372.0    7.743      35.741
2015    6       29     9  42    4.3836   371.9    7.732      35.638
2015    6       29     9  48    4.3879   371.7    7.721      35.537
2015    6       29     9  54    4.3922   371.6    7.710      35.437
2015    6       29    10   0    4.3964   371.4    7.700      35.337
2015    6       29    10   6    4.4006   371.3    7.690      35.240
2015    6       29    10  12    4.4048   371.1    7.680      35.143
2015    6       29    10  17    4.4089   371.0    7.670      35.047
2015    6       29    10  23    4.4129   370.8    7.660      34.953
2015    6       29    10  29    4.4169   370.7    7.651      34.860
2015    6       29    10  35    4.4209   370.6    7.641      34.768
2015    6       29    10  41    4.4248   370.4    7.632      34.678
2015    6       29    10  47    4.4286   370.3    7.623      34.588
2015    6       29    10  53    4.4323   370.2    7.614      34.501
2015    6       29    10  59    4.4360   370.0    7.605      34.414
2015    6       29    11   5    4.4397   369.9    7.596      34.330
2015    6       29    11  11    4.4432   369.8    7.587      34.246
2015    6       29    11  16    4.4467   369.6    7.579      34.165
2015    6       29    11  22    4.4501   369.5    7.570      34.085
2015    6       29    11  28    4.4535   369.4    7.561      34.006
2015    6       29    11  34    4.4568   369.3    7.553      33.929
2015    6       29    11  40    4.4600   369.1    7.544      33.854
2015    6       29    11  46    4.4630   369.0    7.536      33.780
2015    6       29    11  52    4.4661   368.9    7.527      33.708
2015    6       29    11  58    4.4690   368.8    7.518      33.637
2015    6       29    12   4    4.4719   368.7    7.510      33.568
2015    6       29    12   9    4.4747   368.6    7.501      33.500
2015    6       29    12  15    4.4775   368.4    7.493      33.434
2015    6       29    12  21    4.4801   368.3    7.484      33.369
2015    6       29    12  27    4.4827   368.2    7.476      33.305
2015    6       29    12  33    4.4852   368.1    7.467      33.242
2015    6       29    12  39    4.4877   368.0    7.459      33.180
2015    6       29    12  45    4.4901   367.9    7.451      33.120
2015    6       29    12  51    4.4924   367.8    7.442      33.061
2015    6       29    12  57    4.4947   367.7    7.434      33.003
2015    6       29    13   2    4.4969   367.6    7.426      32.946
2015    6       29    13   8    4.4990   367.5    7.418      32.890
2015    6       29    13  14    4.5012   367.4    7.410      32.836
2015    6       29    13  20    4.5032   367.2    7.402      32.782
2015    6       29    13  26    4.5053   367.1    7.394      32.730
2015    6       29    13  32    4.5072   367.0    7.386      32.678
2015    6       29    13  38    4.5092   366.9    7.379      32.628
2015    6       29    13  44    4.5111   366.9    7.371      32.579
2015    6       29    13  50    4.5129   366.8    7.364      32.532
2015    6       29    13  56    4.5147   366.7    7.356      32.485
2015    6       29    14   1    4.5166   366.6    7.349      32.440
2015    6       29    14   7    4.5183   366.5    7.342      32.396
2015    6       29    14  13    4.5201   366.4    7.335      32.353
2015    6       29    14  19    4.5218   366.3    7.328      32.311
2015    6       29    14  25    4.5235   366.2    7.321      32.271
2015    6       29    14  31    4.5252   366.1    7.314      32.232
2015    6       29    14  37    4.5268   366.1    7.307      32.194
2015    6       29    14  43    4.5285   366.0    7.301      32.158
2015    6       29    14  49    4.5301   365.9    7.294      32.122
2015    6       29    14  54    4.5317   365.8    7.288      32.088
2015    6       29    15   0    4.5333   365.7    7.282      32.056
2015    6       29    15   6    4.5348   365.7    7.276      32.024
2015    6       29    15  12    4.5364   365.6    7.270      31.994
2015    6       29    15  18    4.5379   365.5    7.264      31.964
2015    6       29    15  24    4.5395   365.5    7.259      31.936
2015    6       29    15  30    4.5410   365.4    7.254      31.910
2015    6       29    15  36    4.5426   365.3    7.248      31.884
2015    6       29    15  42    4.5441   365.3    7.243      31.860
2015    6       29    15  48    4.5457   365.2    7.239      31.837
2015    6       29    15  53    4.5472   365.1    7.234      31.815
2015    6       29    15  59    4.5487   365.1    7.230      31.795
2015    6       29    16   5    4.5503   365.0    7.225      31.776
2015    6       29    16  11    4.5518   365.0    7.222      31.758
2015    6       29    16  17    4.5534   364.9    7.218      31.742
2015    6       29    16  23    4.5549   364.9    7.215      31.727
2015    6       29    16  29    4.5564   364.8    7.212      31.714
2015    6       29    16  35    4.5580   364.8    7.209      31.703
2015    6       29    16  41    4.5596   364.7    7.206      31.693
2015    6       29    16  46    4.5611   364.7    7.204      31.684
2015    6       29    16  52    4.5627   364.7    7.202      31.678
2015    6       29    16  58    4.5642   364.6    7.201      31.673
2015    6       29    17   4    4.5657   364.6    7.200      31.670
2015    6       29    17  10    4.5672   364.5    7.199      31.669
2015    6       29    17  16    4.5687   364.5    7.199      31.671
2015    6       29    17  22    4.5701   364.5    7.199      31.674
2015    6       29    17  28    4.5716   364.4    7.199      31.678
2015    6       29    17  34    4.5730   364.4    7.200      31.686
2015    6       29    17  40    4.5743   364.4    7.202      31.695
2015    6       29    17  45    4.5757   364.4    7.204      31.707
2015    6       29    17  51    4.5770   364.4    7.206      31.721
2015    6       29    17  57    4.5783   364.3    7.208      31.738
2015    6       29    18   3    4.5795   364.3    7.211      31.756
2015    6       29    18   9    4.5807   364.3    7.215      31.775
2015    6       29    18  15    4.5819   364.3    7.219      31.796
2015    6       29    18  21    4.5830   364.3    7.223      31.817
2015    6       29    18  27    4.5840   364.3    7.227      31.839
2015    6       29    18  33    4.5851   364.3    7.231      31.861
2015    6       29    18  38    4.5860   364.3    7.236      31.884
2015    6       29    18  44    4.5869   364.4    7.241      31.907
2015    6       29    18  50    4.5877   364.4    7.246      31.929
2015    6       29    18  56    4.5885   364.4    7.251      31.950
2015    6       29    19   2    4.5891   364.4    7.256      31.972
2015    6       29    19   8    4.5898   364.5    7.262      31.992
2015    6       29    19  14    4.5903   364.5    7.267      32.012
2015    6       29    19  20    4.5908   364.5    7.272      32.030
2015    6       29    19  26    4.5911   364.6    7.277      32.047
2015    6       29    19  32    4.5914   364.6    7.283      32.062
2015    6       29    19  37    4.5916   364.6    7.288      32.076
2015    6       29    19  43    4.5917   364.7    7.293      32.089
2015    6       29    19  49    4.5916   364.7    7.298      32.100
2015    6       29    19  55    4.5915   364.7    7.303      32.111
2015    6       29    20   1    4.5912   364.8    7.308      32.120
2015    6       29    20   7    4.5908   364.8    7.312      32.129
2015    6       29    20  13    4.5902   364.9    7.317      32.137
2015    6       29    20  19    4.5896   364.9    7.321      32.144
2015    6       29    20  25    4.5888   364.9    7.326      32.150
2015    6       29    20  30    4.5879   365.0    7.330      32.155
2015    6       29    20  36    4.5868   365.0    7.334      32.159
2015    6       29    20  42    4.5857   365.1    7.338      32.162
2015    6       29    20  48    4.5844   365.1    7.342      32.165
2015    6       29    20  54    4.5830   365.2    7.345      32.167
2015    6       29    21   0    4.5814   365.2    7.349      32.168
2015    6       29    21   6    4.5798   365.2    7.352      32.168
2015    6       29    21  12    4.5780   365.3    7.356      32.167
2015    6       29    21  18    4.5762   365.3    7.359      32.166
2015    6       29    21  24    4.5742   365.4    7.361      32.165
2015    6       29    21  29    4.5722   365.4    7.364      32.162
2015    6       29    21  35    4.5701   365.5    7.367      32.158
2015    6       29    21  41    4.5679   365.5    7.370      32.154
2015    6       29    21  47    4.5656   365.6    7.372      32.149
2015    6       29    21  53    4.5633   365.6    7.374      32.144
2015    6       29    21  59    4.5610   365.6    7.377      32.137
2015    6       29    22   5    4.5586   365.7    7.379      32.130
2015    6       29    22  11    4.5561   365.7    7.381      32.123
2015    6       29    22  17    4.5537   365.8    7.383      32.114
2015    6       29    22  22    4.5512   365.8    7.385      32.105
2015    6       29    22  28    4.5487   365.8    7.387      32.096
2015    6       29    22  34    4.5462   365.9    7.389      32.086
2015    6       29    22  40    4.5438   365.9    7.391      32.075
2015    6       29    22  46    4.5413   366.0    7.393      32.064
2015    6       29    22  52    4.5388   366.0    7.395      32.052
2015    6       29    22  58    4.5364   366.0    7.396      32.040
2015    6       29    23   4    4.5340   366.1    7.398      32.027
2015    6       29    23  10    4.5316   366.1    7.400      32.014
2015    6       29    23  16    4.5293   366.2    7.402      32.000
2015    6       29    23  21    4.5270   366.2    7.404      31.986
2015    6       29    23  27    4.5247   366.2    7.406      31.971
2015    6       29    23  33    4.5224   366.3    7.408      31.956
2015    6       29    23  39    4.5202   366.3    7.410      31.941
2015    6       29    23  45    4.5180   366.3    7.412      31.925
2015    6       29    23  51    4.5159   366.4    7.414      31.908
2015    6       29    23  57    4.5138   366.4    7.416      31.891
2015    6       30     0   3    4.5118   366.5    7.418      31.874
2015    6       30     0   9    4.5097   366.5    7.420      31.856
2015    6       30     0  14    4.5078   366.5    7.423      31.838
2015    6       30     0  20    4.5058   366.6    7.425      31.819
2015    6       30     0  26    4.5039   366.6    7.427      31.800
2015    6       30     0  32    4.5020   366.6    7.430      31.781
2015    6       30     0  38    4.5002   366.7    7.432      31.761
2015    6       30     0  44    4.4983   366.7    7.435      31.740
2015    6       30     0  50    4.4966   366.7    7.438      31.720
2015    6       30     0  56    4.4948   366.8    7.441      31.698
2015    6       30     1   2    4.4931   366.8    7.444      31.677
2015    6       30     1   8    4.4914   366.8    7.447      31.655
2015    6       30     1  13    4.4897   366.9    7.450      31.633
2015    6       30     1  19    4.4881   366.9    7.453      31.611
2015    6       30     1  25    4.4865   366.9    7.457      31.588
2015    6       30     1  31    4.4849   366.9    7.460      31.565
2015    6       30     1  37    4.4833   367.0    7.464      31.542
2015    6       30     1  43    4.4818   367.0    7.468      31.519
2015    6       30     1  49    4.4803   367.0    7.472      31.495
2015    6       30     1  55    4.4788   367.1    7.476      31.472
2015    6       30     2   1    4.4774   367.1    7.481      31.448
2015    6       30     2   6    4.4760   367.1    7.485      31.425
2015    6       30     2  12    4.4745   367.1    7.490      31.401
2015    6       30     2  18    4.4732   367.2    7.495      31.378
2015    6       30     2  24    4.4718   367.2    7.500      31.355
2015    6       30     2  30    4.4705   367.2    7.506      31.332
2015    6       30     2  36    4.4691   367.3    7.511      31.309
2015    6       30     2  42    4.4679   367.3    7.517      31.287
2015    6       30     2  48    4.4666   367.3    7.523      31.265
2015    6       30     2  54    4.4653   367.3    7.529      31.243
2015    6       30     3   0    4.4641   367.4    7.535      31.222
2015    6       30     3   5    4.4629   367.4    7.542      31.201
2015    6       30     3  11    4.4617   367.4    7.548      31.180
2015    6       30     3  17    4.4605   367.4    7.555      31.160
2015    6       30     3  23    4.4594   367.5    7.562      31.141
2015    6       30     3  29    4.4583   367.5    7.569      31.122
2015    6       30     3  35    4.4572   367.5    7.576      31.103
2015    6       30     3  41    4.4561   367.6    7.584      31.085
2015    6       30     3  47    4.4550   367.6    7.591      31.068
2015    6       30     3  53    4.4539   367.6    7.599      31.051
2015    6       30     3  58    4.4529   367.6    7.606      31.034
2015    6       30     4   4    4.4519   367.7    7.614      31.019
2015    6       30     4  10    4.4509   367.7    7.622      31.003
2015    6       30     4  16    4.4499   367.7    7.630      30.989
2015    6       30     4  22    4.4490   367.7    7.638      30.975
2015    6       30     4  28    4.4480   367.8    7.646      30.962
2015    6       30     4  34    4.4471   367.8    7.654      30.949
2015    6       30     4  40    4.4462   367.8    7.662      30.936
2015    6       30     4  46    4.4453   367.8    7.670      30.925
2015    6       30     4  51    4.4444   367.9    7.678      30.914
2015    6       30     4  57    4.4436   367.9    7.686      30.904
2015    6       30     5   3    4.4428   367.9    7.694      30.894
2015    6       30     5   9    4.4420   367.9    7.702      30.885
2015    6       30     5  15    4.4412   367.9    7.710      30.877
2015    6       30     5  21    4.4404   368.0    7.718      30.870
2015    6       30     5  27    4.4397   368.0    7.726      30.863
2015    6       30     5  33    4.4390   368.0    7.734      30.857
2015    6       30     5  39    4.4383   368.0    7.742      30.851
2015    6       30     5  45    4.4376   368.0    7.750      30.847
2015    6       30     5  50    4.4370   368.0    7.758      30.843
2015    6       30     5  56    4.4364   368.1    7.765      30.839
2015    6       30     6   2    4.4358   368.1    7.773      30.837
2015    6       30     6   8    4.4352   368.1    7.781      30.835
2015    6       30     6  14    4.4347   368.1    7.788      30.834
2015    6       30     6  20    4.4342   368.1    7.796      30.834
2015    6       30     6  26    4.4337   368.1    7.803      30.834
2015    6       30     6  32    4.4333   368.1    7.811      30.835
2015    6       30     6  38    4.4329   368.1    7.818      30.837
2015    6       30     6  43    4.4325   368.1    7.825      30.840
2015    6       30     6  49    4.4321   368.2    7.832      30.843
2015    6       30     6  55    4.4318   368.2    7.840      30.847
2015    6       30     7   1    4.4314   368.2    7.847      30.852
2015    6       30     7   7    4.4311   368.2    7.854      30.857
2015    6       30     7  13    4.4309   368.2    7.861      30.863
2015    6       30     7  19    4.4306   368.2    7.868      30.870
2015    6       30     7  25    4.4304   368.2    7.875      30.877
2015    6       30     7  31    4.4302   368.2    7.881      30.886
2015    6       30     7  37    4.4300   368.2    7.888      30.894
2015    6       30     7  42    4.4298   368.2    7.895      30.904
2015    6       30     7  48    4.4297   368.2    7.902      30.914
2015    6       30     7  54    4.4296   368.2    7.908      30.925
2015    6       30     8   0    4.4295   368.2    7.915      30.936
2015    6       30     8   6    4.4294   368.2    7.922      30.948
2015    6       30     8  12    4.4294   368.2    7.928      30.961
2015    6       30     8  18    4.4293   368.2    7.935      30.974
2015    6       30     8  24    4.4293   368.2    7.941      30.988
2015    6       30     8  30    4.4293   368.2    7.948      31.002
2015    6       30     8  35    4.4294   368.2    7.955      31.017
2015    6       30     8  41    4.4294   368.2    7.961      31.032
2015    6       30     8  47    4.4295   368.3    7.968      31.048
2015    6       30     8  53    4.4296   368.3    7.974      31.064
2015    6       30     8  59    4.4298   368.3    7.981      31.081
2015    6       30     9   5    4.4299   368.3    7.987      31.098
2015    6       30     9  11    4.4301   368.3    7.994      31.116
2015    6       30     9  17    4.4303   368.3    8.001      31.133
2015    6       30     9  23    4.4305   368.3    8.007      31.151
2015    6       30     9  29    4.4308   368.3    8.014      31.170
2015    6       30     9  34    4.4310   368.3    8.021      31.188
2015    6       30     9  40    4.4313   368.3    8.027      31.207
2015    6       30     9  46    4.4317   368.3    8.034      31.226
2015    6       30     9  52    4.4320   368.3    8.041      31.244
2015    6       30     9  58    4.4324   368.3    8.047      31.263
2015    6       30    10   4    4.4328   368.3    8.054      31.282
2015    6       30    10  10    4.4332   368.3    8.061      31.300
2015    6       30    10  16    4.4336   368.3    8.068      31.318
2015    6       30    10  22    4.4341   368.3    8.075      31.337
2015    6       30    10  27    4.4346   368.3    8.081      31.355
2015    6       30    10  33    4.4351   368.3    8.088      31.372
2015    6       30    10  39    4.4357   368.3    8.095      31.390
2015    6       30    10  45    4.4363   368.3    8.102      31.407
2015    6       30    10  51    4.4369   368.3    8.109      31.424
2015    6       30    10  57    4.4376   368.3    8.116      31.441
2015    6       30    11   3    4.4383   368.3    8.123      31.457
2015    6       30    11   9    4.4390   368.3    8.130      31.473
2015    6       30    11  15    4.4398   368.3    8.137      31.489
2015    6       30    11  21    4.4406   368.3    8.144      31.504
2015    6       30    11  26    4.4414   368.3    8.151      31.519
2015    6       30    11  32    4.4423   368.3    8.158      31.534
2015    6       30    11  38    4.4432   368.3    8.165      31.549
2015    6       30    11  44    4.4442   368.3    8.172      31.563
2015    6       30    11  50    4.4452   368.3    8.180      31.577
2015    6       30    11  56    4.4463   368.3    8.187      31.591
2015    6       30    12   2    4.4474   368.3    8.194      31.605
2015    6       30    12   8    4.4485   368.3    8.201      31.619
2015    6       30    12  14    4.4497   368.3    8.208      31.632
2015    6       30    12  19    4.4510   368.3    8.215      31.645
2015    6       30    12  25    4.4523   368.3    8.223      31.658
2015    6       30    12  31    4.4536   368.3    8.230      31.671
2015    6       30    12  37    4.4550   368.3    8.237      31.684
2015    6       30    12  43    4.4563   368.3    8.244      31.696
2015    6       30    12  49    4.4578   368.3    8.251      31.708
2015    6       30    12  55    4.4593   368.3    8.259      31.721
2015    6       30    13   1    4.4608   368.3    8.266      31.732
2015    6       30    13   7    4.4624   368.3    8.273      31.744
2015    6       30    13  12    4.4640   368.2    8.280      31.756
2015    6       30    13  18    4.4656   368.2    8.287      31.767
2015    6       30    13  24    4.4673   368.2    8.294      31.778
2015    6       30    13  30    4.4690   368.2    8.302      31.789
2015    6       30    13  36    4.4708   368.2    8.309      31.800
2015    6       30    13  42    4.4726   368.2    8.316      31.810
2015    6       30    13  48    4.4744   368.2    8.323      31.821
2015    6       30    13  54    4.4762   368.2    8.330      31.831
2015    6       30    14   0    4.4781   368.2    8.337      31.841
2015    6       30    14   6    4.4800   368.2    8.344      31.851
2015    6       30    14  11    4.4819   368.2    8.351      31.860
2015    6       30    14  17    4.4839   368.2    8.358      31.870
2015    6       30    14  23    4.4858   368.2    8.365      31.879
2015    6       30    14  29    4.4878   368.2    8.371      31.889
2015    6       30    14  35    4.4899   368.2    8.378      31.898
2015    6       30    14  41    4.4919   368.1    8.385      31.907
2015    6       30    14  47    4.4940   368.1    8.392      31.916
2015    6       30    14  53    4.4961   368.1    8.398      31.925
2015    6       30    14  59    4.4982   368.1    8.405      31.934
2015    6       30    15   5    4.5004   368.1    8.412      31.943
2015    6       30    15  10    4.5025   368.1    8.419      31.952
2015    6       30    15  16    4.5047   368.1    8.425      31.961
2015    6       30    15  22    4.5070   368.0    8.432      31.970
2015    6       30    15  28    4.5092   368.0    8.438      31.979
2015    6       30    15  34    4.5115   368.0    8.445      31.988
2015    6       30    15  40    4.5138   368.0    8.452      31.997
2015    6       30    15  46    4.5161   368.0    8.458      32.006
2015    6       30    15  52    4.5185   367.9    8.465      32.016
2015    6       30    15  58    4.5209   367.9    8.471      32.026
2015    6       30    16   3    4.5233   367.9    8.478      32.035
2015    6       30    16   9    4.5258   367.9    8.485      32.046
2015    6       30    16  15    4.5282   367.9    8.491      32.056
2015    6       30    16  21    4.5308   367.8    8.498      32.067
2015    6       30    16  27    4.5333   367.8    8.504      32.078
2015    6       30    16  33    4.5359   367.8    8.511      32.089
2015    6       30    16  39    4.5386   367.8    8.518      32.101
2015    6       30    16  45    4.5412   367.7    8.524      32.113
2015    6       30    16  51    4.5440   367.7    8.531      32.125
2015    6       30    16  56    4.5468   367.7    8.538      32.138
2015    6       30    17   2    4.5496   367.6    8.544      32.151
2015    6       30    17   8    4.5524   367.6    8.551      32.165
2015    6       30    17  14    4.5553   367.6    8.558      32.179
2015    6       30    17  20    4.5583   367.6    8.565      32.194
2015    6       30    17  26    4.5613   367.5    8.572      32.209
2015    6       30    17  32    4.5643   367.5    8.579      32.224
2015    6       30    17  38    4.5674   367.5    8.586      32.240
2015    6       30    17  44    4.5706   367.4    8.593      32.256
2015    6       30    17  50    4.5738   367.4    8.600      32.273
2015    6       30    17  55    4.5770   367.4    8.607      32.290
2015    6       30    18   1    4.5803   367.4    8.614      32.308
2015    6       30    18   7    4.5837   367.3    8.621      32.326
2015    6       30    18  13    4.5871   367.3    8.628      32.344
2015    6       30    18  19    4.5905   367.3    8.635      32.363
2015    6       30    18  25    4.5940   367.2    8.642      32.382
2015    6       30    18  31    4.5975   367.2    8.649      32.402
2015    6       30    18  37    4.6011   367.2    8.656      32.422
2015    6       30    18  43    4.6047   367.1    8.664      32.442
2015    6       30    18  48    4.6083   367.1    8.671      32.463
2015    6       30    18  54    4.6120   367.1    8.678      32.483
2015    6       30    19   0    4.6157   367.0    8.685      32.505
2015    6       30    19   6    4.6195   367.0    8.692      32.526
2015    6       30    19  12    4.6232   366.9    8.699      32.547
2015    6       30    19  18    4.6271   366.9    8.706      32.569
2015    6       30    19  24    4.6309   366.9    8.714      32.591
2015    6       30    19  30    4.6348   366.8    8.721      32.613
2015    6       30    19  36    4.6387   366.8    8.728      32.635
2015    6       30    19  42    4.6426   366.8    8.735      32.657
2015    6       30    19  47    4.6465   366.7    8.742      32.679
2015    6       30    19  53    4.6504   366.7    8.748      32.702
2015    6       30    19  59    4.6544   366.6    8.755      32.724
2015    6       30    20   5    4.6584   366.6    8.762      32.746
2015    6       30    20  11    4.6623   366.6    8.769      32.768
2015    6       30    20  17    4.6663   366.5    8.776      32.790
2015    6       30    20  23    4.6703   366.5    8.782      32.812
2015    6       30    20  29    4.6744   366.4    8.789      32.834
2015    6       30    20  35    4.6784   366.4    8.796      32.855
2015    6       30    20  40    4.6824   366.4    8.802      32.877
2015    6       30    20  46    4.6865   366.3    8.809      32.898
2015    6       30    20  52    4.6905   366.3    8.815      32.919
2015    6       30    20  58    4.6946   366.2    8.822      32.940
2015    6       30    21   4    4.6986   366.2    8.828      32.961
2015    6       30    21  10    4.7027   366.1    8.834      32.981
2015    6       30    21  16    4.7068   366.1    8.841      33.001
2015    6       30    21  22    4.7108   366.0    8.847      33.021
2015    6       30    21  28    4.7149   366.0    8.853      33.040
2015    6       30    21  34    4.7190   365.9    8.859      33.059
2015    6       30    21  39    4.7231   365.9    8.866      33.078
2015    6       30    21  45    4.7272   365.9    8.872      33.097
2015    6       30    21  51    4.7314   365.8    8.878      33.115
2015    6       30    21  57    4.7355   365.8    8.884      33.133
2015    6       30    22   3    4.7396   365.7    8.890      33.151
2015    6       30    22   9    4.7438   365.7    8.896      33.168
2015    6       30    22  15    4.7479   365.6    8.902      33.185
2015    6       30    22  21    4.7520   365.6    8.908      33.202
2015    6       30    22  27    4.7562   365.5    8.914      33.218
2015    6       30    22  32    4.7604   365.5    8.920      33.235
2015    6       30    22  38    4.7646   365.4    8.926      33.251
2015    6       30    22  44    4.7688   365.4    8.932      33.266
2015    6       30    22  50    4.7730   365.3    8.938      33.282
2015    6       30    22  56    4.7773   365.3    8.944      33.297
2015    6       30    23   2    4.7815   365.2    8.949      33.311
2015    6       30    23   8    4.7857   365.2    8.955      33.326
2015    6       30    23  14    4.7900   365.1    8.961      33.340
2015    6       30    23  20    4.7942   365.1    8.967      33.354
2015    6       30    23  26    4.7985   365.0    8.973      33.368
2015    6       30    23  31    4.8027   365.0    8.978      33.381
2015    6       30    23  37    4.8070   364.9    8.984      33.394
2015    6       30    23  43    4.8112   364.9    8.990      33.407
2015    6       30    23  49    4.8154   364.8    8.995      33.420
2015    6       30    23  55    4.8196   364.8    9.001      33.432
2015    7        1     0   1    4.8238   364.7    9.007      33.444
2015    7        1     0   7    4.8280   364.7    9.012      33.456
2015    7        1     0  13    4.8321   364.6    9.018      33.468
2015    7        1     0  19    4.8362   364.6    9.023      33.479
2015    7        1     0  24    4.8404   364.5    9.029      33.490
2015    7        1     0  30    4.8445   364.5    9.034      33.501
2015    7        1     0  36    4.8485   364.4    9.040      33.512
2015    7        1     0  42    4.8526   364.4    9.045      33.523
2015    7        1     0  48    4.8566   364.3    9.051      33.533
2015    7        1     0  54    4.8606   364.3    9.056      33.543
2015    7        1     1   0    4.8646   364.2    9.062      33.553
2015    7        1     1   6    4.8685   364.2    9.067      33.563
2015    7        1     1  12    4.8725   364.1    9.073      33.573
2015    7        1     1  18    4.8764   364.1    9.078      33.582
2015    7        1     1  23    4.8803   364.0    9.083      33.592
2015    7        1     1  29    4.8841   363.9    9.089      33.601
2015    7        1     1  35    4.8880   363.9    9.094      33.610
2015    7        1     1  41    4.8918   363.8    9.100      33.619
2015    7        1     1  47    4.8956   363.8    9.106      33.628
2015    7        1     1  53    4.8994   363.7    9.111      33.638
2015    7        1     1  59    4.9031   363.7    9.117      33.647
2015    7        1     2   5    4.9068   363.6    9.122      33.656
2015    7        1     2  11    4.9105   363.6    9.128      33.665
2015    7        1     2  16    4.9141   363.5    9.134      33.673
2015    7        1     2  22    4.9177   363.5    9.139      33.682
2015    7        1     2  28    4.9213   363.4    9.145      33.691
2015    7        1     2  34    4.9249   363.4    9.151      33.700
2015    7        1     2  40    4.9284   363.3    9.156      33.708
2015    7        1     2  46    4.9319   363.3    9.162      33.716
2015    7        1     2  52    4.9353   363.2    9.168      33.725
2015    7        1     2  58    4.9387   363.2    9.173      33.733
2015    7        1     3   4    4.9421   363.1    9.179      33.741
2015    7        1     3   9    4.9454   363.1    9.184      33.748
2015    7        1     3  15    4.9487   363.0    9.190      33.756
2015    7        1     3  21    4.9520   363.0    9.195      33.763
2015    7        1     3  27    4.9552   363.0    9.201      33.770
2015    7        1     3  33    4.9583   362.9    9.206      33.777
2015    7        1     3  39    4.9615   362.9    9.211      33.784
2015    7        1     3  45    4.9645   362.8    9.217      33.790
2015    7        1     3  51    4.9676   362.8    9.222      33.796
2015    7        1     3  57    4.9706   362.7    9.227      33.802
2015    7        1     4   3    4.9735   362.7    9.232      33.807
2015    7        1     4   8    4.9764   362.7    9.237      33.812
2015    7        1     4  14    4.9793   362.6    9.242      33.817
2015    7        1     4  20    4.9821   362.6    9.247      33.822
2015    7        1     4  26    4.9849   362.5    9.251      33.827
2015    7        1     4  32    4.9876   362.5    9.256      33.831
2015    7        1     4  38    4.9903   362.5    9.261      33.835
2015    7        1     4  44    4.9930   362.4    9.265      33.839
2015    7        1     4  50    4.9955   362.4    9.270      33.842
2015    7        1     4  56    4.9981   362.3    9.274      33.845
2015    7        1     5   1    5.0006   362.3    9.279      33.848
2015    7        1     5   7    5.0031   362.3    9.283      33.851
2015    7        1     5  13    5.0055   362.2    9.287      33.853
2015    7        1     5  19    5.0079   362.2    9.291      33.855
2015    7        1     5  25    5.0103   362.1    9.295      33.857
2015    7        1     5  31    5.0126   362.1    9.299      33.858
2015    7        1     5  37    5.0148   362.1    9.303      33.859
2015    7        1     5  43    5.0170   362.0    9.307      33.860
2015    7        1     5  49    5.0192   362.0    9.311      33.861
2015    7        1     5  55    5.0213   362.0    9.315      33.861
2015    7        1     6   0    5.0234   361.9    9.318      33.861
2015    7        1     6   6    5.0255   361.9    9.322      33.861
2015    7        1     6  12    5.0275   361.9    9.325      33.860
2015    7        1     6  18    5.0294   361.8    9.329      33.859
2015    7        1     6  24    5.0314   361.8    9.332      33.857
2015    7        1     6  30    5.0332   361.8    9.335      33.855
2015    7        1     6  36    5.0351   361.7    9.338      33.853
2015    7        1     6  42    5.0369   361.7    9.341      33.851
2015    7        1     6  48    5.0387   361.7    9.344      33.848
2015    7        1     6  53    5.0404   361.6    9.347      33.845
2015    7        1     6  59    5.0421   361.6    9.350      33.842
2015    7        1     7   5    5.0438   361.6    9.352      33.838
2015    7        1     7  11    5.0454   361.6    9.355      33.834
2015    7        1     7  17    5.0470   361.5    9.358      33.830
2015    7        1     7  23    5.0485   361.5    9.360      33.825
2015    7        1     7  29    5.0500   361.5    9.363      33.821
2015    7        1     7  35    5.0515   361.4    9.365      33.815
2015    7        1     7  41    5.0530   361.4    9.367      33.810
2015    7        1     7  47    5.0544   361.4    9.369      33.804
2015    7        1     7  52    5.0558   361.3    9.371      33.798
2015    7        1     7  58    5.0572   361.3    9.374      33.792
2015    7        1     8   4    5.0585   361.3    9.376      33.785
2015    7        1     8  10    5.0598   361.3    9.377      33.778
2015    7        1     8  16    5.0611   361.2    9.379      33.771
2015    7        1     8  22    5.0623   361.2    9.381      33.764
2015    7        1     8  28    5.0635   361.2    9.383      33.756
2015    7        1     8  34    5.0647   361.2    9.385      33.748
2015    7        1     8  40    5.0659   361.1    9.386      33.740
2015    7        1     8  45    5.0670   361.1    9.388      33.732
2015    7        1     8  51    5.0681   361.1    9.389      33.724
2015    7        1     8  57    5.0692   361.1    9.391      33.715
2015    7        1     9   3    5.0703   361.0    9.392      33.706
2015    7        1     9   9    5.0713   361.0    9.394      33.697
2015    7        1     9  15    5.0723   361.0    9.395      33.688
2015    7        1     9  21    5.0733   360.9    9.397      33.678
2015    7        1     9  27    5.0743   360.9    9.398      33.669
2015    7        1     9  33    5.0753   360.9    9.399      33.659
2015    7        1     9  38    5.0762   360.9    9.401      33.649
2015    7        1     9  44    5.0771   360.9    9.402      33.639
2015    7        1     9  50    5.0780   360.8    9.403      33.629
2015    7        1     9  56    5.0789   360.8    9.404      33.619
2015    7        1    10   2    5.0797   360.8    9.405      33.608
2015    7        1    10   8    5.0806   360.8    9.406      33.598
2015    7        1    10  14    5.0814   360.7    9.408      33.587
2015    7        1    10  20    5.0822   360.7    9.409      33.576
2015    7        1    10  26    5.0830   360.7    9.410      33.565
2015    7        1    10  32    5.0837   360.7    9.411      33.554
2015    7        1    10  37    5.0845   360.6    9.412      33.544
2015    7        1    10  43    5.0852   360.6    9.413      33.532
2015    7        1    10  49    5.0859   360.6    9.414      33.521
2015    7        1    10  55    5.0866   360.6    9.415      33.510
2015    7        1    11   1    5.0873   360.6    9.416      33.499
2015    7        1    11   7    5.0880   360.5    9.417      33.487
2015    7        1    11  13    5.0886   360.5    9.418      33.476
2015    7        1    11  19    5.0893   360.5    9.418      33.465
2015    7        1    11  25    5.0899   360.5    9.419      33.453
2015    7        1    11  30    5.0905   360.5    9.420      33.442
2015    7        1    11  36    5.0911   360.4    9.421      33.431
2015    7        1    11  42    5.0917   360.4    9.422      33.419
2015    7        1    11  48    5.0922   360.4    9.423      33.407
2015    7        1    11  54    5.0928   360.4    9.423      33.396
2015    7        1    12   0    5.0934   360.4    9.424      33.385
2015    7        1    12   6    5.0939   360.3    9.425      33.373
2015    7        1    12  12    5.0944   360.3    9.426      33.361
2015    7        1    12  18    5.0949   360.3    9.426      33.350
2015    7        1    12  24    5.0954   360.3    9.427      33.338
2015    7        1    12  29    5.0959   360.3    9.428      33.327
2015    7        1    12  35    5.0964   360.3    9.429      33.316
2015    7        1    12  41    5.0969   360.2    9.429      33.304
2015    7        1    12  47    5.0973   360.2    9.430      33.292
2015    7        1    12  53    5.0978   360.2    9.431      33.281
2015    7        1    12  59    5.0983   360.2    9.431      33.270
2015    7        1    13   5    5.0987   360.2    9.432      33.258
2015    7        1    13  11    5.0991   360.2    9.432      33.247
2015    7        1    13  17    5.0996   360.1    9.433      33.236
2015    7        1    13  23    5.1000   360.1    9.434      33.224
2015    7        1    13  28    5.1004   360.1    9.434      33.213
2015    7        1    13  34    5.1008   360.1    9.435      33.202
2015    7        1    13  40    5.1012   360.1    9.435      33.191
2015    7        1    13  46    5.1017   360.1    9.436      33.179
2015    7        1    13  52    5.1021   360.0    9.437      33.168
2015    7        1    13  58    5.1025   360.0    9.437      33.157
2015    7        1    14   4    5.1029   360.0    9.438      33.146
2015    7        1    14  10    5.1033   360.0    9.439      33.136
2015    7        1    14  16    5.1037   360.0    9.439      33.125
2015    7        1    14  21    5.1041   360.0    9.440      33.114
2015    7        1    14  27    5.1045   359.9    9.441      33.103
2015    7        1    14  33    5.1049   359.9    9.441      33.093
2015    7        1    14  39    5.1053   359.9    9.442      33.082
2015    7        1    14  45    5.1058   359.9    9.443      33.072
2015    7        1    14  51    5.1062   359.9    9.444      33.062
2015    7        1    14  57    5.1066   359.9    9.444      33.051
2015    7        1    15   3    5.1071   359.8    9.445      33.041
2015    7        1    15   9    5.1075   359.8    9.446      33.031
2015    7        1    15  14    5.1080   359.8    9.447      33.021
2015    7        1    15  20    5.1084   359.8    9.448      33.012
2015    7        1    15  26    5.1089   359.8    9.449      33.002
2015    7        1    15  32    5.1094   359.8    9.450      32.992
2015    7        1    15  38    5.1098   359.8    9.451      32.983
2015    7        1    15  44    5.1103   359.7    9.452      32.974
2015    7        1    15  50    5.1108   359.7    9.453      32.964
2015    7        1    15  56    5.1113   359.7    9.454      32.955
2015    7        1    16   2    5.1119   359.7    9.456      32.946
2015    7        1    16   8    5.1124   359.7    9.457      32.938
2015    7        1    16  13    5.1130   359.7    9.458      32.929
2015    7        1    16  19    5.1135   359.6    9.460      32.920
2015    7        1    16  25    5.1141   359.6    9.461      32.912
2015    7        1    16  31    5.1147   359.6    9.463      32.904
2015    7        1    16  37    5.1153   359.6    9.464      32.896
2015    7        1    16  43    5.1159   359.6    9.466      32.888
2015    7        1    16  49    5.1166   359.6    9.467      32.880
2015    7        1    16  55    5.1172   359.6    9.469      32.873
2015    7        1    17   1    5.1179   359.6    9.471      32.865
2015    7        1    17   6    5.1186   359.5    9.473      32.858
2015    7        1    17  12    5.1193   359.5    9.475      32.851
2015    7        1    17  18    5.1201   359.5    9.477      32.844
2015    7        1    17  24    5.1208   359.5    9.479      32.837
2015    7        1    17  30    5.1216   359.5    9.481      32.831
2015    7        1    17  36    5.1224   359.5    9.483      32.824
2015    7        1    17  42    5.1233   359.5    9.485      32.818
2015    7        1    17  48    5.1242   359.5    9.488      32.812
2015    7        1    17  54    5.1250   359.4    9.490      32.806
2015    7        1    18   0    5.1260   359.4    9.492      32.800
2015    7        1    18   5    5.1269   359.4    9.495      32.794
2015    7        1    18  11    5.1279   359.4    9.497      32.789
2015    7        1    18  17    5.1289   359.4    9.500      32.784
2015    7        1    18  23    5.1300   359.4    9.503      32.779
2015    7        1    18  29    5.1311   359.4    9.505      32.774
2015    7        1    18  35    5.1322   359.4    9.508      32.769
2015    7        1    18  41    5.1334   359.3    9.511      32.764
2015    7        1    18  47    5.1346   359.3    9.514      32.760
2015    7        1    18  53    5.1358   359.3    9.517      32.755
2015    7        1    18  58    5.1371   359.3    9.519      32.751
2015    7        1    19   4    5.1384   359.3    9.522      32.747
2015    7        1    19  10    5.1398   359.3    9.525      32.743
2015    7        1    19  16    5.1412   359.3    9.529      32.739
2015    7        1    19  22    5.1426   359.3    9.532      32.736
2015    7        1    19  28    5.1441   359.3    9.535      32.732
2015    7        1    19  34    5.1457   359.3    9.538      32.729
2015    7        1    19  40    5.1473   359.2    9.541      32.725
2015    7        1    19  46    5.1489   359.2    9.545      32.722
2015    7        1    19  52    5.1506   359.2    9.548      32.719
2015    7        1    19  57    5.1523   359.2    9.551      32.716
2015    7        1    20   3    5.1541   359.2    9.555      32.714
2015    7        1    20   9    5.1559   359.2    9.558      32.711
2015    7        1    20  15    5.1578   359.2    9.561      32.709
2015    7        1    20  21    5.1597   359.2    9.565      32.706
2015    7        1    20  27    5.1617   359.2    9.568      32.704
2015    7        1    20  33    5.1637   359.1    9.572      32.702
2015    7        1    20  39    5.1658   359.1    9.576      32.700
2015    7        1    20  45    5.1679   359.1    9.579      32.699
2015    7        1    20  50    5.1700   359.1    9.583      32.697
2015    7        1    20  56    5.1722   359.1    9.587      32.696
2015    7        1    21   2    5.1745   359.1    9.590      32.694
2015    7        1    21   8    5.1767   359.1    9.594      32.693
2015    7        1    21  14    5.1790   359.1    9.598      32.692
2015    7        1    21  20    5.1814   359.1    9.602      32.691
2015    7        1    21  26    5.1837   359.1    9.606      32.691
2015    7        1    21  32    5.1861   359.0    9.610      32.690
2015    7        1    21  38    5.1886   359.0    9.613      32.690
2015    7        1    21  44    5.1911   359.0    9.617      32.689
2015    7        1    21  49    5.1936   359.0    9.621      32.689
2015    7        1    21  55    5.1962   359.0    9.625      32.689
2015    7        1    22   1    5.1988   359.0    9.630      32.689
2015    7        1    22   7    5.2014   359.0    9.634      32.689
2015    7        1    22  13    5.2040   359.0    9.638      32.690
2015    7        1    22  19    5.2068   359.0    9.642      32.690
2015    7        1    22  25    5.2095   359.0    9.646      32.691
2015    7        1    22  31    5.2123   358.9    9.650      32.692
2015    7        1    22  37    5.2151   358.9    9.655      32.693
2015    7        1    22  42    5.2179   358.9    9.659      32.694
2015    7        1    22  48    5.2208   358.9    9.663      32.696
2015    7        1    22  54    5.2237   358.9    9.668      32.697
2015    7        1    23   0    5.2267   358.9    9.672      32.699
2015    7        1    23   6    5.2297   358.9    9.677      32.700
2015    7        1    23  12    5.2327   358.9    9.681      32.703
2015    7        1    23  18    5.2358   358.9    9.686      32.705
2015    7        1    23  24    5.2390   358.9    9.691      32.707
2015    7        1    23  30    5.2422   358.9    9.696      32.710
2015    7        1    23  35    5.2454   358.8    9.701      32.712
2015    7        1    23  41    5.2487   358.8    9.706      32.715
2015    7        1    23  47    5.2520   358.8    9.711      32.718
2015    7        1    23  53    5.2554   358.8    9.716      32.722
2015    7        1    23  59    5.2588   358.8    9.721      32.725
2015    7        2     0   5    5.2623   358.8    9.726      32.729
2015    7        2     0  11    5.2659   358.8    9.732      32.733
2015    7        2     0  17    5.2695   358.8    9.737      32.737
2015    7        2     0  23    5.2732   358.8    9.743      32.741
2015    7        2     0  29    5.2770   358.8    9.749      32.746
2015    7        2     0  34    5.2808   358.8    9.755      32.750
2015    7        2     0  40    5.2847   358.8    9.761      32.755
2015    7        2     0  46    5.2887   358.8    9.767      32.760
2015    7        2     0  52    5.2928   358.7    9.773      32.765
2015    7        2     0  58    5.2969   358.7    9.780      32.771
2015    7        2     1   4    5.3011   358.7    9.787      32.776
2015    7        2     1  10    5.3055   358.7    9.793      32.782
2015    7        2     1  16    5.3099   358.7    9.800      32.788
2015    7        2     1  22    5.3144   358.7    9.808      32.795
2015    7        2     1  27    5.3190   358.7    9.815      32.801
2015    7        2     1  33    5.3236   358.7    9.823      32.808
2015    7        2     1  39    5.3285   358.7    9.831      32.815
2015    7        2     1  45    5.3333   358.7    9.839      32.822
2015    7        2     1  51    5.3384   358.7    9.847      32.829
2015    7        2     1  57    5.3434   358.7    9.856      32.837
2015    7        2     2   3    5.3487   358.7    9.864      32.845
2015    7        2     2   9    5.3540   358.7    9.874      32.853
2015    7        2     2  15    5.3596   358.7    9.883      32.861
2015    7        2     2  21    5.3651   358.7    9.893      32.870
2015    7        2     2  26    5.3709   358.7    9.903      32.879
2015    7        2     2  32    5.3768   358.7    9.913      32.889
2015    7        2     2  38    5.3828   358.7    9.924      32.898
2015    7        2     2  44    5.3890   358.7    9.935      32.909
2015    7        2     2  50    5.3954   358.7    9.947      32.919
2015    7        2     2  56    5.4018   358.7    9.959      32.930
2015    7        2     3   2    5.4085   358.7    9.972      32.941
2015    7        2     3   8    5.4152   358.7    9.985      32.952
2015    7        2     3  14    5.4221   358.7    9.999      32.964
2015    7        2     3  19    5.4291   358.7   10.012      32.978
2015    7        2     3  25    5.4362   358.7   10.026      32.993
2015    7        2     3  31    5.4434   358.7   10.041      33.009
2015    7        2     3  37    5.4507   358.7   10.055      33.027
2015    7        2     3  43    5.4580   358.7   10.070      33.045
2015    7        2     3  49    5.4655   358.7   10.085      33.065
2015    7        2     3  55    5.4729   358.7   10.100      33.086
2015    7        2     4   1    5.4805   358.8   10.115      33.108
2015    7        2     4   7    5.4881   358.8   10.130      33.130
2015    7        2     4  13    5.4957   358.8   10.145      33.154
2015    7        2     4  18    5.5033   358.8   10.160      33.178
2015    7        2     4  24    5.5109   358.8   10.175      33.203
2015    7        2     4  30    5.5184   358.9   10.190      33.228
2015    7        2     4  36    5.5260   358.9   10.204      33.255
2015    7        2     4  42    5.5335   358.9   10.218      33.283
2015    7        2     4  48    5.5411   358.9   10.232      33.312
2015    7        2     4  54    5.5486   359.0   10.246      33.340
2015    7        2     5   0    5.5561   359.0   10.259      33.369
2015    7        2     5   6    5.5636   359.0   10.272      33.398
2015    7        2     5  11    5.5711   359.0   10.285      33.427
2015    7        2     5  17    5.5785   359.1   10.298      33.456
2015    7        2     5  23    5.5860   359.1   10.310      33.485
2015    7        2     5  29    5.5933   359.1   10.322      33.514
2015    7        2     5  35    5.6008   359.1   10.334      33.543
2015    7        2     5  41    5.6081   359.2   10.346      33.573
2015    7        2     5  47    5.6155   359.2   10.358      33.602
2015    7        2     5  53    5.6229   359.2   10.369      33.631
2015    7        2     5  59    5.6303   359.3   10.380      33.661
2015    7        2     6   4    5.6377   359.3   10.391      33.691
2015    7        2     6  10    5.6451   359.3   10.402      33.720
2015    7        2     6  16    5.6525   359.3   10.412      33.750
2015    7        2     6  22    5.6599   359.4   10.423      33.779
2015    7        2     6  28    5.6674   359.4   10.433      33.808
2015    7        2     6  34    5.6749   359.4   10.444      33.838
2015    7        2     6  40    5.6824   359.5   10.454      33.867
2015    7        2     6  46    5.6900   359.5   10.464      33.896
2015    7        2     6  52    5.6976   359.5   10.475      33.926
2015    7        2     6  58    5.7053   359.6   10.485      33.955
2015    7        2     7   3    5.7129   359.6   10.495      33.985
2015    7        2     7   9    5.7207   359.6   10.505      34.014
2015    7        2     7  15    5.7286   359.7   10.516      34.044
2015    7        2     7  21    5.7365   359.7   10.526      34.074
2015    7        2     7  27    5.7444   359.7   10.536      34.104
2015    7        2     7  33    5.7525   359.8   10.547      34.135
2015    7        2     7  39    5.7606   359.8   10.558      34.166
2015    7        2     7  45    5.7689   359.8   10.568      34.197
2015    7        2     7  51    5.7772   359.9   10.579      34.228
2015    7        2     7  56    5.7856   359.9   10.591      34.260
2015    7        2     8   2    5.7941   360.0   10.602      34.292
2015    7        2     8   8    5.8028   360.0   10.614      34.325
2015    7        2     8  14    5.8115   360.1   10.626      34.359
2015    7        2     8  20    5.8204   360.1   10.638      34.393
2015    7        2     8  26    5.8294   360.2   10.650      34.428
2015    7        2     8  32    5.8386   360.2   10.663      34.464
2015    7        2     8  38    5.8478   360.3   10.677      34.500
2015    7        2     8  44    5.8572   360.4   10.690      34.538
2015    7        2     8  50    5.8668   360.4   10.704      34.576
2015    7        2     8  55    5.8765   360.5   10.719      34.615
2015    7        2     9   1    5.8863   360.6   10.734      34.656
2015    7        2     9   7    5.8963   360.6   10.750      34.697
2015    7        2     9  13    5.9065   360.7   10.766      34.740
2015    7        2     9  19    5.9169   360.8   10.783      34.783
2015    7        2     9  25    5.9274   360.9   10.800      34.828
2015    7        2     9  31    5.9380   361.0   10.818      34.875
2015    7        2     9  37    5.9489   361.0   10.837      34.923
2015    7        2     9  43    5.9599   361.1   10.857      34.972
2015    7        2     9  48    5.9711   361.2   10.877      35.023
2015    7        2     9  54    5.9825   361.3   10.898      35.075
2015    7        2    10   0    5.9942   361.4   10.921      35.129
2015    7        2    10   6    6.0060   361.5   10.944      35.183
2015    7        2    10  12    6.0179   361.6   10.968      35.239
2015    7        2    10  18    6.0301   361.7   10.993      35.297
2015    7        2    10  24    6.0424   361.8   11.019      35.358
2015    7        2    10  30    6.0549   361.9   11.047      35.421
2015    7        2    10  36    6.0675   362.1   11.075      35.486
2015    7        2    10  42    6.0804   362.2   11.105      35.553
2015    7        2    10  47    6.0934   362.3   11.135      35.622
2015    7        2    10  53    6.1066   362.4   11.167      35.694
2015    7        2    10  59    6.1199   362.6   11.199      35.771
2015    7        2    11   5    6.1334   362.7   11.231      35.852
2015    7        2    11  11    6.1469   362.9   11.264      35.937
2015    7        2    11  17    6.1606   363.0   11.298      36.026
2015    7        2    11  23    6.1743   363.2   11.331      36.119
2015    7        2    11  29    6.1880   363.4   11.365      36.215
2015    7        2    11  35    6.2017   363.5   11.399      36.313
2015    7        2    11  40    6.2155   363.7   11.433      36.416
2015    7        2    11  46    6.2292   363.9   11.466      36.521
2015    7        2    11  52    6.2429   364.1   11.499      36.630
2015    7        2    11  58    6.2564   364.3   11.531      36.740
2015    7        2    12   4    6.2699   364.4   11.562      36.854
2015    7        2    12  10    6.2833   364.6   11.593      36.969
2015    7        2    12  16    6.2965   364.8   11.622      37.086
2015    7        2    12  22    6.3096   365.0   11.650      37.204
2015    7        2    12  28    6.3225   365.2   11.677      37.323
2015    7        2    12  34    6.3353   365.4   11.703      37.441
2015    7        2    12  39    6.3479   365.6   11.728      37.557
2015    7        2    12  45    6.3602   365.8   11.752      37.672
2015    7        2    12  51    6.3725   366.0   11.774      37.786
2015    7        2    12  57    6.3845   366.2   11.795      37.898
2015    7        2    13   3    6.3964   366.4   11.815      38.009
2015    7        2    13   9    6.4080   366.6   11.834      38.119
2015    7        2    13  15    6.4196   366.8   11.851      38.227
2015    7        2    13  21    6.4309   367.0   11.867      38.334
2015    7        2    13  27    6.4421   367.1   11.883      38.438
2015    7        2    13  32    6.4531   367.3   11.897      38.539
2015    7        2    13  38    6.4640   367.5   11.910      38.638
2015    7        2    13  44    6.4747   367.7   11.922      38.735
2015    7        2    13  50    6.4853   367.9   11.933      38.830
2015    7        2    13  56    6.4957   368.1   11.943      38.922
2015    7        2    14   2    6.5061   368.3   11.952      39.012
2015    7        2    14   8    6.5163   368.4   11.961      39.100
2015    7        2    14  14    6.5264   368.6   11.968      39.186
2015    7        2    14  20    6.5363   368.8   11.976      39.270
2015    7        2    14  25    6.5462   369.0   11.982      39.352
2015    7        2    14  31    6.5560   369.2   11.988      39.432
2015    7        2    14  37    6.5658   369.3   11.993      39.511
2015    7        2    14  43    6.5755   369.5   11.998      39.588
2015    7        2    14  49    6.5851   369.7   12.002      39.664
2015    7        2    14  55    6.5946   369.9   12.006      39.738
2015    7        2    15   1    6.6042   370.1   12.009      39.811
2015    7        2    15   7    6.6136   370.3   12.012      39.882
2015    7        2    15  13    6.6231   370.4   12.015      39.953
2015    7        2    15  19    6.6325   370.6   12.018      40.022
2015    7        2    15  24    6.6420   370.8   12.020      40.091
2015    7        2    15  30    6.6514   371.0   12.022      40.159
2015    7        2    15  36    6.6608   371.2   12.024      40.226
2015    7        2    15  42    6.6703   371.4   12.026      40.292
2015    7        2    15  48    6.6798   371.5   12.028      40.358
2015    7        2    15  54    6.6893   371.7   12.030      40.423
2015    7        2    16   0    6.6989   371.9   12.032      40.489
2015    7        2    16   6    6.7084   372.1   12.034      40.553
2015    7        2    16  12    6.7181   372.3   12.036      40.618
2015    7        2    16  17    6.7278   372.5   12.039      40.683
2015    7        2    16  23    6.7375   372.7   12.041      40.748
2015    7        2    16  29    6.7473   372.9   12.044      40.813
2015    7        2    16  35    6.7572   373.1   12.047      40.878
2015    7        2    16  41    6.7671   373.3   12.050      40.944
2015    7        2    16  47    6.7771   373.5   12.054      41.010
2015    7        2    16  53    6.7871   373.7   12.058      41.077
2015    7        2    16  59    6.7973   374.0   12.063      41.144
2015    7        2    17   5    6.8075   374.2   12.067      41.212
2015    7        2    17  11    6.8177   374.4   12.073      41.280
2015    7        2    17  16    6.8281   374.6   12.079      41.349
2015    7        2    17  22    6.8384   374.8   12.085      41.419
2015    7        2    17  28    6.8489   375.0   12.092      41.490
2015    7        2    17  34    6.8595   375.3   12.100      41.562
2015    7        2    17  40    6.8701   375.5   12.109      41.635
2015    7        2    17  46    6.8808   375.7   12.118      41.710
2015    7        2    17  52    6.8917   375.9   12.129      41.785
2015    7        2    17  58    6.9026   376.2   12.140      41.861
2015    7        2    18   4    6.9136   376.4   12.153      41.939
2015    7        2    18   9    6.9248   376.6   12.167      42.017
2015    7        2    18  15    6.9361   376.8   12.182      42.098
2015    7        2    18  21    6.9476   377.1   12.198      42.182
2015    7        2    18  27    6.9592   377.3   12.215      42.269
2015    7        2    18  33    6.9710   377.6   12.234      42.361
2015    7        2    18  39    6.9829   377.8   12.253      42.457
2015    7        2    18  45    6.9950   378.1   12.274      42.557
2015    7        2    18  51    7.0073   378.3   12.297      42.661
2015    7        2    18  57    7.0198   378.6   12.320      42.770
2015    7        2    19   3    7.0325   378.8   12.345      42.884
2015    7        2    19   8    7.0453   379.1   12.371      43.002
2015    7        2    19  14    7.0585   379.4   12.398      43.123
2015    7        2    19  20    7.0720   379.6   12.427      43.248
2015    7        2    19  26    7.0857   379.9   12.457      43.380
2015    7        2    19  32    7.0995   380.2   12.488      43.520
2015    7        2    19  38    7.1135   380.5   12.519      43.669
2015    7        2    19  44    7.1276   380.8   12.550      43.824
2015    7        2    19  50    7.1417   381.2   12.582      43.985
2015    7        2    19  56    7.1559   381.5   12.613      44.151
2015    7        2    20   1    7.1700   381.9   12.644      44.321
2015    7        2    20   7    7.1840   382.2   12.674      44.494
2015    7        2    20  13    7.1979   382.6   12.704      44.669
2015    7        2    20  19    7.2116   383.0   12.732      44.846
2015    7        2    20  25    7.2250   383.3   12.760      45.023
2015    7        2    20  31    7.2382   383.7   12.786      45.201
2015    7        2    20  37    7.2511   384.1   12.810      45.380
2015    7        2    20  43    7.2634   384.5   12.831      45.560
2015    7        2    20  49    7.2753   384.9   12.851      45.741
2015    7        2    20  54    7.2868   385.3   12.868      45.921
2015    7        2    21   0    7.2978   385.7   12.883      46.096
2015    7        2    21   6    7.3083   386.1   12.896      46.267
2015    7        2    21  12    7.3184   386.5   12.907      46.435
2015    7        2    21  18    7.3281   386.9   12.916      46.599
2015    7        2    21  24    7.3373   387.3   12.923      46.759
2015    7        2    21  30    7.3461   387.7   12.928      46.916
2015    7        2    21  36    7.3546   388.0   12.931      47.070
2015    7        2    21  42    7.3628   388.4   12.932      47.220
2015    7        2    21  48    7.3706   388.8   12.931      47.367
2015    7        2    21  53    7.3781   389.2   12.929      47.511
2015    7        2    21  59    7.3853   389.6   12.926      47.653
2015    7        2    22   5    7.3923   389.9   12.921      47.792
2015    7        2    22  11    7.3991   390.3   12.915      47.928
2015    7        2    22  17    7.4057   390.7   12.908      48.061
2015    7        2    22  23    7.4122   391.0   12.899      48.192
2015    7        2    22  29    7.4185   391.4   12.890      48.321
2015    7        2    22  35    7.4247   391.8   12.880      48.447
2015    7        2    22  41    7.4308   392.1   12.869      48.571
2015    7        2    22  46    7.4369   392.5   12.857      48.693
2015    7        2    22  52    7.4429   392.8   12.845      48.813
2015    7        2    22  58    7.4489   393.2   12.831      48.931
2015    7        2    23   4    7.4549   393.6   12.817      49.048
2015    7        2    23  10    7.4608   393.9   12.803      49.163
2015    7        2    23  16    7.4668   394.3   12.788      49.276
2015    7        2    23  22    7.4728   394.7   12.772      49.388
2015    7        2    23  28    7.4789   395.0   12.756      49.498
2015    7        2    23  34    7.4849   395.4   12.740      49.606
2015    7        2    23  40    7.4909   395.8   12.723      49.713
2015    7        2    23  45    7.4970   396.1   12.706      49.818
2015    7        2    23  51    7.5030   396.5   12.688      49.921
2015    7        2    23  57    7.5091   396.9   12.670      50.023
2015    7        3     0   3    7.5152   397.3   12.652      50.123
2015    7        3     0   9    7.5212   397.6   12.634      50.222
2015    7        3     0  15    7.5273   398.0   12.615      50.319
2015    7        3     0  21    7.5333   398.4   12.596      50.414
2015    7        3     0  27    7.5392   398.8   12.577      50.507
2015    7        3     0  33    7.5451   399.2   12.557      50.599
2015    7        3     0  38    7.5511   399.6   12.538      50.690
2015    7        3     0  44    7.5569   400.0   12.518      50.779
2015    7        3     0  50    7.5627   400.4   12.498      50.867
2015    7        3     0  56    7.5685   400.8   12.477      50.953
2015    7        3     1   2    7.5741   401.2   12.457      51.040
2015    7        3     1   8    7.5796   401.6   12.435      51.127
2015    7        3     1  14    7.5850   402.1   12.414      51.216
2015    7        3     1  20    7.5901   402.5   12.391      51.306
2015    7        3     1  26    7.5949   403.0   12.368      51.392
2015    7        3     1  32    7.5994   403.4   12.345      51.475
2015    7        3     1  37    7.6035   403.8   12.322      51.554
2015    7        3     1  43    7.6075   404.3   12.298      51.632
2015    7        3     1  49    7.6112   404.7   12.275      51.709
2015    7        3     1  55    7.6148   405.1   12.252      51.785
2015    7        3     2   1    7.6181   405.5   12.230      51.859
2015    7        3     2   7    7.6215   406.0   12.209      51.931
2015    7        3     2  13    7.6249   406.4   12.189      52.002
2015    7        3     2  19    7.6283   406.7   12.170      52.073
2015    7        3     2  25    7.6318   407.1   12.152      52.145
2015    7        3     2  30    7.6355   407.5   12.136      52.216
2015    7        3     2  36    7.6394   407.8   12.122      52.286
2015    7        3     2  42    7.6436   408.1   12.111      52.353
2015    7        3     2  48    7.6482   408.4   12.103      52.418
2015    7        3     2  54    7.6533   408.7   12.097      52.487
2015    7        3     3   0    7.6588   409.0   12.094      52.565
2015    7        3     3   6    7.6648   409.3   12.092      52.653
2015    7        3     3  12    7.6712   409.7   12.093      52.749
2015    7        3     3  18    7.6781   410.0   12.095      52.854
2015    7        3     3  24    7.6853   410.4   12.099      52.971
2015    7        3     3  29    7.6929   410.8   12.105      53.099
2015    7        3     3  35    7.7006   411.2   12.111      53.237
2015    7        3     3  41    7.7085   411.6   12.119      53.384
2015    7        3     3  47    7.7163   412.0   12.126      53.538
2015    7        3     3  53    7.7242   412.5   12.134      53.699
2015    7        3     3  59    7.7319   412.9   12.142      53.864
2015    7        3     4   5    7.7394   413.4   12.149      54.036
2015    7        3     4  11    7.7465   413.9   12.155      54.213
2015    7        3     4  17    7.7533   414.4   12.159      54.394
2015    7        3     4  22    7.7597   414.9   12.162      54.580
2015    7        3     4  28    7.7657   415.4   12.164      54.764
2015    7        3     4  34    7.7714   415.9   12.164      54.947
2015    7        3     4  40    7.7766   416.4   12.163      55.129
2015    7        3     4  46    7.7815   417.0   12.160      55.310
2015    7        3     4  52    7.7859   417.5   12.155      55.486
2015    7        3     4  58    7.7899   418.0   12.149      55.657
2015    7        3     5   4    7.7936   418.5   12.142      55.823
2015    7        3     5  10    7.7970   419.0   12.132      55.986
2015    7        3     5  15    7.8001   419.5   12.122      56.146
2015    7        3     5  21    7.8030   420.0   12.110      56.304
2015    7        3     5  27    7.8058   420.5   12.097      56.459
2015    7        3     5  33    7.8085   421.0   12.083      56.611
2015    7        3     5  39    7.8112   421.5   12.068      56.761
2015    7        3     5  45    7.8138   421.9   12.052      56.908
2015    7        3     5  51    7.8164   422.4   12.035      57.052
2015    7        3     5  57    7.8190   422.9   12.018      57.195
2015    7        3     6   3    7.8216   423.4   12.000      57.336
2015    7        3     6   9    7.8242   423.9   11.981      57.474
2015    7        3     6  14    7.8268   424.4   11.961      57.609
2015    7        3     6  20    7.8294   424.9   11.941      57.742
2015    7        3     6  26    7.8320   425.4   11.920      57.873
2015    7        3     6  32    7.8346   425.9   11.899      58.002
2015    7        3     6  38    7.8373   426.4   11.877      58.130
2015    7        3     6  44    7.8399   427.0   11.854      58.256
2015    7        3     6  50    7.8425   427.5   11.831      58.381
2015    7        3     6  56    7.8450   428.0   11.807      58.505
2015    7        3     7   2    7.8474   428.6   11.782      58.628
2015    7        3     7   7    7.8497   429.1   11.757      58.750
2015    7        3     7  13    7.8519   429.7   11.730      58.872
2015    7        3     7  19    7.8540   430.3   11.703      58.993
2015    7        3     7  25    7.8559   430.9   11.674      59.112
2015    7        3     7  31    7.8575   431.4   11.644      59.228
2015    7        3     7  37    7.8589   432.0   11.612      59.342
2015    7        3     7  43    7.8598   432.6   11.579      59.453
2015    7        3     7  49    7.8603   433.2   11.544      59.560
2015    7        3     7  55    7.8603   433.8   11.507      59.664
2015    7        3     8   1    7.8598   434.5   11.468      59.764
2015    7        3     8   6    7.8586   435.1   11.426      59.853
2015    7        3     8  12    7.8568   435.7   11.382      59.932
2015    7        3     8  18    7.8542   436.3   11.337      60.002
2015    7        3     8  24    7.8510   436.9   11.289      60.063
2015    7        3     8  30    7.8471   437.4   11.241      60.114
2015    7        3     8  36    7.8426   438.0   11.190      60.158
2015    7        3     8  42    7.8375   438.6   11.139      60.195
2015    7        3     8  48    7.8318   439.2   11.086      60.229
2015    7        3     8  54    7.8254   439.8   11.031      60.258
2015    7        3     8  59    7.8184   440.5   10.975      60.283
2015    7        3     9   5    7.8107   441.1   10.918      60.300
2015    7        3     9  11    7.8025   441.7   10.861      60.310
2015    7        3     9  17    7.7938   442.3   10.803      60.313
2015    7        3     9  23    7.7847   442.8   10.745      60.311
2015    7        3     9  29    7.7753   443.4   10.688      60.302
2015    7        3     9  35    7.7656   444.0   10.631      60.293
2015    7        3     9  41    7.7558   444.5   10.575      60.282
2015    7        3     9  47    7.7460   445.1   10.520      60.270
2015    7        3     9  53    7.7361   445.6   10.466      60.256
2015    7        3     9  58    7.7263   446.2   10.412      60.242
2015    7        3    10   4    7.7165   446.7   10.360      60.226
2015    7        3    10  10    7.7067   447.2   10.309      60.208
2015    7        3    10  16    7.6970   447.6   10.259      60.184
2015    7        3    10  22    7.6874   448.1   10.211      60.157
2015    7        3    10  28    7.6780   448.5   10.165      60.128
2015    7        3    10  34    7.6689   448.9   10.121      60.101
2015    7        3    10  40    7.6600   449.3   10.078      60.079
2015    7        3    10  46    7.6514   449.7   10.036      60.062
2015    7        3    10  51    7.6429   450.1    9.996      60.049
2015    7        3    10  57    7.6348   450.5    9.958      60.040
2015    7        3    11   3    7.6269   450.9    9.921      60.039
2015    7        3    11   9    7.6193   451.3    9.886      60.047
2015    7        3    11  15    7.6118   451.8    9.852      60.065
2015    7        3    11  21    7.6045   452.2    9.819      60.090
2015    7        3    11  27    7.5973   452.7    9.787      60.123
2015    7        3    11  33    7.5903   453.1    9.756      60.162
2015    7        3    11  39    7.5831   453.6    9.726      60.207
2015    7        3    11  44    7.5762   454.1    9.696      60.258
2015    7        3    11  50    7.5690   454.5    9.667      60.313
2015    7        3    11  56    7.5621   455.0    9.638      60.372
2015    7        3    12   2    7.5549   455.5    9.610      60.434
2015    7        3    12   8    7.5480   456.0    9.583      60.498
2015    7        3    12  14    7.5409   456.5    9.556      60.564
2015    7        3    12  20    7.5339   457.0    9.530      60.631
2015    7        3    12  26    7.5269   457.4    9.504      60.700
2015    7        3    12  32    7.5198   457.9    9.478      60.768
2015    7        3    12  38    7.5127   458.4    9.452      60.832
2015    7        3    12  43    7.5056   458.8    9.427      60.894
2015    7        3    12  49    7.4984   459.3    9.401      60.954
2015    7        3    12  55    7.4913   459.7    9.376      61.012
2015    7        3    13   1    7.4843   460.2    9.352      61.069
2015    7        3    13   7    7.4774   460.6    9.327      61.124
2015    7        3    13  13    7.4706   461.1    9.303      61.179
2015    7        3    13  19    7.4639   461.5    9.279      61.233
2015    7        3    13  25    7.4573   462.0    9.255      61.285
2015    7        3    13  31    7.4508   462.4    9.232      61.337
2015    7        3    13  36    7.4444   462.9    9.208      61.389
2015    7        3    13  42    7.4380   463.3    9.185      61.438
2015    7        3    13  48    7.4317   463.8    9.161      61.486
2015    7        3    13  54    7.4254   464.3    9.138      61.532
2015    7        3    14   0    7.4191   464.7    9.115      61.577
2015    7        3    14   6    7.4127   465.2    9.091      61.621
2015    7        3    14  12    7.4064   465.7    9.068      61.664
2015    7        3    14  18    7.4000   466.2    9.044      61.705
2015    7        3    14  24    7.3935   466.7    9.020      61.746
2015    7        3    14  30    7.3869   467.2    8.995      61.786
2015    7        3    14  35    7.3800   467.7    8.970      61.827
2015    7        3    14  41    7.3731   468.3    8.944      61.867
2015    7        3    14  47    7.3658   468.8    8.917      61.907
2015    7        3    14  53    7.3583   469.4    8.890      61.945
2015    7        3    14  59    7.3505   470.0    8.861      61.981
2015    7        3    15   5    7.3424   470.5    8.831      62.014
2015    7        3    15  11    7.3337   471.1    8.799      62.043
2015    7        3    15  17    7.3245   471.7    8.766      62.068
2015    7        3    15  23    7.3148   472.3    8.732      62.087
2015    7        3    15  28    7.3046   473.0    8.695      62.105
2015    7        3    15  34    7.2937   473.6    8.656      62.119
2015    7        3    15  40    7.2824   474.2    8.615      62.120
2015    7        3    15  46    7.2703   474.8    8.573      62.109
2015    7        3    15  52    7.2576   475.4    8.529      62.085
2015    7        3    15  58    7.2444   476.0    8.484      62.049
2015    7        3    16   4    7.2307   476.6    8.438      62.004
2015    7        3    16  10    7.2166   477.1    8.392      61.950
2015    7        3    16  16    7.2022   477.7    8.345      61.888
2015    7        3    16  22    7.1874   478.2    8.297      61.816
2015    7        3    16  27    7.1724   478.8    8.250      61.738
2015    7        3    16  33    7.1572   479.3    8.202      61.653
2015    7        3    16  39    7.1420   479.8    8.155      61.564
2015    7        3    16  45    7.1266   480.3    8.108      61.470
2015    7        3    16  51    7.1112   480.8    8.061      61.374
2015    7        3    16  57    7.0958   481.3    8.015      61.273
2015    7        3    17   3    7.0804   481.7    7.971      61.166
2015    7        3    17   9    7.0651   482.2    7.927      61.058
2015    7        3    17  15    7.0499   482.6    7.884      60.952
2015    7        3    17  20    7.0349   483.1    7.842      60.848
2015    7        3    17  26    7.0200   483.6    7.801      60.747
2015    7        3    17  32    7.0052   484.1    7.761      60.646
2015    7        3    17  38    6.9905   484.5    7.722      60.547
2015    7        3    17  44    6.9759   485.0    7.683      60.447
2015    7        3    17  50    6.9613   485.5    7.645      60.348
2015    7        3    17  56    6.9468   485.9    7.608      60.249
2015    7        3    18   2    6.9323   486.4    7.571      60.151
2015    7        3    18   8    6.9179   486.8    7.535      60.053
2015    7        3    18  14    6.9035   487.3    7.500      59.956
2015    7        3    18  19    6.8891   487.7    7.465      59.860
2015    7        3    18  25    6.8747   488.1    7.431      59.764
2015    7        3    18  31    6.8604   488.5    7.397      59.668
2015    7        3    18  37    6.8461   488.9    7.364      59.573
2015    7        3    18  43    6.8319   489.3    7.332      59.480
2015    7        3    18  49    6.8177   489.7    7.300      59.390
2015    7        3    18  55    6.8036   490.1    7.269      59.301
2015    7        3    19   1    6.7896   490.6    7.239      59.214
2015    7        3    19   7    6.7756   490.9    7.208      59.129
2015    7        3    19  12    6.7617   491.3    7.179      59.044
2015    7        3    19  18    6.7480   491.7    7.150      58.961
2015    7        3    19  24    6.7343   492.1    7.121      58.880
2015    7        3    19  30    6.7207   492.5    7.093      58.799
2015    7        3    19  36    6.7073   492.9    7.065      58.721
2015    7        3    19  42    6.6939   493.2    7.038      58.644
2015    7        3    19  48    6.6807   493.6    7.012      58.568
2015    7        3    19  54    6.6677   493.9    6.986      58.495
2015    7        3    20   0    6.6548   494.3    6.961      58.423
2015    7        3    20   5    6.6421   494.6    6.936      58.353
2015    7        3    20  11    6.6295   494.9    6.913      58.285
2015    7        3    20  17    6.6171   495.2    6.889      58.219
2015    7        3    20  23    6.6048   495.5    6.867      58.154
2015    7        3    20  29    6.5927   495.8    6.845      58.092
2015    7        3    20  35    6.5808   496.1    6.824      58.033
2015    7        3    20  41    6.5689   496.4    6.803      57.976
2015    7        3    20  47    6.5572   496.7    6.782      57.921
2015    7        3    20  53    6.5456   497.0    6.763      57.869
2015    7        3    20  59    6.5341   497.3    6.743      57.818
2015    7        3    21   4    6.5227   497.6    6.725      57.767
2015    7        3    21  10    6.5114   497.8    6.706      57.718
2015    7        3    21  16    6.5001   498.1    6.688      57.670
2015    7        3    21  22    6.4889   498.4    6.671      57.622
2015    7        3    21  28    6.4777   498.7    6.653      57.573
2015    7        3    21  34    6.4666   498.9    6.636      57.525
2015    7        3    21  40    6.4555   499.2    6.620      57.477
2015    7        3    21  46    6.4443   499.5    6.603      57.429
2015    7        3    21  52    6.4331   499.7    6.586      57.381
2015    7        3    21  57    6.4219   500.0    6.570      57.333
2015    7        3    22   3    6.4108   500.3    6.554      57.285
2015    7        3    22   9    6.3996   500.6    6.538      57.236
2015    7        3    22  15    6.3883   500.8    6.521      57.185
2015    7        3    22  21    6.3771   501.1    6.505      57.133
2015    7        3    22  27    6.3659   501.3    6.489      57.081
2015    7        3    22  33    6.3546   501.6    6.473      57.027
2015    7        3    22  39    6.3432   501.9    6.456      56.972
2015    7        3    22  45    6.3319   502.1    6.440      56.915
2015    7        3    22  51    6.3205   502.4    6.424      56.857
2015    7        3    22  56    6.3090   502.6    6.407      56.798
2015    7        3    23   2    6.2975   502.9    6.391      56.737
2015    7        3    23   8    6.2860   503.1    6.374      56.675
2015    7        3    23  14    6.2745   503.3    6.358      56.612
2015    7        3    23  20    6.2631   503.6    6.341      56.549
2015    7        3    23  26    6.2517   503.8    6.325      56.485
2015    7        3    23  32    6.2404   504.0    6.309      56.422
2015    7        3    23  38    6.2291   504.2    6.293      56.359
2015    7        3    23  44    6.2180   504.5    6.278      56.296
2015    7        3    23  49    6.2069   504.7    6.262      56.235
2015    7        3    23  55    6.1959   504.9    6.247      56.174
2015    7        4     0   1    6.1852   505.1    6.232      56.116
