year    month   day   hour  minute  B_enl V_enl   n_enl       T_enl
[year] [month] [day] [hour][minute] [nT]  [km/s]  [cm-3]      [kK]
2015    6       24     0   5    4.1781   472.6    4.883      39.551
2015    6       24     0  10    4.1747   472.5    4.880      39.521
2015    6       24     0  16    4.1713   472.4    4.877      39.491
2015    6       24     0  22    4.1679   472.4    4.874      39.461
2015    6       24     0  28    4.1645   472.3    4.871      39.430
2015    6       24     0  34    4.1611   472.2    4.868      39.400
2015    6       24     0  40    4.1578   472.2    4.866      39.369
2015    6       24     0  46    4.1544   472.1    4.863      39.338
2015    6       24     0  52    4.1511   472.0    4.860      39.306
2015    6       24     0  58    4.1478   471.9    4.857      39.275
2015    6       24     1   4    4.1444   471.9    4.854      39.243
2015    6       24     1   9    4.1411   471.8    4.851      39.212
2015    6       24     1  15    4.1378   471.7    4.848      39.180
2015    6       24     1  21    4.1345   471.7    4.846      39.148
2015    6       24     1  27    4.1311   471.6    4.843      39.116
2015    6       24     1  33    4.1278   471.5    4.840      39.084
2015    6       24     1  39    4.1245   471.4    4.837      39.051
2015    6       24     1  45    4.1212   471.4    4.835      39.019
2015    6       24     1  51    4.1179   471.3    4.832      38.987
2015    6       24     1  57    4.1146   471.2    4.829      38.955
2015    6       24     2   2    4.1113   471.1    4.827      38.922
2015    6       24     2   8    4.1079   471.1    4.824      38.890
2015    6       24     2  14    4.1046   471.0    4.822      38.858
2015    6       24     2  20    4.1013   470.9    4.819      38.826
2015    6       24     2  26    4.0980   470.8    4.817      38.794
2015    6       24     2  32    4.0947   470.8    4.814      38.762
2015    6       24     2  38    4.0914   470.7    4.812      38.731
2015    6       24     2  44    4.0881   470.6    4.809      38.699
2015    6       24     2  50    4.0848   470.5    4.807      38.668
2015    6       24     2  56    4.0815   470.5    4.805      38.637
2015    6       24     3   1    4.0782   470.4    4.802      38.606
2015    6       24     3   7    4.0749   470.3    4.800      38.575
2015    6       24     3  13    4.0716   470.2    4.798      38.545
2015    6       24     3  19    4.0683   470.2    4.796      38.515
2015    6       24     3  25    4.0650   470.1    4.793      38.485
2015    6       24     3  31    4.0617   470.0    4.791      38.455
2015    6       24     3  37    4.0584   469.9    4.789      38.426
2015    6       24     3  43    4.0552   469.9    4.787      38.396
2015    6       24     3  49    4.0519   469.8    4.785      38.367
2015    6       24     3  55    4.0486   469.7    4.783      38.339
2015    6       24     4   0    4.0454   469.6    4.781      38.310
2015    6       24     4   6    4.0422   469.5    4.779      38.282
2015    6       24     4  12    4.0389   469.5    4.778      38.255
2015    6       24     4  18    4.0357   469.4    4.776      38.227
2015    6       24     4  24    4.0325   469.3    4.774      38.200
2015    6       24     4  30    4.0293   469.2    4.772      38.172
2015    6       24     4  36    4.0261   469.1    4.771      38.146
2015    6       24     4  42    4.0229   469.1    4.769      38.119
2015    6       24     4  48    4.0198   469.0    4.768      38.093
2015    6       24     4  53    4.0167   468.9    4.766      38.066
2015    6       24     4  59    4.0135   468.8    4.765      38.040
2015    6       24     5   5    4.0104   468.7    4.763      38.015
2015    6       24     5  11    4.0073   468.6    4.762      37.989
2015    6       24     5  17    4.0042   468.6    4.760      37.964
2015    6       24     5  23    4.0011   468.5    4.759      37.938
2015    6       24     5  29    3.9981   468.4    4.758      37.913
2015    6       24     5  35    3.9950   468.3    4.757      37.888
2015    6       24     5  41    3.9920   468.2    4.755      37.864
2015    6       24     5  47    3.9890   468.1    4.754      37.839
2015    6       24     5  52    3.9860   468.0    4.753      37.815
2015    6       24     5  58    3.9830   467.9    4.752      37.790
2015    6       24     6   4    3.9801   467.9    4.751      37.766
2015    6       24     6  10    3.9771   467.8    4.750      37.742
2015    6       24     6  16    3.9742   467.7    4.749      37.717
2015    6       24     6  22    3.9712   467.6    4.748      37.693
2015    6       24     6  28    3.9683   467.5    4.747      37.669
2015    6       24     6  34    3.9654   467.4    4.746      37.645
2015    6       24     6  40    3.9625   467.3    4.745      37.621
2015    6       24     6  45    3.9596   467.2    4.744      37.597
2015    6       24     6  51    3.9567   467.1    4.743      37.572
2015    6       24     6  57    3.9538   467.0    4.742      37.548
2015    6       24     7   3    3.9509   466.9    4.740      37.523
2015    6       24     7   9    3.9480   466.8    4.739      37.498
2015    6       24     7  15    3.9452   466.7    4.738      37.473
2015    6       24     7  21    3.9423   466.6    4.737      37.448
2015    6       24     7  27    3.9395   466.5    4.736      37.422
2015    6       24     7  33    3.9367   466.4    4.734      37.397
2015    6       24     7  39    3.9338   466.3    4.733      37.371
2015    6       24     7  44    3.9310   466.2    4.732      37.344
2015    6       24     7  50    3.9282   466.1    4.730      37.318
2015    6       24     7  56    3.9254   466.0    4.729      37.291
2015    6       24     8   2    3.9226   465.9    4.728      37.264
2015    6       24     8   8    3.9198   465.8    4.726      37.236
2015    6       24     8  14    3.9170   465.7    4.725      37.208
2015    6       24     8  20    3.9142   465.6    4.723      37.180
2015    6       24     8  26    3.9114   465.4    4.722      37.152
2015    6       24     8  32    3.9087   465.3    4.720      37.123
2015    6       24     8  38    3.9059   465.2    4.719      37.094
2015    6       24     8  43    3.9031   465.1    4.717      37.065
2015    6       24     8  49    3.9003   465.0    4.716      37.035
2015    6       24     8  55    3.8976   464.9    4.714      37.006
2015    6       24     9   1    3.8948   464.8    4.712      36.976
2015    6       24     9   7    3.8921   464.7    4.711      36.946
2015    6       24     9  13    3.8893   464.6    4.709      36.916
2015    6       24     9  19    3.8866   464.5    4.707      36.885
2015    6       24     9  25    3.8838   464.4    4.706      36.854
2015    6       24     9  31    3.8811   464.2    4.704      36.823
2015    6       24     9  36    3.8783   464.1    4.702      36.792
2015    6       24     9  42    3.8756   464.0    4.701      36.761
2015    6       24     9  48    3.8728   463.9    4.699      36.730
2015    6       24     9  54    3.8701   463.8    4.697      36.698
2015    6       24    10   0    3.8674   463.7    4.695      36.667
2015    6       24    10   6    3.8647   463.6    4.694      36.635
2015    6       24    10  12    3.8620   463.5    4.692      36.603
2015    6       24    10  18    3.8592   463.4    4.690      36.572
2015    6       24    10  24    3.8565   463.2    4.688      36.540
2015    6       24    10  30    3.8538   463.1    4.687      36.508
2015    6       24    10  35    3.8512   463.0    4.685      36.476
2015    6       24    10  41    3.8485   462.9    4.683      36.445
2015    6       24    10  47    3.8458   462.8    4.681      36.413
2015    6       24    10  53    3.8432   462.7    4.680      36.381
2015    6       24    10  59    3.8406   462.6    4.678      36.349
2015    6       24    11   5    3.8379   462.4    4.676      36.318
2015    6       24    11  11    3.8353   462.3    4.675      36.286
2015    6       24    11  17    3.8327   462.2    4.673      36.255
2015    6       24    11  23    3.8301   462.1    4.671      36.224
2015    6       24    11  29    3.8276   462.0    4.670      36.192
2015    6       24    11  34    3.8250   461.9    4.668      36.161
2015    6       24    11  40    3.8224   461.8    4.666      36.130
2015    6       24    11  46    3.8199   461.7    4.665      36.099
2015    6       24    11  52    3.8174   461.5    4.663      36.068
2015    6       24    11  58    3.8149   461.4    4.662      36.037
2015    6       24    12   4    3.8123   461.3    4.660      36.006
2015    6       24    12  10    3.8098   461.2    4.659      35.975
2015    6       24    12  16    3.8074   461.1    4.657      35.945
2015    6       24    12  22    3.8049   461.0    4.656      35.914
2015    6       24    12  27    3.8024   460.9    4.654      35.883
2015    6       24    12  33    3.7999   460.7    4.653      35.853
2015    6       24    12  39    3.7975   460.6    4.652      35.823
2015    6       24    12  45    3.7950   460.5    4.650      35.792
2015    6       24    12  51    3.7926   460.4    4.649      35.762
2015    6       24    12  57    3.7902   460.3    4.648      35.732
2015    6       24    13   3    3.7877   460.2    4.647      35.703
2015    6       24    13   9    3.7853   460.0    4.646      35.673
2015    6       24    13  15    3.7829   459.9    4.645      35.643
2015    6       24    13  21    3.7805   459.8    4.644      35.614
2015    6       24    13  26    3.7781   459.7    4.643      35.584
2015    6       24    13  32    3.7757   459.6    4.642      35.555
2015    6       24    13  38    3.7733   459.4    4.641      35.526
2015    6       24    13  44    3.7710   459.3    4.640      35.498
2015    6       24    13  50    3.7686   459.2    4.640      35.469
2015    6       24    13  56    3.7663   459.1    4.639      35.441
2015    6       24    14   2    3.7639   459.0    4.638      35.413
2015    6       24    14   8    3.7616   458.8    4.638      35.385
2015    6       24    14  14    3.7593   458.7    4.637      35.357
2015    6       24    14  19    3.7569   458.6    4.637      35.329
2015    6       24    14  25    3.7546   458.5    4.636      35.302
2015    6       24    14  31    3.7523   458.3    4.636      35.274
2015    6       24    14  37    3.7500   458.2    4.635      35.247
2015    6       24    14  43    3.7477   458.1    4.635      35.219
2015    6       24    14  49    3.7454   458.0    4.634      35.192
2015    6       24    14  55    3.7431   457.9    4.634      35.165
2015    6       24    15   1    3.7407   457.7    4.634      35.138
2015    6       24    15   7    3.7384   457.6    4.633      35.110
2015    6       24    15  13    3.7361   457.5    4.633      35.083
2015    6       24    15  18    3.7338   457.3    4.632      35.055
2015    6       24    15  24    3.7315   457.2    4.632      35.028
2015    6       24    15  30    3.7292   457.1    4.632      35.000
2015    6       24    15  36    3.7269   457.0    4.631      34.972
2015    6       24    15  42    3.7245   456.8    4.631      34.944
2015    6       24    15  48    3.7222   456.7    4.631      34.916
2015    6       24    15  54    3.7199   456.6    4.630      34.887
2015    6       24    16   0    3.7175   456.4    4.630      34.858
2015    6       24    16   6    3.7152   456.3    4.629      34.830
2015    6       24    16  12    3.7129   456.2    4.629      34.801
2015    6       24    16  17    3.7105   456.0    4.628      34.772
2015    6       24    16  23    3.7082   455.9    4.628      34.742
2015    6       24    16  29    3.7058   455.8    4.628      34.713
2015    6       24    16  35    3.7035   455.6    4.627      34.684
2015    6       24    16  41    3.7012   455.5    4.627      34.654
2015    6       24    16  47    3.6989   455.3    4.626      34.624
2015    6       24    16  53    3.6965   455.2    4.626      34.594
2015    6       24    16  59    3.6942   455.1    4.625      34.565
2015    6       24    17   5    3.6919   454.9    4.625      34.535
2015    6       24    17  11    3.6896   454.8    4.625      34.505
2015    6       24    17  16    3.6873   454.6    4.624      34.475
2015    6       24    17  22    3.6850   454.5    4.624      34.446
2015    6       24    17  28    3.6827   454.3    4.624      34.416
2015    6       24    17  34    3.6804   454.2    4.623      34.387
2015    6       24    17  40    3.6782   454.1    4.623      34.357
2015    6       24    17  46    3.6759   453.9    4.623      34.328
2015    6       24    17  52    3.6737   453.8    4.623      34.299
2015    6       24    17  58    3.6715   453.6    4.623      34.271
2015    6       24    18   4    3.6693   453.5    4.622      34.242
2015    6       24    18   9    3.6672   453.3    4.622      34.214
2015    6       24    18  15    3.6650   453.2    4.622      34.186
2015    6       24    18  21    3.6629   453.0    4.622      34.158
2015    6       24    18  27    3.6608   452.9    4.622      34.131
2015    6       24    18  33    3.6587   452.8    4.623      34.104
2015    6       24    18  39    3.6566   452.6    4.623      34.077
2015    6       24    18  45    3.6546   452.5    4.623      34.050
2015    6       24    18  51    3.6526   452.3    4.623      34.023
2015    6       24    18  57    3.6505   452.2    4.623      33.996
2015    6       24    19   3    3.6485   452.0    4.623      33.969
2015    6       24    19   8    3.6465   451.9    4.622      33.942
2015    6       24    19  14    3.6445   451.7    4.622      33.915
2015    6       24    19  20    3.6425   451.6    4.622      33.888
2015    6       24    19  26    3.6406   451.4    4.622      33.860
2015    6       24    19  32    3.6386   451.3    4.622      33.833
2015    6       24    19  38    3.6366   451.1    4.621      33.804
2015    6       24    19  44    3.6346   451.0    4.621      33.776
2015    6       24    19  50    3.6326   450.8    4.620      33.747
2015    6       24    19  56    3.6307   450.7    4.620      33.718
2015    6       24    20   1    3.6287   450.6    4.619      33.689
2015    6       24    20   7    3.6267   450.4    4.619      33.659
2015    6       24    20  13    3.6247   450.3    4.618      33.629
2015    6       24    20  19    3.6227   450.1    4.617      33.599
2015    6       24    20  25    3.6207   450.0    4.616      33.568
2015    6       24    20  31    3.6188   449.8    4.616      33.537
2015    6       24    20  37    3.6168   449.7    4.615      33.506
2015    6       24    20  43    3.6148   449.5    4.614      33.475
2015    6       24    20  49    3.6128   449.4    4.613      33.444
2015    6       24    20  55    3.6109   449.2    4.612      33.412
2015    6       24    21   0    3.6089   449.1    4.611      33.380
2015    6       24    21   6    3.6069   448.9    4.610      33.348
2015    6       24    21  12    3.6050   448.7    4.610      33.316
2015    6       24    21  18    3.6030   448.6    4.609      33.284
2015    6       24    21  24    3.6011   448.4    4.608      33.252
2015    6       24    21  30    3.5991   448.3    4.607      33.220
2015    6       24    21  36    3.5972   448.1    4.606      33.188
2015    6       24    21  42    3.5953   448.0    4.606      33.156
2015    6       24    21  48    3.5934   447.8    4.605      33.124
2015    6       24    21  54    3.5915   447.7    4.604      33.092
2015    6       24    21  59    3.5896   447.5    4.603      33.060
2015    6       24    22   5    3.5877   447.4    4.603      33.028
2015    6       24    22  11    3.5858   447.2    4.602      32.997
2015    6       24    22  17    3.5838   447.1    4.601      32.965
2015    6       24    22  23    3.5819   446.9    4.601      32.933
2015    6       24    22  29    3.5800   446.8    4.600      32.901
2015    6       24    22  35    3.5781   446.6    4.599      32.870
2015    6       24    22  41    3.5762   446.5    4.599      32.838
2015    6       24    22  47    3.5743   446.3    4.598      32.806
2015    6       24    22  52    3.5724   446.2    4.597      32.775
2015    6       24    22  58    3.5705   446.0    4.597      32.743
2015    6       24    23   4    3.5685   445.9    4.596      32.711
2015    6       24    23  10    3.5666   445.7    4.596      32.679
2015    6       24    23  16    3.5647   445.6    4.595      32.648
2015    6       24    23  22    3.5627   445.4    4.594      32.616
2015    6       24    23  28    3.5608   445.3    4.594      32.584
2015    6       24    23  34    3.5588   445.1    4.593      32.552
2015    6       24    23  40    3.5569   444.9    4.593      32.520
2015    6       24    23  46    3.5550   444.8    4.592      32.488
2015    6       24    23  51    3.5530   444.6    4.591      32.455
2015    6       24    23  57    3.5511   444.5    4.591      32.423
2015    6       25     0   3    3.5492   444.3    4.590      32.391
2015    6       25     0   9    3.5472   444.2    4.590      32.359
2015    6       25     0  15    3.5453   444.0    4.589      32.326
2015    6       25     0  21    3.5434   443.8    4.588      32.294
2015    6       25     0  27    3.5415   443.7    4.588      32.262
2015    6       25     0  33    3.5396   443.5    4.587      32.230
2015    6       25     0  39    3.5377   443.4    4.587      32.197
2015    6       25     0  45    3.5358   443.2    4.586      32.166
2015    6       25     0  50    3.5339   443.0    4.586      32.134
2015    6       25     0  56    3.5320   442.9    4.586      32.102
2015    6       25     1   2    3.5302   442.7    4.585      32.071
2015    6       25     1   8    3.5283   442.5    4.585      32.040
2015    6       25     1  14    3.5265   442.4    4.585      32.009
2015    6       25     1  20    3.5247   442.2    4.585      31.978
2015    6       25     1  26    3.5229   442.1    4.585      31.948
2015    6       25     1  32    3.5212   441.9    4.585      31.918
2015    6       25     1  38    3.5194   441.7    4.585      31.889
2015    6       25     1  43    3.5177   441.6    4.585      31.860
2015    6       25     1  49    3.5160   441.4    4.586      31.831
2015    6       25     1  55    3.5143   441.2    4.586      31.803
2015    6       25     2   1    3.5126   441.1    4.586      31.776
2015    6       25     2   7    3.5110   440.9    4.587      31.748
2015    6       25     2  13    3.5094   440.7    4.588      31.722
2015    6       25     2  19    3.5078   440.6    4.588      31.695
2015    6       25     2  25    3.5062   440.4    4.589      31.669
2015    6       25     2  31    3.5046   440.2    4.590      31.643
2015    6       25     2  37    3.5031   440.1    4.591      31.617
2015    6       25     2  42    3.5015   439.9    4.592      31.592
2015    6       25     2  48    3.5000   439.7    4.592      31.567
2015    6       25     2  54    3.4984   439.6    4.593      31.541
2015    6       25     3   0    3.4969   439.4    4.594      31.516
2015    6       25     3   6    3.4954   439.2    4.595      31.491
2015    6       25     3  12    3.4939   439.1    4.596      31.466
2015    6       25     3  18    3.4924   438.9    4.597      31.441
2015    6       25     3  24    3.4909   438.7    4.598      31.416
2015    6       25     3  30    3.4893   438.6    4.599      31.390
2015    6       25     3  35    3.4878   438.4    4.600      31.365
2015    6       25     3  41    3.4863   438.2    4.601      31.339
2015    6       25     3  47    3.4848   438.1    4.602      31.314
2015    6       25     3  53    3.4833   437.9    4.602      31.288
2015    6       25     3  59    3.4817   437.7    4.603      31.262
2015    6       25     4   5    3.4802   437.6    4.604      31.237
2015    6       25     4  11    3.4787   437.4    4.605      31.211
2015    6       25     4  17    3.4772   437.2    4.606      31.185
2015    6       25     4  23    3.4757   437.1    4.607      31.159
2015    6       25     4  29    3.4742   436.9    4.608      31.133
2015    6       25     4  34    3.4726   436.7    4.609      31.107
2015    6       25     4  40    3.4711   436.5    4.610      31.080
2015    6       25     4  46    3.4696   436.4    4.611      31.054
2015    6       25     4  52    3.4681   436.2    4.612      31.028
2015    6       25     4  58    3.4666   436.0    4.612      31.001
2015    6       25     5   4    3.4651   435.8    4.613      30.975
2015    6       25     5  10    3.4636   435.7    4.614      30.948
2015    6       25     5  16    3.4621   435.5    4.615      30.922
2015    6       25     5  22    3.4606   435.3    4.616      30.895
2015    6       25     5  28    3.4591   435.1    4.617      30.868
2015    6       25     5  33    3.4577   435.0    4.618      30.842
2015    6       25     5  39    3.4562   434.8    4.619      30.815
2015    6       25     5  45    3.4548   434.6    4.620      30.788
2015    6       25     5  51    3.4533   434.4    4.621      30.762
2015    6       25     5  57    3.4519   434.3    4.622      30.735
2015    6       25     6   3    3.4504   434.1    4.622      30.708
2015    6       25     6   9    3.4490   433.9    4.623      30.681
2015    6       25     6  15    3.4476   433.7    4.624      30.654
2015    6       25     6  21    3.4462   433.6    4.625      30.628
2015    6       25     6  27    3.4448   433.4    4.626      30.601
2015    6       25     6  32    3.4435   433.2    4.627      30.574
2015    6       25     6  38    3.4421   433.0    4.628      30.547
2015    6       25     6  44    3.4408   432.8    4.628      30.520
2015    6       25     6  50    3.4394   432.7    4.629      30.494
2015    6       25     6  56    3.4381   432.5    4.630      30.467
2015    6       25     7   2    3.4368   432.3    4.631      30.440
2015    6       25     7   8    3.4355   432.1    4.632      30.413
2015    6       25     7  14    3.4342   432.0    4.632      30.387
2015    6       25     7  20    3.4329   431.8    4.633      30.360
2015    6       25     7  25    3.4316   431.6    4.634      30.333
2015    6       25     7  31    3.4303   431.4    4.634      30.306
2015    6       25     7  37    3.4291   431.2    4.635      30.280
2015    6       25     7  43    3.4278   431.1    4.636      30.253
2015    6       25     7  49    3.4266   430.9    4.636      30.226
2015    6       25     7  55    3.4253   430.7    4.637      30.200
2015    6       25     8   1    3.4241   430.5    4.637      30.173
2015    6       25     8   7    3.4229   430.3    4.638      30.146
2015    6       25     8  13    3.4216   430.1    4.638      30.119
2015    6       25     8  19    3.4204   430.0    4.639      30.091
2015    6       25     8  24    3.4192   429.8    4.639      30.064
2015    6       25     8  30    3.4179   429.6    4.639      30.037
2015    6       25     8  36    3.4167   429.4    4.640      30.009
2015    6       25     8  42    3.4155   429.2    4.640      29.982
2015    6       25     8  48    3.4143   429.0    4.641      29.954
2015    6       25     8  54    3.4131   428.9    4.641      29.927
2015    6       25     9   0    3.4118   428.7    4.641      29.899
2015    6       25     9   6    3.4106   428.5    4.642      29.871
2015    6       25     9  12    3.4094   428.3    4.642      29.843
2015    6       25     9  17    3.4082   428.1    4.643      29.814
2015    6       25     9  23    3.4070   427.9    4.643      29.786
2015    6       25     9  29    3.4058   427.7    4.643      29.758
2015    6       25     9  35    3.4046   427.5    4.644      29.730
2015    6       25     9  41    3.4034   427.4    4.644      29.701
2015    6       25     9  47    3.4022   427.2    4.645      29.673
2015    6       25     9  53    3.4010   427.0    4.645      29.645
2015    6       25     9  59    3.3998   426.8    4.646      29.616
2015    6       25    10   5    3.3987   426.6    4.647      29.588
2015    6       25    10  11    3.3975   426.4    4.647      29.560
2015    6       25    10  16    3.3963   426.2    4.648      29.532
2015    6       25    10  22    3.3952   426.0    4.649      29.504
2015    6       25    10  28    3.3940   425.9    4.650      29.476
2015    6       25    10  34    3.3929   425.7    4.650      29.448
2015    6       25    10  40    3.3917   425.5    4.651      29.421
2015    6       25    10  46    3.3906   425.3    4.652      29.393
2015    6       25    10  52    3.3894   425.1    4.653      29.366
2015    6       25    10  58    3.3883   424.9    4.654      29.338
2015    6       25    11   4    3.3872   424.7    4.655      29.311
2015    6       25    11   8    3.3863   424.6    4.656      29.293
2015    6       25    11  13    3.3854   424.4    4.657      29.275
2015    6       25    11  17    3.3846   424.3    4.658      29.257
2015    6       25    11  22    3.3837   424.1    4.659      29.239
2015    6       25    11  26    3.3829   424.0    4.660      29.223
2015    6       25    11  30    3.3821   423.8    4.661      29.206
2015    6       25    11  34    3.3813   423.7    4.662      29.191
2015    6       25    11  38    3.3806   423.6    4.662      29.175
2015    6       25    11  43    3.3798   423.4    4.663      29.159
2015    6       25    11  47    3.3790   423.3    4.664      29.144
2015    6       25    11  51    3.3782   423.2    4.665      29.128
2015    6       25    11  55    3.3775   423.0    4.666      29.113
2015    6       25    11  59    3.3768   422.9    4.668      29.098
2015    6       25    12   3    3.3760   422.7    4.669      29.083
2015    6       25    12   7    3.3753   422.6    4.670      29.068
2015    6       25    12  12    3.3746   422.5    4.671      29.053
2015    6       25    12  16    3.3738   422.3    4.672      29.039
2015    6       25    12  20    3.3731   422.2    4.673      29.024
2015    6       25    12  24    3.3724   422.1    4.674      29.010
2015    6       25    12  28    3.3717   421.9    4.676      28.995
2015    6       25    12  32    3.3711   421.8    4.677      28.981
2015    6       25    12  36    3.3704   421.6    4.678      28.967
2015    6       25    12  40    3.3697   421.5    4.679      28.953
2015    6       25    12  44    3.3691   421.4    4.681      28.939
2015    6       25    12  48    3.3684   421.2    4.682      28.925
2015    6       25    12  52    3.3678   421.1    4.683      28.911
2015    6       25    12  56    3.3671   421.0    4.685      28.897
2015    6       25    13   0    3.3665   420.8    4.686      28.883
2015    6       25    13   4    3.3659   420.7    4.688      28.870
2015    6       25    13   8    3.3653   420.5    4.689      28.856
2015    6       25    13  12    3.3647   420.4    4.691      28.843
2015    6       25    13  16    3.3642   420.3    4.692      28.829
2015    6       25    13  20    3.3636   420.1    4.694      28.816
2015    6       25    13  24    3.3630   420.0    4.696      28.803
2015    6       25    13  28    3.3625   419.8    4.697      28.790
2015    6       25    13  32    3.3620   419.7    4.699      28.777
2015    6       25    13  36    3.3615   419.6    4.701      28.764
2015    6       25    13  41    3.3610   419.4    4.703      28.751
2015    6       25    13  45    3.3605   419.3    4.705      28.738
2015    6       25    13  49    3.3600   419.1    4.707      28.726
2015    6       25    13  53    3.3596   419.0    4.708      28.713
2015    6       25    13  57    3.3591   418.8    4.710      28.701
2015    6       25    14   1    3.3587   418.7    4.712      28.689
2015    6       25    14   5    3.3583   418.6    4.715      28.676
2015    6       25    14   9    3.3579   418.4    4.717      28.664
2015    6       25    14  13    3.3575   418.3    4.719      28.652
2015    6       25    14  17    3.3571   418.1    4.721      28.641
2015    6       25    14  21    3.3568   418.0    4.723      28.629
2015    6       25    14  25    3.3564   417.8    4.725      28.618
2015    6       25    14  29    3.3561   417.7    4.728      28.606
2015    6       25    14  33    3.3558   417.6    4.730      28.595
2015    6       25    14  37    3.3555   417.4    4.732      28.584
2015    6       25    14  41    3.3552   417.3    4.735      28.573
2015    6       25    14  45    3.3549   417.1    4.737      28.563
2015    6       25    14  49    3.3546   417.0    4.740      28.552
2015    6       25    14  53    3.3544   416.8    4.742      28.542
2015    6       25    14  57    3.3541   416.7    4.745      28.532
2015    6       25    15   2    3.3539   416.6    4.747      28.522
2015    6       25    15   6    3.3537   416.4    4.750      28.512
2015    6       25    15  10    3.3535   416.3    4.753      28.502
2015    6       25    15  14    3.3533   416.1    4.755      28.492
2015    6       25    15  18    3.3531   416.0    4.758      28.483
2015    6       25    15  22    3.3530   415.8    4.761      28.474
2015    6       25    15  26    3.3528   415.7    4.763      28.465
2015    6       25    15  30    3.3527   415.5    4.766      28.456
2015    6       25    15  34    3.3525   415.4    4.769      28.447
2015    6       25    15  38    3.3524   415.3    4.772      28.438
2015    6       25    15  42    3.3523   415.1    4.775      28.429
2015    6       25    15  46    3.3522   415.0    4.778      28.420
2015    6       25    15  50    3.3521   414.8    4.781      28.412
2015    6       25    15  54    3.3519   414.7    4.783      28.403
2015    6       25    15  59    3.3519   414.5    4.786      28.394
2015    6       25    16   3    3.3518   414.4    4.789      28.386
2015    6       25    16   7    3.3517   414.2    4.793      28.377
2015    6       25    16  11    3.3516   414.1    4.796      28.369
2015    6       25    16  15    3.3515   413.9    4.799      28.360
2015    6       25    16  19    3.3515   413.8    4.802      28.351
2015    6       25    16  24    3.3514   413.6    4.805      28.343
2015    6       25    16  28    3.3514   413.5    4.808      28.334
2015    6       25    16  32    3.3513   413.3    4.811      28.326
2015    6       25    16  36    3.3513   413.2    4.815      28.317
2015    6       25    16  40    3.3512   413.0    4.818      28.309
2015    6       25    16  45    3.3512   412.9    4.821      28.300
2015    6       25    16  49    3.3512   412.7    4.824      28.292
2015    6       25    16  53    3.3511   412.6    4.827      28.283
2015    6       25    16  57    3.3511   412.4    4.831      28.275
2015    6       25    17   2    3.3511   412.3    4.834      28.266
2015    6       25    17   6    3.3510   412.1    4.837      28.257
2015    6       25    17  10    3.3510   412.0    4.840      28.248
2015    6       25    17  14    3.3510   411.8    4.844      28.240
2015    6       25    17  19    3.3510   411.7    4.847      28.231
2015    6       25    17  23    3.3510   411.5    4.850      28.222
2015    6       25    17  27    3.3510   411.4    4.853      28.213
2015    6       25    17  32    3.3510   411.2    4.857      28.204
2015    6       25    17  36    3.3510   411.1    4.860      28.196
2015    6       25    17  40    3.3510   410.9    4.863      28.187
2015    6       25    17  44    3.3511   410.8    4.866      28.178
2015    6       25    17  49    3.3511   410.6    4.870      28.169
2015    6       25    17  53    3.3511   410.5    4.873      28.160
2015    6       25    17  57    3.3512   410.3    4.876      28.150
2015    6       25    18   2    3.3512   410.2    4.879      28.141
2015    6       25    18   6    3.3513   410.0    4.882      28.132
2015    6       25    18  10    3.3513   409.8    4.886      28.123
2015    6       25    18  14    3.3514   409.7    4.889      28.113
2015    6       25    18  19    3.3515   409.5    4.892      28.104
2015    6       25    18  23    3.3516   409.4    4.895      28.095
2015    6       25    18  27    3.3516   409.2    4.898      28.085
2015    6       25    18  32    3.3517   409.1    4.901      28.076
2015    6       25    18  36    3.3518   408.9    4.905      28.066
2015    6       25    18  40    3.3519   408.8    4.908      28.056
2015    6       25    18  45    3.3520   408.6    4.911      28.046
2015    6       25    18  49    3.3522   408.5    4.914      28.036
2015    6       25    18  53    3.3523   408.3    4.917      28.026
2015    6       25    18  57    3.3524   408.1    4.920      28.016
2015    6       25    19   2    3.3526   408.0    4.923      28.006
2015    6       25    19   6    3.3527   407.8    4.927      27.996
2015    6       25    19  10    3.3529   407.7    4.930      27.985
2015    6       25    19  15    3.3531   407.5    4.933      27.975
2015    6       25    19  19    3.3533   407.4    4.936      27.965
2015    6       25    19  24    3.3535   407.2    4.939      27.954
2015    6       25    19  28    3.3537   407.1    4.942      27.944
2015    6       25    19  32    3.3539   406.9    4.945      27.933
2015    6       25    19  37    3.3541   406.7    4.948      27.922
2015    6       25    19  41    3.3543   406.6    4.952      27.911
2015    6       25    19  45    3.3546   406.4    4.955      27.901
2015    6       25    19  50    3.3548   406.3    4.958      27.890
2015    6       25    19  54    3.3551   406.1    4.961      27.879
2015    6       25    19  58    3.3554   406.0    4.964      27.868
2015    6       25    20   3    3.3556   405.8    4.967      27.857
2015    6       25    20   7    3.3559   405.7    4.971      27.846
2015    6       25    20  12    3.3562   405.5    4.974      27.835
2015    6       25    20  16    3.3566   405.3    4.977      27.824
2015    6       25    20  20    3.3569   405.2    4.980      27.813
2015    6       25    20  25    3.3572   405.0    4.983      27.802
2015    6       25    20  29    3.3576   404.9    4.987      27.790
2015    6       25    20  34    3.3580   404.7    4.990      27.779
2015    6       25    20  38    3.3584   404.6    4.993      27.768
2015    6       25    20  42    3.3588   404.4    4.997      27.757
2015    6       25    20  47    3.3592   404.2    5.000      27.746
2015    6       25    20  51    3.3596   404.1    5.003      27.735
2015    6       25    20  56    3.3600   403.9    5.007      27.724
2015    6       25    21   0    3.3605   403.8    5.010      27.713
2015    6       25    21   5    3.3610   403.6    5.014      27.702
2015    6       25    21   9    3.3615   403.5    5.017      27.692
2015    6       25    21  14    3.3620   403.3    5.021      27.681
2015    6       25    21  18    3.3625   403.2    5.024      27.670
2015    6       25    21  22    3.3630   403.0    5.028      27.660
2015    6       25    21  27    3.3635   402.8    5.032      27.649
2015    6       25    21  31    3.3641   402.7    5.035      27.639
2015    6       25    21  36    3.3647   402.5    5.039      27.628
2015    6       25    21  40    3.3653   402.4    5.043      27.618
2015    6       25    21  45    3.3659   402.2    5.047      27.608
2015    6       25    21  49    3.3665   402.1    5.051      27.598
2015    6       25    21  54    3.3671   401.9    5.055      27.588
2015    6       25    21  58    3.3678   401.8    5.059      27.578
2015    6       25    22   3    3.3685   401.6    5.063      27.568
2015    6       25    22   7    3.3692   401.4    5.067      27.559
2015    6       25    22  12    3.3699   401.3    5.071      27.549
2015    6       25    22  16    3.3706   401.1    5.075      27.540
2015    6       25    22  21    3.3713   401.0    5.079      27.530
2015    6       25    22  25    3.3721   400.8    5.084      27.521
2015    6       25    22  30    3.3729   400.7    5.088      27.512
2015    6       25    22  35    3.3737   400.5    5.093      27.503
2015    6       25    22  39    3.3745   400.4    5.097      27.494
2015    6       25    22  44    3.3753   400.2    5.102      27.485
2015    6       25    22  49    3.3762   400.0    5.106      27.477
2015    6       25    22  53    3.3771   399.9    5.111      27.468
2015    6       25    22  58    3.3779   399.7    5.116      27.460
2015    6       25    23   2    3.3788   399.6    5.121      27.452
2015    6       25    23   7    3.3798   399.4    5.126      27.444
2015    6       25    23  12    3.3807   399.3    5.131      27.435
2015    6       25    23  17    3.3817   399.1    5.136      27.428
2015    6       25    23  21    3.3827   398.9    5.141      27.420
2015    6       25    23  26    3.3837   398.8    5.146      27.412
2015    6       25    23  31    3.3847   398.6    5.151      27.405
2015    6       25    23  36    3.3857   398.5    5.157      27.398
2015    6       25    23  40    3.3868   398.3    5.162      27.390
2015    6       25    23  45    3.3878   398.2    5.168      27.384
2015    6       25    23  50    3.3889   398.0    5.173      27.377
2015    6       25    23  55    3.3901   397.9    5.179      27.370
2015    6       25    23  59    3.3912   397.7    5.185      27.364
2015    6       26     0   4    3.3923   397.5    5.191      27.358
2015    6       26     0   9    3.3935   397.4    5.197      27.352
2015    6       26     0  14    3.3947   397.2    5.203      27.346
2015    6       26     0  19    3.3959   397.1    5.209      27.340
2015    6       26     0  24    3.3971   396.9    5.215      27.334
2015    6       26     0  28    3.3984   396.8    5.221      27.329
2015    6       26     0  33    3.3996   396.6    5.227      27.324
2015    6       26     0  38    3.4009   396.4    5.234      27.319
2015    6       26     0  43    3.4022   396.3    5.240      27.314
2015    6       26     0  48    3.4035   396.1    5.246      27.310
2015    6       26     0  53    3.4049   396.0    5.253      27.305
2015    6       26     0  58    3.4063   395.8    5.260      27.301
2015    6       26     1   3    3.4076   395.7    5.266      27.297
2015    6       26     1   8    3.4091   395.5    5.273      27.293
2015    6       26     1  13    3.4105   395.4    5.280      27.290
2015    6       26     1  18    3.4119   395.2    5.287      27.286
2015    6       26     1  23    3.4134   395.0    5.294      27.283
2015    6       26     1  28    3.4149   394.9    5.301      27.280
2015    6       26     1  33    3.4164   394.7    5.308      27.277
2015    6       26     1  38    3.4179   394.6    5.315      27.274
2015    6       26     1  43    3.4195   394.4    5.323      27.271
2015    6       26     1  48    3.4211   394.3    5.330      27.269
2015    6       26     1  53    3.4226   394.1    5.337      27.267
2015    6       26     1  58    3.4242   394.0    5.345      27.265
2015    6       26     2   3    3.4259   393.8    5.352      27.263
2015    6       26     2   8    3.4275   393.7    5.359      27.261
2015    6       26     2  13    3.4291   393.5    5.367      27.259
2015    6       26     2  18    3.4308   393.4    5.374      27.257
2015    6       26     2  23    3.4325   393.2    5.382      27.256
2015    6       26     2  28    3.4341   393.1    5.389      27.254
2015    6       26     2  33    3.4358   392.9    5.397      27.253
2015    6       26     2  39    3.4375   392.8    5.405      27.252
2015    6       26     2  44    3.4393   392.6    5.412      27.251
2015    6       26     2  49    3.4410   392.5    5.420      27.250
2015    6       26     2  54    3.4427   392.3    5.427      27.248
2015    6       26     2  59    3.4444   392.2    5.435      27.247
2015    6       26     3   4    3.4462   392.0    5.442      27.246
2015    6       26     3   9    3.4479   391.9    5.450      27.245
2015    6       26     3  15    3.4497   391.7    5.457      27.244
2015    6       26     3  20    3.4514   391.6    5.465      27.243
2015    6       26     3  25    3.4532   391.4    5.472      27.242
2015    6       26     3  30    3.4550   391.3    5.480      27.241
2015    6       26     3  35    3.4567   391.1    5.487      27.241
2015    6       26     3  40    3.4585   391.0    5.495      27.239
2015    6       26     3  46    3.4603   390.8    5.502      27.238
2015    6       26     3  51    3.4621   390.7    5.509      27.238
2015    6       26     3  56    3.4640   390.5    5.517      27.236
2015    6       26     4   1    3.4658   390.4    5.524      27.235
2015    6       26     4   7    3.4676   390.3    5.531      27.234
2015    6       26     4  12    3.4694   390.1    5.539      27.233
2015    6       26     4  17    3.4713   390.0    5.546      27.232
2015    6       26     4  22    3.4731   389.8    5.553      27.231
2015    6       26     4  28    3.4750   389.7    5.560      27.230
2015    6       26     4  33    3.4768   389.5    5.567      27.229
2015    6       26     4  38    3.4787   389.4    5.574      27.227
2015    6       26     4  44    3.4806   389.2    5.581      27.226
2015    6       26     4  49    3.4825   389.1    5.588      27.225
2015    6       26     4  54    3.4843   389.0    5.595      27.224
2015    6       26     5   0    3.4862   388.8    5.602      27.222
2015    6       26     5   5    3.4881   388.7    5.609      27.221
2015    6       26     5  10    3.4901   388.5    5.616      27.220
2015    6       26     5  16    3.4920   388.4    5.623      27.218
2015    6       26     5  21    3.4939   388.2    5.629      27.217
2015    6       26     5  26    3.4958   388.1    5.636      27.215
2015    6       26     5  32    3.4978   388.0    5.643      27.214
2015    6       26     5  37    3.4997   387.8    5.650      27.212
2015    6       26     5  42    3.5017   387.7    5.656      27.211
2015    6       26     5  48    3.5037   387.5    5.663      27.209
2015    6       26     5  53    3.5057   387.4    5.670      27.208
2015    6       26     5  59    3.5076   387.3    5.677      27.206
2015    6       26     6   4    3.5096   387.1    5.683      27.205
2015    6       26     6   9    3.5116   387.0    5.690      27.203
2015    6       26     6  15    3.5137   386.8    5.697      27.202
2015    6       26     6  20    3.5157   386.7    5.703      27.200
2015    6       26     6  26    3.5177   386.6    5.710      27.199
2015    6       26     6  31    3.5198   386.4    5.717      27.197
2015    6       26     6  36    3.5218   386.3    5.724      27.196
2015    6       26     6  42    3.5239   386.1    5.730      27.195
2015    6       26     6  47    3.5260   386.0    5.737      27.193
2015    6       26     6  53    3.5281   385.9    5.744      27.192
2015    6       26     6  58    3.5302   385.7    5.751      27.191
2015    6       26     7   4    3.5323   385.6    5.758      27.190
2015    6       26     7   9    3.5345   385.5    5.765      27.189
2015    6       26     7  15    3.5366   385.3    5.772      27.189
2015    6       26     7  20    3.5388   385.2    5.780      27.188
2015    6       26     7  26    3.5410   385.0    5.787      27.188
2015    6       26     7  31    3.5432   384.9    5.794      27.187
2015    6       26     7  37    3.5454   384.8    5.801      27.187
2015    6       26     7  42    3.5476   384.6    5.809      27.188
2015    6       26     7  48    3.5499   384.5    5.816      27.188
2015    6       26     7  53    3.5522   384.4    5.824      27.189
2015    6       26     7  59    3.5544   384.3    5.832      27.189
2015    6       26     8   4    3.5567   384.1    5.839      27.191
2015    6       26     8  10    3.5591   384.0    5.847      27.192
2015    6       26     8  15    3.5614   383.9    5.855      27.194
2015    6       26     8  21    3.5638   383.7    5.863      27.195
2015    6       26     8  27    3.5661   383.6    5.871      27.198
2015    6       26     8  32    3.5685   383.5    5.880      27.200
2015    6       26     8  38    3.5709   383.4    5.888      27.203
2015    6       26     8  43    3.5734   383.2    5.896      27.206
2015    6       26     8  49    3.5758   383.1    5.905      27.209
2015    6       26     8  55    3.5783   383.0    5.913      27.212
2015    6       26     9   0    3.5807   382.9    5.922      27.216
2015    6       26     9   6    3.5832   382.7    5.931      27.220
2015    6       26     9  11    3.5857   382.6    5.940      27.224
2015    6       26     9  17    3.5882   382.5    5.948      27.229
2015    6       26     9  23    3.5907   382.4    5.957      27.233
2015    6       26     9  28    3.5932   382.3    5.966      27.238
2015    6       26     9  34    3.5957   382.1    5.975      27.243
2015    6       26     9  39    3.5982   382.0    5.984      27.249
2015    6       26     9  45    3.6007   381.9    5.994      27.255
2015    6       26     9  51    3.6032   381.8    6.003      27.260
2015    6       26     9  56    3.6057   381.7    6.012      27.266
2015    6       26    10   2    3.6082   381.6    6.021      27.273
2015    6       26    10   8    3.6107   381.4    6.030      27.279
2015    6       26    10  13    3.6132   381.3    6.040      27.285
2015    6       26    10  19    3.6157   381.2    6.049      27.292
2015    6       26    10  25    3.6183   381.1    6.058      27.299
2015    6       26    10  30    3.6208   381.0    6.067      27.306
2015    6       26    10  36    3.6233   380.9    6.077      27.313
2015    6       26    10  42    3.6257   380.8    6.086      27.320
2015    6       26    10  48    3.6282   380.7    6.095      27.327
2015    6       26    10  53    3.6307   380.5    6.104      27.334
2015    6       26    10  59    3.6332   380.4    6.113      27.342
2015    6       26    11   5    3.6356   380.3    6.123      27.349
2015    6       26    11  10    3.6381   380.2    6.132      27.357
2015    6       26    11  16    3.6405   380.1    6.141      27.364
2015    6       26    11  22    3.6430   380.0    6.150      27.372
2015    6       26    11  27    3.6454   379.9    6.159      27.380
2015    6       26    11  33    3.6479   379.8    6.168      27.388
2015    6       26    11  39    3.6503   379.6    6.176      27.395
2015    6       26    11  45    3.6528   379.5    6.185      27.403
2015    6       26    11  50    3.6552   379.4    6.194      27.411
2015    6       26    11  56    3.6577   379.3    6.203      27.419
2015    6       26    12   2    3.6601   379.2    6.212      27.427
2015    6       26    12   8    3.6625   379.1    6.220      27.436
2015    6       26    12  13    3.6650   379.0    6.229      27.444
2015    6       26    12  19    3.6674   378.9    6.238      27.452
2015    6       26    12  25    3.6699   378.8    6.246      27.460
2015    6       26    12  31    3.6723   378.7    6.255      27.469
2015    6       26    12  36    3.6748   378.6    6.263      27.477
2015    6       26    12  42    3.6772   378.5    6.272      27.485
2015    6       26    12  48    3.6797   378.3    6.280      27.494
2015    6       26    12  54    3.6821   378.2    6.288      27.502
2015    6       26    12  59    3.6846   378.1    6.297      27.511
2015    6       26    13   5    3.6870   378.0    6.305      27.519
2015    6       26    13  11    3.6895   377.9    6.313      27.528
2015    6       26    13  17    3.6919   377.8    6.321      27.536
2015    6       26    13  23    3.6944   377.7    6.329      27.545
2015    6       26    13  28    3.6968   377.6    6.337      27.554
2015    6       26    13  34    3.6993   377.5    6.346      27.562
2015    6       26    13  40    3.7018   377.4    6.354      27.571
2015    6       26    13  46    3.7043   377.3    6.362      27.580
2015    6       26    13  52    3.7067   377.2    6.370      27.588
2015    6       26    13  58    3.7092   377.1    6.378      27.597
2015    6       26    14   4    3.7117   377.0    6.386      27.606
2015    6       26    14   9    3.7141   376.9    6.393      27.615
2015    6       26    14  15    3.7166   376.8    6.401      27.624
2015    6       26    14  21    3.7191   376.7    6.409      27.633
2015    6       26    14  27    3.7215   376.6    6.417      27.641
2015    6       26    14  33    3.7240   376.5    6.425      27.650
2015    6       26    14  39    3.7264   376.4    6.432      27.659
2015    6       26    14  44    3.7289   376.3    6.440      27.668
2015    6       26    14  50    3.7313   376.2    6.448      27.677
2015    6       26    14  56    3.7338   376.1    6.455      27.686
2015    6       26    15   2    3.7363   376.0    6.463      27.695
2015    6       26    15   8    3.7387   375.9    6.471      27.704
2015    6       26    15  14    3.7412   375.8    6.478      27.713
2015    6       26    15  20    3.7436   375.7    6.486      27.723
2015    6       26    15  25    3.7461   375.6    6.494      27.732
2015    6       26    15  31    3.7485   375.6    6.501      27.741
2015    6       26    15  37    3.7510   375.5    6.509      27.750
2015    6       26    15  43    3.7535   375.4    6.516      27.759
2015    6       26    15  49    3.7559   375.3    6.524      27.769
2015    6       26    15  55    3.7584   375.2    6.532      27.778
2015    6       26    16   1    3.7609   375.1    6.539      27.787
2015    6       26    16   7    3.7633   375.0    6.547      27.797
2015    6       26    16  12    3.7658   374.9    6.555      27.806
2015    6       26    16  18    3.7682   374.8    6.562      27.816
2015    6       26    16  24    3.7707   374.7    6.570      27.825
2015    6       26    16  30    3.7731   374.6    6.577      27.835
2015    6       26    16  36    3.7756   374.6    6.585      27.844
2015    6       26    16  42    3.7780   374.5    6.593      27.854
2015    6       26    16  48    3.7805   374.4    6.600      27.863
2015    6       26    16  54    3.7829   374.3    6.608      27.873
2015    6       26    17   0    3.7854   374.2    6.615      27.883
2015    6       26    17   6    3.7878   374.1    6.623      27.893
2015    6       26    17  11    3.7902   374.0    6.630      27.902
2015    6       26    17  17    3.7927   374.0    6.638      27.912
2015    6       26    17  23    3.7951   373.9    6.646      27.922
2015    6       26    17  29    3.7975   373.8    6.653      27.932
2015    6       26    17  35    3.7999   373.7    6.661      27.942
2015    6       26    17  41    3.8024   373.6    6.668      27.952
2015    6       26    17  47    3.8048   373.5    6.676      27.962
2015    6       26    17  53    3.8072   373.4    6.683      27.972
2015    6       26    17  59    3.8096   373.4    6.691      27.982
2015    6       26    18   5    3.8120   373.3    6.698      27.992
2015    6       26    18  10    3.8144   373.2    6.706      28.002
2015    6       26    18  16    3.8167   373.1    6.713      28.013
2015    6       26    18  22    3.8191   373.0    6.721      28.023
2015    6       26    18  28    3.8215   373.0    6.728      28.033
2015    6       26    18  34    3.8239   372.9    6.735      28.043
2015    6       26    18  40    3.8262   372.8    6.743      28.053
2015    6       26    18  46    3.8286   372.7    6.750      28.064
2015    6       26    18  52    3.8309   372.6    6.757      28.074
2015    6       26    18  58    3.8333   372.6    6.765      28.084
2015    6       26    19   4    3.8356   372.5    6.772      28.094
2015    6       26    19   9    3.8380   372.4    6.779      28.104
2015    6       26    19  15    3.8403   372.3    6.786      28.115
2015    6       26    19  21    3.8426   372.2    6.794      28.125
2015    6       26    19  27    3.8449   372.2    6.801      28.135
2015    6       26    19  33    3.8472   372.1    6.808      28.145
2015    6       26    19  39    3.8495   372.0    6.815      28.155
2015    6       26    19  45    3.8518   371.9    6.822      28.166
2015    6       26    19  51    3.8541   371.8    6.829      28.176
2015    6       26    19  57    3.8564   371.8    6.836      28.186
2015    6       26    20   2    3.8587   371.7    6.843      28.196
2015    6       26    20   8    3.8609   371.6    6.850      28.206
2015    6       26    20  14    3.8632   371.5    6.857      28.216
2015    6       26    20  20    3.8655   371.5    6.864      28.226
2015    6       26    20  26    3.8677   371.4    6.871      28.236
2015    6       26    20  32    3.8700   371.3    6.878      28.246
2015    6       26    20  38    3.8722   371.2    6.884      28.256
2015    6       26    20  44    3.8744   371.2    6.891      28.266
2015    6       26    20  50    3.8767   371.1    6.898      28.276
2015    6       26    20  56    3.8789   371.0    6.904      28.285
2015    6       26    21   1    3.8811   370.9    6.911      28.295
2015    6       26    21   7    3.8833   370.9    6.918      28.305
2015    6       26    21  13    3.8855   370.8    6.924      28.315
2015    6       26    21  19    3.8878   370.7    6.931      28.324
2015    6       26    21  25    3.8900   370.6    6.937      28.334
2015    6       26    21  31    3.8921   370.6    6.943      28.344
2015    6       26    21  37    3.8943   370.5    6.950      28.353
2015    6       26    21  43    3.8965   370.4    6.956      28.363
2015    6       26    21  49    3.8987   370.4    6.962      28.372
2015    6       26    21  54    3.9009   370.3    6.969      28.381
2015    6       26    22   0    3.9030   370.2    6.975      28.391
2015    6       26    22   6    3.9052   370.1    6.981      28.400
2015    6       26    22  12    3.9073   370.1    6.987      28.409
2015    6       26    22  18    3.9095   370.0    6.993      28.419
2015    6       26    22  24    3.9116   369.9    6.999      28.428
2015    6       26    22  30    3.9138   369.9    7.005      28.437
2015    6       26    22  36    3.9159   369.8    7.011      28.446
2015    6       26    22  42    3.9180   369.7    7.017      28.455
2015    6       26    22  48    3.9201   369.6    7.023      28.464
2015    6       26    22  53    3.9223   369.6    7.029      28.473
2015    6       26    22  59    3.9244   369.5    7.035      28.482
2015    6       26    23   5    3.9265   369.4    7.041      28.490
2015    6       26    23  11    3.9286   369.4    7.047      28.499
2015    6       26    23  17    3.9307   369.3    7.052      28.508
2015    6       26    23  23    3.9327   369.2    7.058      28.516
2015    6       26    23  29    3.9348   369.1    7.064      28.525
2015    6       26    23  35    3.9369   369.1    7.070      28.534
2015    6       26    23  41    3.9390   369.0    7.075      28.542
2015    6       26    23  47    3.9411   368.9    7.081      28.550
2015    6       26    23  52    3.9431   368.9    7.087      28.559
2015    6       26    23  58    3.9452   368.8    7.092      28.567
2015    6       27     0   4    3.9472   368.7    7.098      28.576
2015    6       27     0  10    3.9493   368.7    7.103      28.584
2015    6       27     0  16    3.9513   368.6    7.109      28.592
2015    6       27     0  22    3.9534   368.5    7.114      28.601
2015    6       27     0  28    3.9554   368.5    7.120      28.609
2015    6       27     0  34    3.9575   368.4    7.125      28.617
2015    6       27     0  40    3.9595   368.3    7.131      28.625
2015    6       27     0  45    3.9615   368.3    7.136      28.634
2015    6       27     0  51    3.9636   368.2    7.142      28.642
2015    6       27     0  57    3.9656   368.1    7.147      28.650
2015    6       27     1   3    3.9676   368.1    7.153      28.658
2015    6       27     1   9    3.9696   368.0    7.158      28.666
2015    6       27     1  15    3.9716   367.9    7.164      28.674
2015    6       27     1  21    3.9736   367.9    7.169      28.682
2015    6       27     1  27    3.9756   367.8    7.175      28.690
2015    6       27     1  33    3.9776   367.7    7.180      28.698
2015    6       27     1  39    3.9796   367.7    7.185      28.706
2015    6       27     1  44    3.9816   367.6    7.191      28.714
2015    6       27     1  50    3.9836   367.5    7.196      28.722
2015    6       27     1  56    3.9856   367.5    7.202      28.730
2015    6       27     2   2    3.9876   367.4    7.207      28.738
2015    6       27     2   8    3.9895   367.3    7.212      28.746
2015    6       27     2  14    3.9915   367.3    7.218      28.754
2015    6       27     2  20    3.9935   367.2    7.223      28.762
2015    6       27     2  26    3.9955   367.1    7.228      28.769
2015    6       27     2  32    3.9974   367.1    7.234      28.777
2015    6       27     2  38    3.9994   367.0    7.239      28.785
2015    6       27     2  43    4.0014   366.9    7.244      28.793
2015    6       27     2  49    4.0033   366.9    7.249      28.800
2015    6       27     2  55    4.0053   366.8    7.255      28.808
2015    6       27     3   1    4.0072   366.7    7.260      28.815
2015    6       27     3   7    4.0092   366.7    7.265      28.823
2015    6       27     3  13    4.0111   366.6    7.270      28.830
2015    6       27     3  19    4.0131   366.6    7.276      28.837
2015    6       27     3  25    4.0151   366.5    7.281      28.844
2015    6       27     3  31    4.0170   366.4    7.286      28.851
2015    6       27     3  37    4.0190   366.4    7.291      28.858
2015    6       27     3  42    4.0210   366.3    7.296      28.865
2015    6       27     3  48    4.0230   366.2    7.301      28.873
2015    6       27     3  54    4.0250   366.2    7.307      28.880
2015    6       27     4   0    4.0270   366.1    7.312      28.888
2015    6       27     4   6    4.0290   366.0    7.317      28.898
2015    6       27     4  12    4.0310   366.0    7.322      28.909
2015    6       27     4  18    4.0331   365.9    7.327      28.922
2015    6       27     4  24    4.0351   365.9    7.332      28.941
2015    6       27     4  30    4.0371   365.8    7.338      28.966
2015    6       27     4  35    4.0393   365.8    7.343      29.002
2015    6       27     4  41    4.0414   365.7    7.349      29.055
2015    6       27     4  47    4.0436   365.7    7.356      29.134
2015    6       27     4  53    4.0458   365.7    7.363      29.253
2015    6       27     4  59    4.0483   365.6    7.371      29.427
2015    6       27     5   5    4.0507   365.7    7.380      29.690
2015    6       27     5  11    4.0537   365.7    7.391      30.072
2015    6       27     5  17    4.0569   365.8    7.405      30.626
2015    6       27     5  23    4.0608   366.0    7.422      31.405
2015    6       27     5  29    4.0651   366.3    7.443      32.556
2015    6       27     5  34    4.0708   366.7    7.469      34.111
2015    6       27     5  40    4.0773   367.3    7.502      36.256
2015    6       27     5  46    4.0860   368.1    7.543      39.081
2015    6       27     5  52    4.0960   369.2    7.594      42.844
2015    6       27     5  58    4.1090   370.6    7.656      47.650
2015    6       27     6   4    4.1242   372.4    7.734      53.824
2015    6       27     6  10    4.1440   374.6    7.829      61.463
2015    6       27     6  16    4.1672   377.4    7.946      70.909
2015    6       27     6  22    4.1963   380.9    8.086      82.492
2015    6       27     6  27    4.2290   384.9    8.252      96.041
2015    6       27     6  33    4.2687   389.4    8.443     111.282
2015    6       27     6  39    4.3135   394.6    8.665     128.396
2015    6       27     6  45    4.3672   400.2    8.918     146.776
2015    6       27     6  51    4.4275   406.2    9.206     166.724
2015    6       27     6  57    4.4996   412.7    9.530     187.613
2015    6       27     7   3    4.5804   419.6    9.893     209.791
2015    6       27     7   9    4.6761   426.8   10.297     232.586
2015    6       27     7  15    4.7848   434.3   10.749     256.431
2015    6       27     7  21    4.9130   442.2   11.251     281.198
2015    6       27     7  26    5.0609   450.2   11.815     306.865
2015    6       27     7  32    5.2344   458.6   12.448     333.194
2015    6       27     7  38    5.4269   467.6   13.138     361.403
2015    6       27     7  44    5.6397   476.8   13.877     390.507
2015    6       27     7  50    5.8643   486.0   14.649     419.423
2015    6       27     7  56    6.1001   495.0   15.441     447.524
2015    6       27     8   2    6.3402   503.5   16.240     474.115
2015    6       27     8   8    6.5821   511.5   17.033     498.680
2015    6       27     8  14    6.8211   518.8   17.813     520.914
2015    6       27     8  20    7.0509   525.7   18.557     540.979
2015    6       27     8  25    7.2721   531.7   19.267     558.390
2015    6       27     8  31    7.4855   536.8   19.942     572.672
2015    6       27     8  37    7.6931   541.3   20.590     584.328
2015    6       27     8  43    7.8966   545.1   21.215     593.596
2015    6       27     8  49    8.0985   548.4   21.823     601.034
2015    6       27     8  55    8.3015   551.3   22.422     606.804
2015    6       27     9   1    8.5067   553.9   23.015     611.441
2015    6       27     9   7    8.7203   556.1   23.618     615.054
2015    6       27     9  13    8.9400   558.2   24.229     617.919
2015    6       27     9  19    9.1639   560.4   24.845     621.026
2015    6       27     9  24    9.3887   562.6   25.456     624.405
2015    6       27     9  30    9.6109   564.9   26.053     628.127
2015    6       27     9  36    9.8268   567.1   26.627     632.107
2015    6       27     9  42   10.0330   569.4   27.171     636.318
2015    6       27     9  48   10.2268   571.5   27.676     640.512
2015    6       27     9  54   10.4056   573.6   28.139     644.645
2015    6       27    10   0   10.5642   575.8   28.545     648.720
2015    6       27    10   6   10.7033   577.7   28.895     652.572
2015    6       27    10  12   10.8240   579.4   29.191     655.626
2015    6       27    10  18   10.9277   580.9   29.438     657.842
2015    6       27    10  23   11.0163   582.1   29.640     659.216
2015    6       27    10  29   11.0915   583.2   29.801     659.797
2015    6       27    10  35   11.1556   584.1   29.926     659.580
2015    6       27    10  41   11.2100   584.8   30.019     658.551
2015    6       27    10  47   11.2565   585.4   30.080     656.830
2015    6       27    10  53   11.2958   585.8   30.114     654.472
2015    6       27    10  59   11.3287   586.1   30.121     651.563
2015    6       27    11   5   11.3556   586.3   30.101     648.206
2015    6       27    11  11   11.3772   586.4   30.057     644.428
2015    6       27    11  16   11.3932   586.4   29.990     640.319
2015    6       27    11  22   11.4042   586.4   29.903     635.963
2015    6       27    11  28   11.4105   586.3   29.797     631.453
2015    6       27    11  34   11.4119   586.2   29.674     626.805
2015    6       27    11  40   11.4089   586.1   29.538     622.119
2015    6       27    11  46   11.4019   585.9   29.390     617.409
2015    6       27    11  52   11.3911   585.7   29.233     612.705
2015    6       27    11  58   11.3771   585.5   29.071     607.987
2015    6       27    12   4   11.3600   585.3   28.903     603.268
2015    6       27    12  10   11.3402   585.0   28.732     598.574
2015    6       27    12  15   11.3177   584.8   28.557     593.867
2015    6       27    12  21   11.2931   584.5   28.379     589.107
2015    6       27    12  27   11.2667   584.2   28.198     584.281
2015    6       27    12  33   11.2386   583.9   28.015     579.365
2015    6       27    12  39   11.2094   583.5   27.829     574.337
2015    6       27    12  45   11.1788   583.2   27.639     569.188
2015    6       27    12  51   11.1471   582.9   27.445     563.918
2015    6       27    12  57   11.1141   582.5   27.247     558.514
2015    6       27    13   3   11.0799   582.2   27.042     552.972
2015    6       27    13   9   11.0445   581.8   26.834     547.282
2015    6       27    13  14   11.0078   581.4   26.620     541.431
2015    6       27    13  20   10.9699   580.9   26.403     535.453
2015    6       27    13  26   10.9308   580.4   26.183     529.368
2015    6       27    13  32   10.8906   580.0   25.962     523.202
2015    6       27    13  38   10.8495   579.5   25.741     516.986
2015    6       27    13  44   10.8077   579.0   25.521     510.748
2015    6       27    13  50   10.7652   578.4   25.304     504.516
2015    6       27    13  56   10.7223   577.9   25.090     498.324
2015    6       27    14   2   10.6791   577.4   24.880     492.189
2015    6       27    14   7   10.6357   577.0   24.674     486.143
2015    6       27    14  13   10.5923   576.5   24.473     480.209
2015    6       27    14  19   10.5487   576.0   24.276     474.384
2015    6       27    14  25   10.5050   575.6   24.084     468.669
2015    6       27    14  31   10.4611   575.2   23.894     463.051
2015    6       27    14  37   10.4172   574.7   23.708     457.533
2015    6       27    14  43   10.3729   574.3   23.524     452.102
2015    6       27    14  49   10.3286   573.9   23.343     446.757
2015    6       27    14  55   10.2840   573.5   23.163     441.479
2015    6       27    15   1   10.2392   573.1   22.986     436.271
2015    6       27    15   6   10.1940   572.7   22.810     431.113
2015    6       27    15  12   10.1486   572.3   22.636     426.011
2015    6       27    15  18   10.1025   571.9   22.463     420.943
2015    6       27    15  24   10.0561   571.6   22.290     415.910
2015    6       27    15  30   10.0090   571.2   22.119     410.905
2015    6       27    15  36    9.9614   570.8   21.947     405.932
2015    6       27    15  42    9.9129   570.4   21.776     400.988
2015    6       27    15  48    9.8637   570.0   21.606     396.073
2015    6       27    15  54    9.8135   569.6   21.436     391.188
2015    6       27    16   0    9.7624   569.2   21.267     386.333
2015    6       27    16   5    9.7102   568.8   21.099     381.509
2015    6       27    16  11    9.6569   568.3   20.932     376.723
2015    6       27    16  17    9.6025   567.8   20.766     371.985
2015    6       27    16  23    9.5471   567.4   20.601     367.304
2015    6       27    16  29    9.4907   566.9   20.439     362.681
2015    6       27    16  35    9.4333   566.4   20.279     358.118
2015    6       27    16  41    9.3749   565.8   20.121     353.620
2015    6       27    16  47    9.3157   565.3   19.964     349.192
2015    6       27    16  53    9.2556   564.8   19.810     344.839
2015    6       27    16  59    9.1949   564.2   19.658     340.562
2015    6       27    17   4    9.1336   563.7   19.507     336.363
2015    6       27    17  10    9.0719   563.1   19.358     332.242
2015    6       27    17  16    9.0097   562.5   19.211     328.195
2015    6       27    17  22    8.9472   562.0   19.065     324.224
2015    6       27    17  28    8.8843   561.4   18.920     320.325
2015    6       27    17  34    8.8214   560.8   18.775     316.499
2015    6       27    17  40    8.7582   560.2   18.632     312.741
2015    6       27    17  46    8.6949   559.6   18.489     309.052
2015    6       27    17  52    8.6315   559.0   18.347     305.424
2015    6       27    17  58    8.5681   558.4   18.205     301.859
2015    6       27    18   3    8.5047   557.8   18.064     298.351
2015    6       27    18   9    8.4414   557.2   17.922     294.900
2015    6       27    18  15    8.3780   556.6   17.782     291.501
2015    6       27    18  21    8.3147   556.0   17.641     288.153
2015    6       27    18  27    8.2513   555.3   17.501     284.853
2015    6       27    18  33    8.1881   554.7   17.361     281.600
2015    6       27    18  39    8.1248   554.1   17.220     278.392
2015    6       27    18  45    8.0616   553.5   17.081     275.229
2015    6       27    18  51    7.9984   552.8   16.941     272.109
2015    6       27    18  56    7.9353   552.2   16.801     269.033
2015    6       27    19   2    7.8721   551.5   16.661     265.999
2015    6       27    19   8    7.8091   550.9   16.521     263.009
2015    6       27    19  14    7.7460   550.3   16.381     260.062
2015    6       27    19  20    7.6830   549.6   16.241     257.160
2015    6       27    19  26    7.6199   549.0   16.100     254.300
2015    6       27    19  32    7.5569   548.3   15.960     251.485
2015    6       27    19  38    7.4938   547.7   15.820     248.714
2015    6       27    19  44    7.4307   547.0   15.679     245.989
2015    6       27    19  50    7.3675   546.3   15.538     243.308
2015    6       27    19  55    7.3042   545.7   15.397     240.674
2015    6       27    20   1    7.2408   545.0   15.256     238.085
2015    6       27    20   7    7.1774   544.4   15.114     235.543
2015    6       27    20  13    7.1137   543.7   14.972     233.048
2015    6       27    20  19    7.0500   543.0   14.830     230.601
2015    6       27    20  25    6.9861   542.4   14.688     228.200
2015    6       27    20  31    6.9220   541.7   14.545     225.849
2015    6       27    20  37    6.8577   541.1   14.403     223.545
2015    6       27    20  43    6.7933   540.4   14.260     221.290
2015    6       27    20  49    6.7286   539.7   14.117     219.083
2015    6       27    20  54    6.6638   539.1   13.974     216.926
2015    6       27    21   0    6.5988   538.4   13.831     214.817
2015    6       27    21   6    6.5337   537.8   13.687     212.757
2015    6       27    21  12    6.4684   537.1   13.544     210.745
2015    6       27    21  18    6.4030   536.4   13.401     208.781
2015    6       27    21  24    6.3375   535.7   13.258     206.865
2015    6       27    21  30    6.2720   535.1   13.115     204.997
2015    6       27    21  36    6.2063   534.4   12.972     203.174
2015    6       27    21  42    6.1408   533.7   12.829     201.398
2015    6       27    21  47    6.0751   533.1   12.687     199.666
2015    6       27    21  53    6.0096   532.4   12.545     197.979
2015    6       27    21  59    5.9441   531.7   12.403     196.333
2015    6       27    22   5    5.8788   531.0   12.262     194.730
2015    6       27    22  11    5.8136   530.4   12.121     193.166
2015    6       27    22  17    5.7486   529.7   11.981     191.642
2015    6       27    22  23    5.6838   529.0   11.841     190.154
2015    6       27    22  29    5.6193   528.3   11.702     188.703
2015    6       27    22  35    5.5549   527.7   11.564     187.286
2015    6       27    22  41    5.4910   527.0   11.426     185.903
2015    6       27    22  46    5.4272   526.4   11.289     184.553
2015    6       27    22  52    5.3638   525.7   11.152     183.234
2015    6       27    22  58    5.3007   525.1   11.016     181.946
2015    6       27    23   4    5.2379   524.4   10.881     180.689
2015    6       27    23  10    5.1754   523.8   10.747     179.460
2015    6       27    23  16    5.1132   523.1   10.613     178.261
2015    6       27    23  22    5.0514   522.5   10.480     177.089
2015    6       27    23  28    4.9898   521.8   10.349     175.945
2015    6       27    23  34    4.9285   521.2   10.217     174.827
2015    6       27    23  40    4.8675   520.6   10.087     173.737
2015    6       27    23  45    4.8068   519.9    9.958     172.673
2015    6       27    23  51    4.7464   519.3    9.829     171.635
2015    6       27    23  57    4.6862   518.6    9.701     170.622
2015    6       28     0   3    4.6265   518.0    9.575     169.634
2015    6       28     0   9    4.5670   517.3    9.449     168.669
2015    6       28     0  15    4.5080   516.7    9.325     167.729
2015    6       28     0  21    4.4493   516.0    9.201     166.811
2015    6       28     0  27    4.3911   515.4    9.079     165.914
2015    6       28     0  33    4.3333   514.7    8.958     165.039
2015    6       28     0  39    4.2760   514.1    8.838     164.184
2015    6       28     0  44    4.2193   513.4    8.720     163.348
2015    6       28     0  50    4.1630   512.8    8.602     162.530
2015    6       28     0  56    4.1073   512.1    8.486     161.728
2015    6       28     1   2    4.0522   511.4    8.372     160.943
2015    6       28     1   8    3.9977   510.8    8.258     160.173
2015    6       28     1  14    3.9437   510.1    8.146     159.418
2015    6       28     1  20    3.8903   509.5    8.035     158.676
2015    6       28     1  26    3.8376   508.8    7.925     157.946
2015    6       28     1  32    3.7854   508.2    7.816     157.229
2015    6       28     1  38    3.7339   507.5    7.709     156.524
2015    6       28     1  43    3.6830   506.9    7.603     155.830
2015    6       28     1  49    3.6327   506.2    7.498     155.148
2015    6       28     1  55    3.5831   505.6    7.394     154.475
2015    6       28     2   1    3.5341   504.9    7.292     153.814
2015    6       28     2   7    3.4856   504.3    7.190     153.162
2015    6       28     2  13    3.4379   503.6    7.090     152.520
2015    6       28     2  19    3.3907   502.9    6.991     151.888
2015    6       28     2  25    3.3442   502.3    6.893     151.265
2015    6       28     2  31    3.2984   501.6    6.797     150.651
2015    6       28     2  36    3.2533   501.0    6.701     150.046
2015    6       28     2  42    3.2089   500.3    6.607     149.451
2015    6       28     2  48    3.1652   499.7    6.513     148.864
2015    6       28     2  54    3.1223   499.0    6.421     148.285
2015    6       28     3   0    3.0802   498.4    6.330     147.714
2015    6       28     3   6    3.0388   497.7    6.240     147.151
2015    6       28     3  12    2.9983   497.1    6.151     146.595
2015    6       28     3  18    2.9585   496.4    6.064     146.048
2015    6       28     3  24    2.9196   495.8    5.977     145.508
2015    6       28     3  30    2.8816   495.1    5.891     144.975
2015    6       28     3  35    2.8444   494.5    5.807     144.450
2015    6       28     3  41    2.8079   493.8    5.723     143.932
2015    6       28     3  47    2.7724   493.2    5.641     143.421
2015    6       28     3  53    2.7377   492.5    5.560     142.916
2015    6       28     3  59    2.7039   491.9    5.479     142.418
2015    6       28     4   5    2.6709   491.2    5.400     141.927
2015    6       28     4  11    2.6387   490.6    5.321     141.443
2015    6       28     4  17    2.6074   489.9    5.244     140.964
2015    6       28     4  23    2.5770   489.3    5.168     140.492
2015    6       28     4  29    2.5473   488.6    5.092     140.026
2015    6       28     4  34    2.5186   488.0    5.018     139.566
2015    6       28     4  40    2.4907   487.4    4.944     139.112
2015    6       28     4  46    2.4636   486.7    4.872     138.664
2015    6       28     4  52    2.4374   486.1    4.800     138.222
2015    6       28     4  58    2.4121   485.4    4.729     137.786
2015    6       28     5   4    2.3875   484.8    4.659     137.356
2015    6       28     5  10    2.3639   484.1    4.591     136.931
2015    6       28     5  16    2.3411   483.5    4.523     136.512
2015    6       28     5  22    2.3191   482.8    4.456     136.099
2015    6       28     5  28    2.2979   482.2    4.389     135.691
2015    6       28     5  33    2.2777   481.5    4.324     135.289
2015    6       28     5  39    2.2582   480.9    4.260     134.893
2015    6       28     5  45    2.2396   480.2    4.196     134.502
2015    6       28     5  51    2.2218   479.6    4.134     134.116
2015    6       28     5  57    2.2048   478.9    4.072     133.736
2015    6       28     6   3    2.1886   478.3    4.011     133.362
2015    6       28     6   9    2.1733   477.7    3.951     132.993
2015    6       28     6  15    2.1587   477.0    3.892     132.630
2015    6       28     6  21    2.1450   476.4    3.833     132.272
2015    6       28     6  26    2.1321   475.7    3.776     131.920
2015    6       28     6  32    2.1199   475.1    3.719     131.573
2015    6       28     6  38    2.1085   474.4    3.663     131.233
2015    6       28     6  44    2.0980   473.8    3.608     130.897
2015    6       28     6  50    2.0881   473.1    3.554     130.568
2015    6       28     6  56    2.0790   472.5    3.501     130.244
2015    6       28     7   2    2.0707   471.8    3.448     129.926
2015    6       28     7   8    2.0631   471.2    3.396     129.613
2015    6       28     7  14    2.0562   470.5    3.345     129.306
2015    6       28     7  20    2.0500   469.9    3.294     129.004
2015    6       28     7  25    2.0445   469.3    3.245     128.708
2015    6       28     7  31    2.0397   468.6    3.196     128.417
2015    6       28     7  37    2.0355   468.0    3.147     128.132
2015    6       28     7  43    2.0320   467.4    3.100     127.852
2015    6       28     7  49    2.0291   466.7    3.053     127.576
2015    6       28     7  55    2.0268   466.1    3.006     127.306
2015    6       28     8   1    2.0251   465.5    2.961     127.040
2015    6       28     8   7    2.0241   464.8    2.916     126.779
2015    6       28     8  13    2.0235   464.2    2.871     126.522
2015    6       28     8  19    2.0236   463.6    2.828     126.269
2015    6       28     8  24    2.0241   463.0    2.784     126.020
2015    6       28     8  30    2.0252   462.4    2.742     125.775
2015    6       28     8  36    2.0267   461.8    2.699     125.534
2015    6       28     8  42    2.0288   461.2    2.658     125.295
2015    6       28     8  48    2.0312   460.6    2.617     125.060
2015    6       28     8  54    2.0342   460.0    2.576     124.827
2015    6       28     9   0    2.0375   459.4    2.536     124.596
2015    6       28     9   6    2.0413   458.8    2.497     124.368
2015    6       28     9  12    2.0455   458.2    2.457     124.141
2015    6       28     9  18    2.0501   457.6    2.419     123.915
2015    6       28     9  23    2.0550   457.1    2.381     123.691
2015    6       28     9  29    2.0603   456.5    2.343     123.468
2015    6       28     9  35    2.0659   455.9    2.305     123.246
2015    6       28     9  41    2.0720   455.4    2.268     123.024
2015    6       28     9  47    2.0783   454.9    2.232     122.804
2015    6       28     9  53    2.0849   454.3    2.195     122.584
2015    6       28     9  59    2.0918   453.8    2.160     122.364
2015    6       28    10   5    2.0990   453.3    2.124     122.145
2015    6       28    10  11    2.1065   452.8    2.089     121.925
2015    6       28    10  16    2.1143   452.3    2.054     121.704
2015    6       28    10  22    2.1222   451.8    2.019     121.484
2015    6       28    10  28    2.1305   451.3    1.985     121.262
2015    6       28    10  34    2.1390   450.9    1.951     121.040
2015    6       28    10  40    2.1477   450.4    1.918     120.818
2015    6       28    10  46    2.1566   450.0    1.885     120.594
2015    6       28    10  52    2.1658   449.5    1.852     120.369
2015    6       28    10  58    2.1751   449.1    1.819     120.140
2015    6       28    11   4    2.1846   448.7    1.786     119.910
2015    6       28    11  10    2.1943   448.3    1.754     119.675
2015    6       28    11  15    2.2042   447.9    1.723     119.438
2015    6       28    11  21    2.2142   447.5    1.691     119.196
2015    6       28    11  27    2.2244   447.1    1.660     118.948
2015    6       28    11  33    2.2347   446.8    1.629     118.696
2015    6       28    11  39    2.2452   446.4    1.598     118.437
2015    6       28    11  45    2.2557   446.1    1.567     118.171
2015    6       28    11  51    2.2664   445.8    1.537     117.898
2015    6       28    11  57    2.2772   445.5    1.507     117.614
2015    6       28    12   3    2.2881   445.2    1.477     117.320
2015    6       28    12   9    2.2990   444.9    1.448     117.012
2015    6       28    12  14    2.3101   444.7    1.419     116.690
2015    6       28    12  20    2.3212   444.4    1.390     116.353
2015    6       28    12  26    2.3324   444.2    1.361     116.000
2015    6       28    12  32    2.3436   444.1    1.332     115.626
2015    6       28    12  38    2.3549   443.9    1.304     115.231
2015    6       28    12  44    2.3662   443.8    1.276     114.811
2015    6       28    12  50    2.3775   443.7    1.248     114.365
2015    6       28    12  56    2.3889   443.6    1.221     113.889
2015    6       28    13   2    2.4004   443.5    1.193     113.367
2015    6       28    13   7    2.4118   443.5    1.166     112.797
2015    6       28    13  13    2.4233   443.5    1.139     112.179
2015    6       28    13  19    2.4348   443.6    1.112     111.511
2015    6       28    13  25    2.4464   443.7    1.086     110.790
2015    6       28    13  31    2.4580   443.8    1.059     110.013
2015    6       28    13  37    2.4696   444.0    1.033     109.177
2015    6       28    13  43    2.4813   444.2    1.007     108.280
2015    6       28    13  49    2.4930   444.5    1.000     107.325
2015    6       28    13  55    2.5047   444.8    1.000     106.304
2015    6       28    14   1    2.5165   445.2    1.000     105.218
2015    6       28    14   6    2.5282   445.6    1.000     104.049
2015    6       28    14  12    2.5400   446.2    1.000     102.782
2015    6       28    14  18    2.5517   446.7    1.000     101.415
2015    6       28    14  24    2.5635   447.3    1.000      99.951
2015    6       28    14  30    2.5751   448.0    1.000      98.389
2015    6       28    14  36    2.5868   448.7    1.000      96.747
2015    6       28    14  42    2.5983   449.5    1.000      95.019
2015    6       28    14  48    2.6099   450.4    1.000      93.207
2015    6       28    14  54    2.6213   451.3    1.000      91.311
2015    6       28    15   0    2.6326   452.2    1.000      89.333
2015    6       28    15   5    2.6438   453.2    1.000      87.275
2015    6       28    15  11    2.6550   454.3    1.000      85.142
2015    6       28    15  17    2.6659   455.4    1.000      82.932
2015    6       28    15  23    2.6768   456.5    1.000      80.651
2015    6       28    15  29    2.6875   457.6    1.000      78.302
2015    6       28    15  35    2.6982   458.7    1.000      75.891
2015    6       28    15  41    2.7087   459.9    1.000      73.455
2015    6       28    15  47    2.7191   461.1    1.000      71.003
2015    6       28    15  53    2.7294   462.3    1.000      68.538
2015    6       28    15  59    2.7396   463.5    1.000      66.067
2015    6       28    16   4    2.7496   464.8    1.000      63.595
2015    6       28    16  10    2.7595   466.0    1.000      61.128
2015    6       28    16  16    2.7691   467.2    1.000      58.675
2015    6       28    16  22    2.7788   468.4    1.000      56.242
2015    6       28    16  28    2.7881   469.6    1.000      53.843
2015    6       28    16  34    2.7974   470.8    1.000      51.483
2015    6       28    16  40    2.8065   472.0    1.000      49.169
2015    6       28    16  46    2.8155   473.1    1.000      46.908
2015    6       28    16  52    2.8241   474.2    1.000      44.705
2015    6       28    16  57    2.8328   475.3    1.000      42.568
2015    6       28    17   3    2.8411   476.4    1.000      40.500
2015    6       28    17   9    2.8494   477.4    1.000      38.507
2015    6       28    17  15    2.8574   478.4    1.000      36.593
2015    6       28    17  21    2.8653   479.3    1.000      34.762
2015    6       28    17  27    2.8730   480.1    1.000      33.015
2015    6       28    17  33    2.8807   481.0    1.000      31.355
2015    6       28    17  39    2.8881   481.7    1.000      29.783
2015    6       28    17  45    2.8955   482.5    1.000      28.300
2015    6       28    17  51    2.9026   483.1    1.000      26.902
2015    6       28    17  56    2.9098   483.7    1.000      25.593
2015    6       28    18   2    2.9167   484.3    1.000      24.367
2015    6       28    18   8    2.9236   484.8    1.000      23.225
2015    6       28    18  14    2.9303   485.3    1.000      22.163
2015    6       28    18  20    2.9371   485.7    1.000      21.178
2015    6       28    18  26    2.9436   486.0    1.000      20.267
2015    6       28    18  32    2.9502   486.3    1.000      19.427
2015    6       28    18  38    2.9566   486.6    1.000      18.654
2015    6       28    18  44    2.9631   486.9    1.000      17.944
2015    6       28    18  50    2.9693   487.0    1.000      17.293
2015    6       28    18  55    2.9756   487.2    1.000      16.698
2015    6       28    19   1    2.9817   487.3    1.000      16.154
2015    6       28    19   7    2.9879   487.4    1.000      15.660
2015    6       28    19  13    2.9938   487.5    1.000      15.211
2015    6       28    19  19    2.9998   487.5    1.000      14.804
2015    6       28    19  25    3.0055   487.5    1.000      14.435
2015    6       28    19  31    3.0113   487.4    1.000      14.101
2015    6       28    19  37    3.0169   487.4    1.000      13.799
2015    6       28    19  43    3.0225   487.3    1.000      13.526
2015    6       28    19  49    3.0279   487.2    1.000      13.280
2015    6       28    19  54    3.0333   487.1    1.000      13.059
2015    6       28    20   0    3.0385   487.0    1.000      12.859
2015    6       28    20   6    3.0437   486.8    1.000      12.678
2015    6       28    20  12    3.0487   486.7    1.000      12.514
2015    6       28    20  18    3.0537   486.5    1.000      12.366
2015    6       28    20  24    3.0585   486.3    1.000      12.231
2015    6       28    20  30    3.0632   486.1    1.000      12.106
2015    6       28    20  36    3.0678   485.8    1.000      11.992
2015    6       28    20  42    3.0724   485.5    1.000      11.886
2015    6       28    20  47    3.0768   485.2    1.000      11.788
2015    6       28    20  53    3.0811   484.9    1.000      11.695
2015    6       28    20  59    3.0853   484.6    1.000      11.609
2015    6       28    21   5    3.0895   484.2    1.000      11.526
2015    6       28    21  11    3.0935   483.8    1.000      11.448
2015    6       28    21  17    3.0974   483.4    1.000      11.372
2015    6       28    21  23    3.1013   483.0    1.000      11.299
2015    6       28    21  29    3.1051   482.6    1.000      11.228
2015    6       28    21  35    3.1087   482.1    1.000      11.159
2015    6       28    21  41    3.1124   481.6    1.000      11.092
2015    6       28    21  46    3.1159   481.1    1.000      11.028
2015    6       28    21  52    3.1193   480.6    1.000      10.967
2015    6       28    21  58    3.1227   480.1    1.000      10.909
2015    6       28    22   4    3.1260   479.6    1.000      10.854
2015    6       28    22  10    3.1293   479.0    1.000      10.803
2015    6       28    22  16    3.1325   478.5    1.000      10.756
2015    6       28    22  22    3.1356   478.0    1.000      10.713
2015    6       28    22  28    3.1387   477.4    1.000      10.675
2015    6       28    22  34    3.1418   476.9    1.000      10.642
2015    6       28    22  40    3.1448   476.3    1.000      10.615
2015    6       28    22  45    3.1477   475.8    1.000      10.594
2015    6       28    22  51    3.1506   475.2    1.000      10.579
2015    6       28    22  57    3.1535   474.7    1.000      10.570
2015    6       28    23   3    3.1564   474.1    1.000      10.568
2015    6       28    23   9    3.1591   473.6    1.000      10.572
2015    6       28    23  15    3.1619   473.1    1.000      10.583
2015    6       28    23  21    3.1646   472.5    1.000      10.599
2015    6       28    23  27    3.1674   472.0    1.000      10.621
2015    6       28    23  33    3.1700   471.5    1.000      10.648
2015    6       28    23  38    3.1727   471.0    1.000      10.681
2015    6       28    23  44    3.1753   470.5    1.000      10.719
2015    6       28    23  50    3.1780   470.0    1.000      10.761
2015    6       28    23  56    3.1805   469.5    1.000      10.806
2015    6       29     0   2    3.1831   469.0    1.000      10.855
2015    6       29     0   8    3.1856   468.5    1.000      10.908
2015    6       29     0  14    3.1881   468.0    1.000      10.962
2015    6       29     0  20    3.1906   467.5    1.000      11.019
2015    6       29     0  26    3.1931   467.0    1.000      11.077
2015    6       29     0  32    3.1955   466.5    1.000      11.136
2015    6       29     0  37    3.1979   466.1    1.000      11.197
2015    6       29     0  43    3.2003   465.6    1.000      11.258
2015    6       29     0  49    3.2027   465.1    1.000      11.320
2015    6       29     0  55    3.2050   464.6    1.000      11.382
2015    6       29     1   1    3.2073   464.1    1.000      11.444
2015    6       29     1   7    3.2096   463.7    1.000      11.507
2015    6       29     1  13    3.2119   463.2    1.000      11.568
2015    6       29     1  19    3.2142   462.7    1.000      11.630
2015    6       29     1  25    3.2165   462.3    1.000      11.690
2015    6       29     1  31    3.2187   461.8    1.000      11.750
2015    6       29     1  36    3.2210   461.4    1.000      11.808
2015    6       29     1  42    3.2232   461.0    1.000      11.864
2015    6       29     1  48    3.2255   460.5    1.000      11.920
2015    6       29     1  54    3.2277   460.1    1.000      11.973
2015    6       29     2   0    3.2299   459.7    1.000      12.025
2015    6       29     2   6    3.2321   459.3    1.000      12.075
2015    6       29     2  12    3.2344   458.9    1.000      12.123
2015    6       29     2  18    3.2366   458.5    1.000      12.169
2015    6       29     2  24    3.2388   458.1    1.000      12.214
2015    6       29     2  29    3.2410   457.7    1.000      12.257
2015    6       29     2  35    3.2432   457.3    1.000      12.299
2015    6       29     2  41    3.2454   456.9    1.000      12.339
2015    6       29     2  47    3.2477   456.5    1.000      12.378
2015    6       29     2  53    3.2499   456.1    1.000      12.415
2015    6       29     2  59    3.2521   455.7    1.000      12.452
2015    6       29     3   5    3.2543   455.3    1.000      12.487
2015    6       29     3  11    3.2565   455.0    1.000      12.521
2015    6       29     3  17    3.2588   454.6    1.000      12.554
2015    6       29     3  23    3.2610   454.2    1.000      12.585
2015    6       29     3  28    3.2632   453.8    1.000      12.616
2015    6       29     3  34    3.2654   453.5    1.000      12.646
2015    6       29     3  40    3.2676   453.1    1.000      12.675
2015    6       29     3  46    3.2698   452.7    1.000      12.702
2015    6       29     3  52    3.2720   452.4    1.000      12.729
2015    6       29     3  58    3.2742   452.0    1.000      12.755
2015    6       29     4   4    3.2763   451.6    1.000      12.781
2015    6       29     4  10    3.2785   451.3    1.000      12.805
2015    6       29     4  16    3.2807   450.9    1.000      12.829
2015    6       29     4  22    3.2828   450.5    1.000      12.853
2015    6       29     4  27    3.2849   450.1    1.000      12.875
2015    6       29     4  33    3.2871   449.8    1.000      12.897
2015    6       29     4  39    3.2892   449.4    1.000      12.919
2015    6       29     4  45    3.2913   449.0    1.000      12.940
2015    6       29     4  51    3.2934   448.6    1.000      12.961
2015    6       29     4  57    3.2955   448.2    1.000      12.982
2015    6       29     5   3    3.2976   447.9    1.000      13.002
2015    6       29     5   9    3.2997   447.5    1.000      13.022
2015    6       29     5  15    3.3017   447.1    1.000      13.042
2015    6       29     5  21    3.3038   446.7    1.000      13.062
2015    6       29     5  26    3.3058   446.3    1.000      13.082
2015    6       29     5  32    3.3079   445.9    1.000      13.102
2015    6       29     5  38    3.3099   445.5    1.000      13.122
2015    6       29     5  44    3.3119   445.1    1.000      13.143
2015    6       29     5  50    3.3140   444.7    1.000      13.164
2015    6       29     5  56    3.3160   444.3    1.000      13.184
2015    6       29     6   2    3.3180   443.9    1.000      13.206
2015    6       29     6   8    3.3200   443.5    1.000      13.228
2015    6       29     6  14    3.3220   443.1    1.000      13.250
2015    6       29     6  19    3.3241   442.7    1.000      13.273
2015    6       29     6  25    3.3261   442.3    1.000      13.296
2015    6       29     6  31    3.3281   441.9    1.000      13.320
2015    6       29     6  37    3.3301   441.4    1.000      13.344
2015    6       29     6  43    3.3321   441.0    1.000      13.369
2015    6       29     6  49    3.3341   440.6    1.000      13.394
2015    6       29     6  55    3.3361   440.2    1.000      13.420
2015    6       29     7   1    3.3381   439.8    1.000      13.447
2015    6       29     7   7    3.3401   439.4    1.000      13.474
2015    6       29     7  13    3.3421   439.1    1.000      13.501
2015    6       29     7  18    3.3441   438.7    1.000      13.529
2015    6       29     7  24    3.3460   438.3    1.000      13.558
2015    6       29     7  30    3.3480   437.9    1.000      13.587
2015    6       29     7  36    3.3500   437.5    1.000      13.616
2015    6       29     7  42    3.3520   437.1    1.000      13.645
2015    6       29     7  48    3.3540   436.7    1.000      13.675
2015    6       29     7  54    3.3559   436.3    1.000      13.706
2015    6       29     8   0    3.3579   435.9    1.000      13.736
2015    6       29     8   6    3.3598   435.6    1.000      13.767
2015    6       29     8  11    3.3618   435.2    1.000      13.797
2015    6       29     8  17    3.3637   434.8    1.000      13.828
2015    6       29     8  23    3.3656   434.4    1.000      13.859
2015    6       29     8  29    3.3676   434.1    1.000      13.890
2015    6       29     8  35    3.3695   433.7    1.000      13.921
2015    6       29     8  41    3.3714   433.3    1.000      13.953
2015    6       29     8  47    3.3733   432.9    1.000      13.984
2015    6       29     8  53    3.3752   432.6    1.000      14.015
2015    6       29     8  59    3.3771   432.2    1.000      14.046
2015    6       29     9   5    3.3790   431.8    1.000      14.077
2015    6       29     9  10    3.3809   431.5    1.000      14.107
2015    6       29     9  16    3.3827   431.1    1.000      14.138
2015    6       29     9  22    3.3846   430.8    1.000      14.169
2015    6       29     9  28    3.3864   430.4    1.000      14.199
2015    6       29     9  34    3.3883   430.0    1.000      14.229
2015    6       29     9  40    3.3901   429.7    1.000      14.259
2015    6       29     9  46    3.3920   429.3    1.000      14.289
2015    6       29     9  52    3.3938   428.9    1.000      14.319
2015    6       29     9  58    3.3956   428.6    1.000      14.349
2015    6       29    10   4    3.3975   428.2    1.000      14.378
2015    6       29    10   9    3.3993   427.9    1.000      14.408
2015    6       29    10  15    3.4011   427.5    1.000      14.437
2015    6       29    10  21    3.4029   427.2    1.000      14.466
2015    6       29    10  27    3.4047   426.8    1.000      14.495
2015    6       29    10  33    3.4064   426.4    1.000      14.524
2015    6       29    10  39    3.4082   426.1    1.000      14.552
2015    6       29    10  45    3.4100   425.7    1.000      14.581
2015    6       29    10  51    3.4118   425.4    1.000      14.609
2015    6       29    10  57    3.4135   425.0    1.000      14.638
2015    6       29    11   2    3.4152   424.7    1.000      14.666
2015    6       29    11   8    3.4170   424.3    1.000      14.694
2015    6       29    11  14    3.4187   424.0    1.000      14.723
2015    6       29    11  20    3.4204   423.6    1.000      14.751
2015    6       29    11  26    3.4221   423.2    1.000      14.779
2015    6       29    11  32    3.4238   422.9    1.000      14.807
2015    6       29    11  38    3.4255   422.5    1.000      14.835
2015    6       29    11  44    3.4272   422.2    1.001      14.864
2015    6       29    11  50    3.4289   421.8    1.010      14.892
2015    6       29    11  56    3.4305   421.5    1.019      14.920
2015    6       29    12   1    3.4322   421.1    1.029      14.948
2015    6       29    12   7    3.4338   420.8    1.038      14.977
2015    6       29    12  13    3.4355   420.4    1.048      15.005
2015    6       29    12  19    3.4371   420.0    1.057      15.033
2015    6       29    12  25    3.4387   419.7    1.067      15.062
2015    6       29    12  31    3.4403   419.3    1.077      15.090
2015    6       29    12  37    3.4419   419.0    1.087      15.119
2015    6       29    12  43    3.4435   418.6    1.097      15.147
2015    6       29    12  49    3.4450   418.3    1.107      15.176
2015    6       29    12  55    3.4466   417.9    1.117      15.205
2015    6       29    13   0    3.4482   417.6    1.127      15.234
2015    6       29    13   6    3.4497   417.2    1.138      15.263
2015    6       29    13  12    3.4512   416.8    1.148      15.292
2015    6       29    13  18    3.4527   416.5    1.159      15.321
2015    6       29    13  24    3.4543   416.1    1.169      15.351
2015    6       29    13  30    3.4558   415.8    1.180      15.380
2015    6       29    13  36    3.4573   415.4    1.191      15.410
2015    6       29    13  42    3.4588   415.0    1.202      15.440
2015    6       29    13  48    3.4603   414.7    1.213      15.470
2015    6       29    13  53    3.4617   414.3    1.225      15.500
2015    6       29    13  59    3.4632   414.0    1.236      15.531
2015    6       29    14   5    3.4647   413.6    1.248      15.562
2015    6       29    14  11    3.4662   413.2    1.259      15.594
2015    6       29    14  17    3.4677   412.9    1.271      15.626
2015    6       29    14  23    3.4691   412.5    1.283      15.658
2015    6       29    14  29    3.4706   412.2    1.295      15.691
2015    6       29    14  35    3.4721   411.8    1.308      15.724
2015    6       29    14  41    3.4736   411.4    1.320      15.758
2015    6       29    14  47    3.4751   411.1    1.333      15.792
2015    6       29    14  52    3.4766   410.7    1.346      15.827
2015    6       29    14  58    3.4781   410.4    1.359      15.863
2015    6       29    15   4    3.4796   410.0    1.373      15.899
2015    6       29    15  10    3.4811   409.7    1.386      15.936
2015    6       29    15  16    3.4826   409.3    1.400      15.973
2015    6       29    15  22    3.4841   409.0    1.414      16.011
2015    6       29    15  28    3.4856   408.7    1.428      16.050
2015    6       29    15  34    3.4872   408.3    1.442      16.089
2015    6       29    15  40    3.4887   408.0    1.457      16.129
2015    6       29    15  45    3.4903   407.7    1.471      16.170
2015    6       29    15  51    3.4918   407.3    1.486      16.211
2015    6       29    15  57    3.4933   407.0    1.501      16.253
2015    6       29    16   3    3.4949   406.7    1.517      16.295
2015    6       29    16   9    3.4965   406.4    1.532      16.338
2015    6       29    16  15    3.4980   406.1    1.548      16.381
2015    6       29    16  21    3.4996   405.8    1.564      16.424
2015    6       29    16  27    3.5011   405.5    1.580      16.468
2015    6       29    16  33    3.5027   405.2    1.596      16.513
2015    6       29    16  39    3.5042   404.9    1.612      16.557
2015    6       29    16  44    3.5057   404.6    1.629      16.602
2015    6       29    16  50    3.5072   404.3    1.645      16.647
2015    6       29    16  56    3.5088   404.0    1.662      16.692
2015    6       29    17   2    3.5103   403.8    1.679      16.737
2015    6       29    17   8    3.5118   403.5    1.696      16.782
2015    6       29    17  14    3.5133   403.2    1.714      16.827
2015    6       29    17  20    3.5148   402.9    1.731      16.872
2015    6       29    17  26    3.5162   402.7    1.748      16.917
2015    6       29    17  32    3.5177   402.4    1.766      16.962
2015    6       29    17  38    3.5191   402.2    1.784      17.007
2015    6       29    17  43    3.5206   401.9    1.802      17.051
2015    6       29    17  49    3.5220   401.6    1.819      17.095
2015    6       29    17  55    3.5235   401.4    1.837      17.139
2015    6       29    18   1    3.5249   401.1    1.855      17.183
2015    6       29    18   7    3.5263   400.9    1.873      17.226
2015    6       29    18  13    3.5277   400.6    1.892      17.269
2015    6       29    18  19    3.5291   400.4    1.910      17.312
2015    6       29    18  25    3.5305   400.1    1.928      17.354
2015    6       29    18  31    3.5319   399.9    1.946      17.396
2015    6       29    18  36    3.5333   399.6    1.964      17.437
2015    6       29    18  42    3.5346   399.4    1.983      17.478
2015    6       29    18  48    3.5360   399.1    2.001      17.518
2015    6       29    18  54    3.5374   398.9    2.019      17.558
2015    6       29    19   0    3.5387   398.7    2.038      17.598
2015    6       29    19   6    3.5401   398.4    2.056      17.637
2015    6       29    19  12    3.5414   398.2    2.075      17.675
2015    6       29    19  18    3.5428   397.9    2.093      17.713
2015    6       29    19  24    3.5441   397.7    2.111      17.751
2015    6       29    19  30    3.5454   397.5    2.130      17.788
2015    6       29    19  35    3.5468   397.2    2.148      17.825
2015    6       29    19  41    3.5481   397.0    2.166      17.862
2015    6       29    19  47    3.5494   396.7    2.185      17.898
2015    6       29    19  53    3.5507   396.5    2.203      17.933
2015    6       29    19  59    3.5520   396.2    2.221      17.969
2015    6       29    20   5    3.5533   396.0    2.240      18.004
2015    6       29    20  11    3.5546   395.8    2.258      18.038
2015    6       29    20  17    3.5559   395.5    2.276      18.073
2015    6       29    20  23    3.5572   395.3    2.295      18.107
2015    6       29    20  29    3.5585   395.0    2.313      18.141
2015    6       29    20  34    3.5598   394.8    2.331      18.174
2015    6       29    20  40    3.5611   394.5    2.350      18.208
2015    6       29    20  46    3.5623   394.3    2.368      18.241
2015    6       29    20  52    3.5636   394.1    2.386      18.274
2015    6       29    20  58    3.5649   393.8    2.405      18.307
2015    6       29    21   4    3.5662   393.6    2.423      18.339
2015    6       29    21  10    3.5674   393.3    2.441      18.372
2015    6       29    21  16    3.5687   393.1    2.460      18.404
2015    6       29    21  22    3.5700   392.8    2.478      18.437
2015    6       29    21  27    3.5712   392.6    2.496      18.470
2015    6       29    21  33    3.5725   392.3    2.515      18.502
2015    6       29    21  39    3.5737   392.1    2.533      18.535
2015    6       29    21  45    3.5750   391.8    2.552      18.567
2015    6       29    21  51    3.5763   391.6    2.571      18.600
2015    6       29    21  57    3.5775   391.3    2.589      18.632
2015    6       29    22   3    3.5788   391.1    2.608      18.665
2015    6       29    22   9    3.5800   390.8    2.627      18.698
2015    6       29    22  15    3.5813   390.6    2.645      18.731
2015    6       29    22  21    3.5826   390.3    2.664      18.764
2015    6       29    22  26    3.5838   390.1    2.683      18.798
2015    6       29    22  32    3.5851   389.8    2.702      18.831
2015    6       29    22  38    3.5864   389.6    2.721      18.865
2015    6       29    22  44    3.5877   389.3    2.741      18.899
2015    6       29    22  50    3.5889   389.1    2.760      18.934
2015    6       29    22  56    3.5902   388.8    2.780      18.968
2015    6       29    23   2    3.5915   388.6    2.799      19.003
2015    6       29    23   8    3.5928   388.3    2.819      19.039
2015    6       29    23  14    3.5941   388.1    2.839      19.075
2015    6       29    23  19    3.5954   387.8    2.859      19.111
2015    6       29    23  25    3.5967   387.6    2.879      19.148
2015    6       29    23  31    3.5980   387.3    2.900      19.185
2015    6       29    23  37    3.5993   387.0    2.920      19.222
2015    6       29    23  43    3.6007   386.8    2.941      19.261
2015    6       29    23  49    3.6021   386.5    2.962      19.300
2015    6       29    23  55    3.6034   386.3    2.983      19.339
2015    6       30     0   1    3.6048   386.0    3.004      19.379
2015    6       30     0   7    3.6062   385.8    3.026      19.420
2015    6       30     0  13    3.6076   385.5    3.048      19.462
2015    6       30     0  18    3.6090   385.3    3.070      19.504
2015    6       30     0  24    3.6105   385.0    3.092      19.547
2015    6       30     0  30    3.6119   384.8    3.115      19.591
2015    6       30     0  36    3.6134   384.5    3.138      19.635
2015    6       30     0  42    3.6149   384.3    3.161      19.681
2015    6       30     0  48    3.6164   384.1    3.184      19.727
2015    6       30     0  54    3.6179   383.8    3.208      19.774
2015    6       30     1   0    3.6195   383.6    3.232      19.822
2015    6       30     1   6    3.6210   383.4    3.256      19.870
2015    6       30     1  11    3.6226   383.2    3.280      19.919
2015    6       30     1  17    3.6242   382.9    3.305      19.969
2015    6       30     1  23    3.6258   382.7    3.330      20.020
2015    6       30     1  29    3.6274   382.5    3.355      20.072
2015    6       30     1  35    3.6291   382.3    3.381      20.124
2015    6       30     1  41    3.6307   382.1    3.407      20.177
2015    6       30     1  47    3.6324   381.9    3.433      20.230
2015    6       30     1  53    3.6341   381.7    3.459      20.285
2015    6       30     1  59    3.6358   381.5    3.486      20.340
2015    6       30     2   5    3.6375   381.3    3.512      20.395
2015    6       30     2  10    3.6392   381.1    3.539      20.451
2015    6       30     2  16    3.6409   380.9    3.566      20.508
2015    6       30     2  22    3.6427   380.7    3.594      20.565
2015    6       30     2  28    3.6444   380.5    3.621      20.622
2015    6       30     2  34    3.6462   380.3    3.649      20.680
2015    6       30     2  40    3.6479   380.1    3.676      20.739
2015    6       30     2  46    3.6497   379.9    3.704      20.798
2015    6       30     2  52    3.6514   379.7    3.733      20.857
2015    6       30     2  58    3.6532   379.6    3.761      20.917
2015    6       30     3   4    3.6550   379.4    3.789      20.977
2015    6       30     3   9    3.6568   379.2    3.817      21.037
2015    6       30     3  15    3.6585   379.0    3.846      21.097
2015    6       30     3  21    3.6603   378.9    3.874      21.158
2015    6       30     3  27    3.6621   378.7    3.903      21.219
2015    6       30     3  33    3.6639   378.5    3.932      21.280
2015    6       30     3  39    3.6657   378.3    3.960      21.341
2015    6       30     3  45    3.6675   378.2    3.989      21.403
2015    6       30     3  51    3.6692   378.0    4.018      21.464
2015    6       30     3  57    3.6710   377.8    4.047      21.525
2015    6       30     4   2    3.6728   377.7    4.075      21.587
2015    6       30     4   8    3.6746   377.5    4.104      21.648
2015    6       30     4  14    3.6764   377.3    4.133      21.710
2015    6       30     4  20    3.6783   377.2    4.161      21.771
2015    6       30     4  26    3.6801   377.0    4.190      21.832
2015    6       30     4  32    3.6819   376.9    4.219      21.894
2015    6       30     4  38    3.6837   376.7    4.247      21.955
2015    6       30     4  44    3.6856   376.5    4.276      22.016
2015    6       30     4  50    3.6874   376.4    4.304      22.076
2015    6       30     4  56    3.6893   376.2    4.332      22.137
2015    6       30     5   1    3.6911   376.0    4.361      22.198
2015    6       30     5   7    3.6930   375.9    4.389      22.258
2015    6       30     5  13    3.6949   375.7    4.417      22.319
2015    6       30     5  19    3.6968   375.5    4.445      22.379
2015    6       30     5  25    3.6987   375.4    4.473      22.439
2015    6       30     5  31    3.7006   375.2    4.501      22.498
2015    6       30     5  37    3.7026   375.0    4.529      22.558
2015    6       30     5  43    3.7045   374.9    4.557      22.618
2015    6       30     5  49    3.7065   374.7    4.584      22.677
2015    6       30     5  54    3.7085   374.6    4.612      22.736
2015    6       30     6   0    3.7105   374.4    4.640      22.795
2015    6       30     6   6    3.7125   374.2    4.667      22.854
2015    6       30     6  12    3.7145   374.1    4.695      22.913
2015    6       30     6  18    3.7166   373.9    4.722      22.972
2015    6       30     6  24    3.7186   373.8    4.750      23.031
2015    6       30     6  30    3.7207   373.6    4.777      23.089
2015    6       30     6  36    3.7228   373.4    4.804      23.148
2015    6       30     6  42    3.7249   373.3    4.832      23.206
2015    6       30     6  48    3.7271   373.1    4.859      23.265
2015    6       30     6  53    3.7292   373.0    4.886      23.323
2015    6       30     6  59    3.7314   372.8    4.914      23.381
2015    6       30     7   5    3.7336   372.6    4.941      23.440
2015    6       30     7  11    3.7358   372.5    4.968      23.498
2015    6       30     7  17    3.7381   372.3    4.995      23.557
2015    6       30     7  23    3.7403   372.2    5.022      23.615
2015    6       30     7  29    3.7426   372.0    5.050      23.674
2015    6       30     7  35    3.7449   371.9    5.077      23.733
2015    6       30     7  41    3.7472   371.7    5.104      23.792
2015    6       30     7  46    3.7495   371.5    5.131      23.851
2015    6       30     7  52    3.7519   371.4    5.159      23.910
2015    6       30     7  58    3.7543   371.2    5.186      23.970
2015    6       30     8   4    3.7567   371.1    5.213      24.029
2015    6       30     8  10    3.7591   370.9    5.241      24.090
2015    6       30     8  16    3.7616   370.8    5.268      24.150
2015    6       30     8  22    3.7640   370.6    5.296      24.211
2015    6       30     8  28    3.7665   370.5    5.324      24.272
2015    6       30     8  34    3.7691   370.3    5.351      24.333
2015    6       30     8  40    3.7716   370.2    5.379      24.395
2015    6       30     8  45    3.7742   370.0    5.407      24.457
2015    6       30     8  51    3.7768   369.9    5.435      24.519
2015    6       30     8  57    3.7794   369.7    5.463      24.582
2015    6       30     9   3    3.7821   369.6    5.491      24.646
2015    6       30     9   9    3.7848   369.4    5.519      24.710
2015    6       30     9  15    3.7875   369.3    5.547      24.774
2015    6       30     9  21    3.7902   369.2    5.575      24.839
2015    6       30     9  27    3.7930   369.0    5.604      24.904
2015    6       30     9  33    3.7958   368.9    5.632      24.970
2015    6       30     9  39    3.7986   368.8    5.661      25.036
2015    6       30     9  44    3.8014   368.6    5.689      25.103
2015    6       30     9  50    3.8043   368.5    5.718      25.170
2015    6       30     9  56    3.8072   368.4    5.747      25.238
2015    6       30    10   2    3.8102   368.2    5.775      25.305
2015    6       30    10   8    3.8131   368.1    5.804      25.374
2015    6       30    10  14    3.8161   368.0    5.833      25.443
2015    6       30    10  20    3.8191   367.8    5.862      25.513
2015    6       30    10  26    3.8222   367.7    5.891      25.582
2015    6       30    10  32    3.8252   367.6    5.920      25.653
2015    6       30    10  37    3.8283   367.5    5.950      25.724
2015    6       30    10  43    3.8314   367.4    5.979      25.795
2015    6       30    10  49    3.8346   367.2    6.008      25.866
2015    6       30    10  55    3.8378   367.1    6.037      25.938
2015    6       30    11   1    3.8410   367.0    6.067      26.011
2015    6       30    11   7    3.8442   366.9    6.096      26.084
2015    6       30    11  13    3.8474   366.8    6.126      26.157
2015    6       30    11  19    3.8507   366.6    6.155      26.230
2015    6       30    11  25    3.8540   366.5    6.185      26.304
2015    6       30    11  31    3.8573   366.4    6.215      26.378
2015    6       30    11  36    3.8606   366.3    6.244      26.453
2015    6       30    11  42    3.8639   366.2    6.274      26.528
2015    6       30    11  48    3.8673   366.1    6.304      26.603
2015    6       30    11  54    3.8707   366.0    6.334      26.678
2015    6       30    12   0    3.8741   365.9    6.364      26.754
2015    6       30    12   6    3.8775   365.8    6.393      26.830
2015    6       30    12  12    3.8809   365.7    6.423      26.907
2015    6       30    12  18    3.8844   365.6    6.453      26.983
2015    6       30    12  24    3.8878   365.4    6.483      27.060
2015    6       30    12  29    3.8913   365.3    6.513      27.137
2015    6       30    12  35    3.8948   365.2    6.543      27.215
2015    6       30    12  41    3.8983   365.1    6.574      27.293
2015    6       30    12  47    3.9018   365.0    6.604      27.370
2015    6       30    12  53    3.9054   364.9    6.634      27.448
2015    6       30    12  59    3.9089   364.8    6.664      27.527
2015    6       30    13   5    3.9125   364.7    6.695      27.605
2015    6       30    13  11    3.9160   364.6    6.725      27.684
2015    6       30    13  17    3.9196   364.6    6.756      27.763
2015    6       30    13  23    3.9232   364.5    6.786      27.842
2015    6       30    13  28    3.9268   364.4    6.817      27.921
2015    6       30    13  34    3.9304   364.3    6.847      28.000
2015    6       30    13  40    3.9341   364.2    6.878      28.080
2015    6       30    13  46    3.9377   364.1    6.909      28.160
2015    6       30    13  52    3.9414   364.0    6.940      28.240
2015    6       30    13  58    3.9451   363.9    6.971      28.320
2015    6       30    14   4    3.9488   363.8    7.002      28.400
2015    6       30    14  10    3.9525   363.7    7.034      28.480
2015    6       30    14  16    3.9563   363.7    7.065      28.561
2015    6       30    14  21    3.9600   363.6    7.096      28.641
2015    6       30    14  27    3.9638   363.5    7.128      28.722
2015    6       30    14  33    3.9676   363.4    7.160      28.802
2015    6       30    14  39    3.9714   363.3    7.192      28.883
2015    6       30    14  45    3.9752   363.2    7.224      28.964
2015    6       30    14  51    3.9791   363.2    7.256      29.045
2015    6       30    14  57    3.9830   363.1    7.288      29.125
2015    6       30    15   3    3.9869   363.0    7.320      29.206
2015    6       30    15   9    3.9908   362.9    7.353      29.287
2015    6       30    15  15    3.9948   362.9    7.385      29.368
2015    6       30    15  20    3.9988   362.8    7.418      29.448
2015    6       30    15  26    4.0028   362.7    7.451      29.529
2015    6       30    15  32    4.0068   362.6    7.484      29.609
2015    6       30    15  38    4.0109   362.6    7.517      29.689
2015    6       30    15  44    4.0150   362.5    7.550      29.769
2015    6       30    15  50    4.0191   362.4    7.584      29.848
2015    6       30    15  56    4.0233   362.4    7.617      29.928
2015    6       30    16   2    4.0275   362.3    7.650      30.008
2015    6       30    16   8    4.0317   362.3    7.684      30.087
2015    6       30    16  14    4.0360   362.2    7.717      30.167
2015    6       30    16  19    4.0403   362.1    7.750      30.247
2015    6       30    16  25    4.0446   362.1    7.784      30.326
2015    6       30    16  31    4.0489   362.0    7.817      30.405
2015    6       30    16  37    4.0533   361.9    7.850      30.485
2015    6       30    16  43    4.0578   361.9    7.883      30.564
2015    6       30    16  49    4.0622   361.8    7.916      30.644
2015    6       30    16  55    4.0667   361.8    7.949      30.724
2015    6       30    17   1    4.0713   361.7    7.982      30.803
2015    6       30    17   7    4.0758   361.6    8.014      30.883
2015    6       30    17  12    4.0804   361.6    8.046      30.963
2015    6       30    17  18    4.0851   361.5    8.078      31.043
2015    6       30    17  24    4.0897   361.5    8.110      31.122
2015    6       30    17  30    4.0945   361.4    8.142      31.202
2015    6       30    17  36    4.0992   361.4    8.174      31.281
2015    6       30    17  42    4.1040   361.3    8.205      31.360
2015    6       30    17  48    4.1088   361.2    8.236      31.439
2015    6       30    17  54    4.1137   361.2    8.267      31.517
2015    6       30    18   0    4.1186   361.1    8.298      31.595
2015    6       30    18   6    4.1235   361.1    8.328      31.672
2015    6       30    18  11    4.1285   361.0    8.358      31.749
2015    6       30    18  17    4.1335   361.0    8.388      31.825
2015    6       30    18  23    4.1386   360.9    8.418      31.901
2015    6       30    18  29    4.1437   360.8    8.448      31.976
2015    6       30    18  35    4.1489   360.8    8.477      32.050
2015    6       30    18  41    4.1540   360.7    8.506      32.124
2015    6       30    18  47    4.1593   360.7    8.535      32.197
2015    6       30    18  53    4.1646   360.6    8.564      32.269
2015    6       30    18  59    4.1699   360.6    8.592      32.340
2015    6       30    19   4    4.1753   360.5    8.620      32.411
2015    6       30    19  10    4.1807   360.4    8.648      32.481
2015    6       30    19  16    4.1862   360.4    8.676      32.550
2015    6       30    19  22    4.1917   360.3    8.704      32.619
2015    6       30    19  28    4.1973   360.3    8.732      32.687
2015    6       30    19  34    4.2029   360.2    8.759      32.755
2015    6       30    19  40    4.2086   360.2    8.786      32.822
2015    6       30    19  46    4.2143   360.1    8.813      32.888
2015    6       30    19  52    4.2201   360.0    8.840      32.953
2015    6       30    19  58    4.2260   360.0    8.867      33.019
2015    6       30    20   3    4.2319   359.9    8.893      33.083
2015    6       30    20   9    4.2378   359.9    8.919      33.147
2015    6       30    20  15    4.2439   359.8    8.946      33.210
2015    6       30    20  21    4.2500   359.7    8.972      33.273
2015    6       30    20  27    4.2561   359.7    8.998      33.336
2015    6       30    20  33    4.2623   359.6    9.024      33.397
2015    6       30    20  39    4.2686   359.6    9.050      33.459
2015    6       30    20  45    4.2749   359.5    9.075      33.519
2015    6       30    20  51    4.2813   359.4    9.101      33.580
2015    6       30    20  56    4.2878   359.4    9.127      33.639
2015    6       30    21   2    4.2943   359.3    9.152      33.699
2015    6       30    21   8    4.3010   359.3    9.178      33.758
2015    6       30    21  14    4.3076   359.2    9.203      33.816
2015    6       30    21  20    4.3144   359.1    9.228      33.874
2015    6       30    21  26    4.3212   359.1    9.253      33.932
2015    6       30    21  32    4.3281   359.0    9.278      33.989
2015    6       30    21  38    4.3351   359.0    9.303      34.046
2015    6       30    21  44    4.3421   358.9    9.328      34.103
2015    6       30    21  50    4.3492   358.8    9.352      34.159
2015    6       30    21  55    4.3564   358.8    9.377      34.215
2015    6       30    22   1    4.3637   358.7    9.401      34.271
2015    6       30    22   7    4.3710   358.7    9.425      34.326
2015    6       30    22  13    4.3784   358.6    9.450      34.381
2015    6       30    22  19    4.3859   358.6    9.474      34.436
2015    6       30    22  25    4.3934   358.5    9.498      34.490
2015    6       30    22  31    4.4010   358.4    9.521      34.544
2015    6       30    22  37    4.4087   358.4    9.545      34.598
2015    6       30    22  43    4.4165   358.3    9.569      34.652
2015    6       30    22  48    4.4243   358.3    9.592      34.705
2015    6       30    22  54    4.4322   358.2    9.616      34.758
2015    6       30    23   0    4.4401   358.1    9.639      34.811
2015    6       30    23   6    4.4482   358.1    9.662      34.863
2015    6       30    23  12    4.4563   358.0    9.686      34.916
2015    6       30    23  18    4.4645   357.9    9.709      34.968
2015    6       30    23  24    4.4727   357.9    9.732      35.019
2015    6       30    23  30    4.4810   357.8    9.755      35.071
2015    6       30    23  36    4.4894   357.7    9.778      35.122
2015    6       30    23  42    4.4979   357.7    9.802      35.173
2015    6       30    23  47    4.5065   357.6    9.825      35.224
2015    6       30    23  53    4.5151   357.5    9.848      35.275
2015    6       30    23  59    4.5238   357.5    9.872      35.325
2015    7        1     0   5    4.5326   357.4    9.895      35.376
2015    7        1     0  11    4.5415   357.3    9.919      35.427
2015    7        1     0  17    4.5504   357.3    9.942      35.477
2015    7        1     0  23    4.5595   357.2    9.966      35.528
2015    7        1     0  29    4.5686   357.1    9.990      35.578
2015    7        1     0  35    4.5779   357.0   10.014      35.629
2015    7        1     0  41    4.5872   357.0   10.039      35.680
2015    7        1     0  46    4.5966   356.9   10.063      35.731
2015    7        1     0  52    4.6062   356.8   10.088      35.782
2015    7        1     0  58    4.6158   356.8   10.113      35.833
2015    7        1     1   4    4.6255   356.7   10.138      35.885
2015    7        1     1  10    4.6354   356.6   10.163      35.937
2015    7        1     1  16    4.6453   356.5   10.189      35.989
2015    7        1     1  22    4.6554   356.5   10.215      36.041
2015    7        1     1  28    4.6656   356.4   10.242      36.094
2015    7        1     1  34    4.6759   356.3   10.269      36.147
2015    7        1     1  39    4.6864   356.3   10.296      36.200
2015    7        1     1  45    4.6969   356.2   10.323      36.254
2015    7        1     1  51    4.7076   356.1   10.351      36.309
2015    7        1     1  57    4.7184   356.1   10.378      36.365
2015    7        1     2   3    4.7293   356.0   10.406      36.422
2015    7        1     2   9    4.7403   355.9   10.434      36.480
2015    7        1     2  15    4.7514   355.9   10.462      36.538
2015    7        1     2  21    4.7626   355.8   10.490      36.597
2015    7        1     2  27    4.7739   355.7   10.519      36.657
2015    7        1     2  33    4.7853   355.7   10.547      36.717
2015    7        1     2  38    4.7967   355.6   10.575      36.776
2015    7        1     2  44    4.8083   355.6   10.603      36.837
2015    7        1     2  50    4.8198   355.5   10.631      36.897
2015    7        1     2  56    4.8315   355.4   10.659      36.957
2015    7        1     3   2    4.8432   355.4   10.687      37.017
2015    7        1     3   8    4.8550   355.3   10.714      37.077
2015    7        1     3  14    4.8668   355.3   10.742      37.137
2015    7        1     3  20    4.8787   355.2   10.769      37.197
2015    7        1     3  26    4.8906   355.2   10.796      37.258
2015    7        1     3  31    4.9025   355.1   10.822      37.318
2015    7        1     3  37    4.9145   355.1   10.849      37.377
2015    7        1     3  43    4.9265   355.0   10.875      37.436
2015    7        1     3  49    4.9386   355.0   10.901      37.494
2015    7        1     3  55    4.9507   354.9   10.927      37.551
2015    7        1     4   1    4.9628   354.9   10.953      37.607
2015    7        1     4   7    4.9750   354.9   10.978      37.663
2015    7        1     4  13    4.9872   354.8   11.004      37.719
2015    7        1     4  19    4.9995   354.8   11.029      37.773
2015    7        1     4  25    5.0118   354.7   11.055      37.828
2015    7        1     4  30    5.0242   354.7   11.080      37.882
2015    7        1     4  36    5.0366   354.6   11.105      37.935
2015    7        1     4  42    5.0491   354.6   11.130      37.988
2015    7        1     4  48    5.0616   354.5   11.155      38.041
2015    7        1     4  54    5.0741   354.5   11.181      38.094
2015    7        1     5   0    5.0868   354.5   11.206      38.147
2015    7        1     5   6    5.0994   354.4   11.231      38.199
2015    7        1     5  12    5.1122   354.4   11.257      38.251
2015    7        1     5  18    5.1251   354.3   11.283      38.302
2015    7        1     5  23    5.1380   354.3   11.308      38.354
2015    7        1     5  29    5.1510   354.3   11.334      38.407
2015    7        1     5  35    5.1640   354.2   11.360      38.460
2015    7        1     5  41    5.1771   354.2   11.386      38.514
2015    7        1     5  47    5.1902   354.2   11.412      38.568
2015    7        1     5  53    5.2033   354.2   11.439      38.623
2015    7        1     5  59    5.2165   354.1   11.465      38.679
2015    7        1     6   5    5.2296   354.1   11.491      38.735
2015    7        1     6  11    5.2428   354.1   11.517      38.792
2015    7        1     6  17    5.2560   354.1   11.542      38.849
2015    7        1     6  22    5.2691   354.1   11.568      38.907
2015    7        1     6  28    5.2823   354.1   11.593      38.964
2015    7        1     6  34    5.2954   354.1   11.619      39.022
2015    7        1     6  40    5.3085   354.1   11.644      39.079
2015    7        1     6  46    5.3215   354.1   11.668      39.137
2015    7        1     6  52    5.3345   354.1   11.693      39.195
2015    7        1     6  58    5.3474   354.1   11.717      39.253
2015    7        1     7   4    5.3603   354.1   11.740      39.311
2015    7        1     7  10    5.3730   354.1   11.763      39.369
2015    7        1     7  16    5.3857   354.1   11.786      39.426
2015    7        1     7  21    5.3984   354.1   11.808      39.482
2015    7        1     7  27    5.4109   354.1   11.830      39.538
2015    7        1     7  33    5.4234   354.1   11.851      39.592
2015    7        1     7  39    5.4358   354.1   11.872      39.646
2015    7        1     7  45    5.4482   354.1   11.893      39.699
2015    7        1     7  51    5.4604   354.1   11.913      39.752
2015    7        1     7  57    5.4726   354.2   11.933      39.804
2015    7        1     8   3    5.4848   354.2   11.953      39.855
2015    7        1     8   9    5.4969   354.2   11.972      39.905
2015    7        1     8  14    5.5089   354.2   11.991      39.955
2015    7        1     8  20    5.5208   354.2   12.009      40.004
2015    7        1     8  26    5.5327   354.3   12.027      40.052
2015    7        1     8  32    5.5445   354.3   12.045      40.099
2015    7        1     8  38    5.5562   354.3   12.063      40.146
2015    7        1     8  44    5.5679   354.3   12.080      40.193
2015    7        1     8  50    5.5795   354.3   12.096      40.238
2015    7        1     8  56    5.5910   354.4   12.113      40.283
2015    7        1     9   2    5.6025   354.4   12.129      40.328
2015    7        1     9   8    5.6139   354.4   12.144      40.372
2015    7        1     9  13    5.6252   354.5   12.160      40.415
2015    7        1     9  19    5.6364   354.5   12.175      40.458
2015    7        1     9  25    5.6475   354.5   12.189      40.500
2015    7        1     9  31    5.6586   354.6   12.204      40.542
2015    7        1     9  37    5.6696   354.6   12.217      40.583
2015    7        1     9  43    5.6805   354.6   12.231      40.623
2015    7        1     9  49    5.6913   354.7   12.244      40.663
2015    7        1     9  55    5.7021   354.7   12.257      40.702
2015    7        1    10   1    5.7127   354.8   12.270      40.741
2015    7        1    10   6    5.7233   354.8   12.282      40.779
2015    7        1    10  12    5.7338   354.8   12.294      40.816
2015    7        1    10  18    5.7442   354.9   12.305      40.853
2015    7        1    10  24    5.7545   354.9   12.317      40.890
2015    7        1    10  30    5.7647   355.0   12.328      40.925
2015    7        1    10  36    5.7749   355.0   12.338      40.961
2015    7        1    10  42    5.7850   355.1   12.349      40.995
2015    7        1    10  48    5.7950   355.1   12.359      41.029
2015    7        1    10  54    5.8050   355.2   12.369      41.063
2015    7        1    10  59    5.8149   355.2   12.379      41.095
2015    7        1    11   5    5.8247   355.3   12.388      41.127
2015    7        1    11  11    5.8345   355.3   12.397      41.159
2015    7        1    11  17    5.8442   355.4   12.406      41.191
2015    7        1    11  23    5.8538   355.4   12.415      41.221
2015    7        1    11  29    5.8634   355.5   12.424      41.251
2015    7        1    11  35    5.8730   355.6   12.432      41.281
2015    7        1    11  41    5.8825   355.6   12.440      41.311
2015    7        1    11  47    5.8919   355.7   12.448      41.340
2015    7        1    11  53    5.9014   355.7   12.456      41.368
2015    7        1    11  58    5.9108   355.8   12.464      41.397
2015    7        1    12   4    5.9201   355.9   12.472      41.425
2015    7        1    12  10    5.9294   355.9   12.480      41.453
2015    7        1    12  16    5.9387   356.0   12.487      41.480
2015    7        1    12  22    5.9479   356.0   12.495      41.507
2015    7        1    12  28    5.9571   356.1   12.503      41.534
2015    7        1    12  34    5.9663   356.2   12.511      41.562
2015    7        1    12  40    5.9754   356.2   12.518      41.590
2015    7        1    12  46    5.9845   356.3   12.526      41.618
2015    7        1    12  52    5.9935   356.4   12.534      41.646
2015    7        1    12  57    6.0025   356.4   12.541      41.675
2015    7        1    13   3    6.0115   356.5   12.549      41.704
2015    7        1    13   9    6.0204   356.6   12.557      41.733
2015    7        1    13  15    6.0293   356.7   12.564      41.763
2015    7        1    13  21    6.0381   356.8   12.572      41.793
2015    7        1    13  27    6.0469   356.9   12.579      41.823
2015    7        1    13  33    6.0556   356.9   12.587      41.853
2015    7        1    13  39    6.0642   357.0   12.594      41.883
2015    7        1    13  45    6.0728   357.1   12.601      41.914
2015    7        1    13  50    6.0812   357.2   12.608      41.944
2015    7        1    13  56    6.0896   357.3   12.615      41.974
2015    7        1    14   2    6.0980   357.4   12.621      42.004
2015    7        1    14   8    6.1062   357.5   12.627      42.034
2015    7        1    14  14    6.1144   357.6   12.633      42.064
2015    7        1    14  20    6.1225   357.7   12.639      42.093
2015    7        1    14  26    6.1305   357.8   12.644      42.121
2015    7        1    14  32    6.1385   358.0   12.650      42.150
2015    7        1    14  38    6.1463   358.1   12.655      42.177
2015    7        1    14  44    6.1541   358.2   12.659      42.204
2015    7        1    14  49    6.1618   358.3   12.664      42.230
2015    7        1    14  55    6.1694   358.4   12.668      42.257
2015    7        1    15   1    6.1769   358.5   12.672      42.282
2015    7        1    15   7    6.1843   358.6   12.676      42.307
2015    7        1    15  13    6.1917   358.7   12.680      42.333
2015    7        1    15  19    6.1989   358.8   12.683      42.357
2015    7        1    15  25    6.2061   359.0   12.687      42.381
2015    7        1    15  31    6.2133   359.1   12.690      42.405
2015    7        1    15  37    6.2203   359.2   12.692      42.429
2015    7        1    15  42    6.2272   359.3   12.695      42.452
2015    7        1    15  48    6.2341   359.4   12.697      42.475
2015    7        1    15  54    6.2409   359.5   12.699      42.498
2015    7        1    16   0    6.2477   359.7   12.701      42.520
2015    7        1    16   6    6.2543   359.8   12.703      42.542
2015    7        1    16  12    6.2609   359.9   12.704      42.563
2015    7        1    16  18    6.2673   360.0   12.705      42.584
2015    7        1    16  24    6.2737   360.2   12.706      42.605
2015    7        1    16  30    6.2801   360.3   12.707      42.625
2015    7        1    16  36    6.2863   360.4   12.707      42.645
2015    7        1    16  41    6.2925   360.5   12.707      42.665
2015    7        1    16  47    6.2986   360.6   12.707      42.684
2015    7        1    16  53    6.3045   360.8   12.707      42.703
2015    7        1    16  59    6.3105   360.9   12.706      42.722
2015    7        1    17   5    6.3163   361.0   12.706      42.740
2015    7        1    17  11    6.3221   361.1   12.705      42.758
2015    7        1    17  17    6.3278   361.3   12.704      42.776
2015    7        1    17  23    6.3334   361.4   12.702      42.793
2015    7        1    17  29    6.3389   361.5   12.701      42.811
2015    7        1    17  34    6.3444   361.6   12.699      42.828
2015    7        1    17  40    6.3498   361.8   12.697      42.845
2015    7        1    17  46    6.3551   361.9   12.695      42.861
2015    7        1    17  52    6.3603   362.0   12.692      42.877
2015    7        1    17  58    6.3655   362.2   12.690      42.894
2015    7        1    18   4    6.3705   362.3   12.687      42.909
2015    7        1    18  10    6.3756   362.4   12.684      42.925
2015    7        1    18  16    6.3805   362.6   12.680      42.940
2015    7        1    18  22    6.3853   362.7   12.677      42.955
2015    7        1    18  28    6.3901   362.8   12.673      42.969
2015    7        1    18  33    6.3949   362.9   12.669      42.983
2015    7        1    18  39    6.3995   363.1   12.665      42.997
2015    7        1    18  45    6.4041   363.2   12.660      43.010
2015    7        1    18  51    6.4086   363.4   12.656      43.023
2015    7        1    18  57    6.4131   363.5   12.651      43.036
2015    7        1    19   3    6.4175   363.6   12.646      43.048
2015    7        1    19   9    6.4219   363.8   12.641      43.060
2015    7        1    19  15    6.4262   363.9   12.635      43.071
2015    7        1    19  21    6.4304   364.0   12.630      43.082
2015    7        1    19  26    6.4346   364.2   12.624      43.093
2015    7        1    19  32    6.4388   364.3   12.618      43.104
2015    7        1    19  38    6.4429   364.4   12.612      43.114
2015    7        1    19  44    6.4470   364.6   12.606      43.124
2015    7        1    19  50    6.4511   364.7   12.600      43.134
2015    7        1    19  56    6.4551   364.8   12.594      43.144
2015    7        1    20   2    6.4591   365.0   12.588      43.153
2015    7        1    20   8    6.4631   365.1   12.581      43.163
2015    7        1    20  14    6.4671   365.2   12.575      43.172
2015    7        1    20  20    6.4710   365.4   12.569      43.181
2015    7        1    20  25    6.4750   365.5   12.562      43.190
2015    7        1    20  31    6.4789   365.7   12.555      43.199
2015    7        1    20  37    6.4828   365.8   12.549      43.208
2015    7        1    20  43    6.4868   365.9   12.542      43.217
2015    7        1    20  49    6.4907   366.1   12.535      43.226
2015    7        1    20  55    6.4946   366.2   12.529      43.234
2015    7        1    21   1    6.4985   366.4   12.522      43.243
2015    7        1    21   7    6.5024   366.5   12.515      43.252
2015    7        1    21  13    6.5064   366.6   12.509      43.261
2015    7        1    21  19    6.5103   366.8   12.502      43.270
2015    7        1    21  24    6.5143   366.9   12.495      43.279
2015    7        1    21  30    6.5182   367.1   12.489      43.289
2015    7        1    21  36    6.5222   367.2   12.482      43.298
2015    7        1    21  42    6.5262   367.4   12.475      43.308
2015    7        1    21  48    6.5302   367.5   12.469      43.318
2015    7        1    21  54    6.5343   367.7   12.463      43.328
2015    7        1    22   0    6.5383   367.8   12.456      43.339
2015    7        1    22   6    6.5424   368.0   12.450      43.350
2015    7        1    22  12    6.5465   368.1   12.444      43.361
2015    7        1    22  17    6.5507   368.3   12.438      43.373
2015    7        1    22  23    6.5549   368.4   12.432      43.385
2015    7        1    22  29    6.5591   368.6   12.426      43.397
2015    7        1    22  35    6.5634   368.7   12.420      43.410
2015    7        1    22  41    6.5677   368.9   12.414      43.423
2015    7        1    22  47    6.5721   369.0   12.409      43.437
2015    7        1    22  53    6.5765   369.2   12.404      43.452
2015    7        1    22  59    6.5809   369.4   12.399      43.467
2015    7        1    23   5    6.5854   369.5   12.394      43.482
2015    7        1    23  11    6.5900   369.7   12.389      43.498
2015    7        1    23  16    6.5946   369.8   12.384      43.515
2015    7        1    23  22    6.5992   370.0   12.380      43.532
2015    7        1    23  28    6.6039   370.2   12.376      43.550
2015    7        1    23  34    6.6087   370.3   12.372      43.568
2015    7        1    23  40    6.6135   370.5   12.368      43.587
2015    7        1    23  46    6.6183   370.7   12.364      43.606
2015    7        1    23  52    6.6233   370.8   12.361      43.627
2015    7        1    23  58    6.6282   371.0   12.358      43.648
2015    7        2     0   4    6.6333   371.2   12.355      43.669
2015    7        2     0   9    6.6384   371.4   12.353      43.692
2015    7        2     0  15    6.6436   371.5   12.351      43.715
2015    7        2     0  21    6.6489   371.7   12.349      43.739
2015    7        2     0  27    6.6542   371.9   12.348      43.764
2015    7        2     0  33    6.6597   372.1   12.347      43.790
2015    7        2     0  39    6.6652   372.3   12.346      43.817
2015    7        2     0  45    6.6707   372.5   12.346      43.846
2015    7        2     0  51    6.6764   372.6   12.346      43.877
2015    7        2     0  57    6.6820   372.8   12.346      43.911
2015    7        2     1   3    6.6877   373.0   12.346      43.946
2015    7        2     1   8    6.6934   373.2   12.346      43.983
2015    7        2     1  14    6.6992   373.4   12.347      44.021
2015    7        2     1  20    6.7049   373.6   12.347      44.060
2015    7        2     1  26    6.7106   373.8   12.348      44.102
2015    7        2     1  32    6.7162   374.0   12.348      44.144
2015    7        2     1  38    6.7219   374.2   12.348      44.187
2015    7        2     1  44    6.7274   374.4   12.348      44.231
2015    7        2     1  50    6.7329   374.7   12.347      44.276
2015    7        2     1  56    6.7383   374.9   12.347      44.321
2015    7        2     2   1    6.7437   375.1   12.346      44.367
2015    7        2     2   7    6.7490   375.3   12.345      44.413
2015    7        2     2  13    6.7542   375.5   12.344      44.458
2015    7        2     2  19    6.7594   375.7   12.342      44.504
2015    7        2     2  25    6.7645   375.9   12.340      44.549
2015    7        2     2  31    6.7694   376.1   12.338      44.594
2015    7        2     2  37    6.7744   376.3   12.335      44.639
2015    7        2     2  43    6.7793   376.5   12.332      44.684
2015    7        2     2  49    6.7841   376.7   12.329      44.728
2015    7        2     2  55    6.7888   376.9   12.326      44.772
2015    7        2     3   0    6.7935   377.1   12.323      44.816
2015    7        2     3   6    6.7981   377.3   12.319      44.860
2015    7        2     3  12    6.8027   377.5   12.315      44.904
2015    7        2     3  18    6.8073   377.7   12.310      44.948
2015    7        2     3  24    6.8118   377.9   12.306      44.992
2015    7        2     3  30    6.8163   378.1   12.301      45.035
2015    7        2     3  36    6.8207   378.3   12.296      45.079
2015    7        2     3  42    6.8251   378.5   12.291      45.123
2015    7        2     3  48    6.8295   378.7   12.286      45.166
2015    7        2     3  53    6.8339   378.9   12.280      45.209
2015    7        2     3  59    6.8382   379.1   12.275      45.252
2015    7        2     4   5    6.8426   379.3   12.269      45.294
2015    7        2     4  11    6.8469   379.5   12.263      45.337
2015    7        2     4  17    6.8512   379.7   12.257      45.379
2015    7        2     4  23    6.8556   379.9   12.251      45.421
2015    7        2     4  29    6.8599   380.1   12.245      45.463
2015    7        2     4  35    6.8643   380.3   12.239      45.506
2015    7        2     4  41    6.8686   380.5   12.232      45.548
2015    7        2     4  47    6.8730   380.7   12.226      45.590
2015    7        2     4  52    6.8774   380.9   12.219      45.632
2015    7        2     4  58    6.8818   381.1   12.213      45.674
2015    7        2     5   4    6.8863   381.3   12.206      45.715
2015    7        2     5  10    6.8907   381.5   12.199      45.757
2015    7        2     5  16    6.8952   381.7   12.192      45.799
2015    7        2     5  22    6.8996   381.9   12.186      45.841
2015    7        2     5  28    6.9041   382.2   12.179      45.882
2015    7        2     5  34    6.9086   382.4   12.172      45.924
2015    7        2     5  40    6.9132   382.6   12.165      45.966
2015    7        2     5  46    6.9177   382.8   12.158      46.007
2015    7        2     5  51    6.9223   383.0   12.151      46.049
2015    7        2     5  57    6.9269   383.2   12.144      46.090
2015    7        2     6   3    6.9314   383.4   12.137      46.131
2015    7        2     6   9    6.9360   383.7   12.131      46.173
2015    7        2     6  15    6.9407   383.9   12.124      46.214
2015    7        2     6  21    6.9453   384.1   12.117      46.256
2015    7        2     6  27    6.9500   384.3   12.110      46.297
2015    7        2     6  33    6.9546   384.5   12.104      46.338
2015    7        2     6  39    6.9594   384.8   12.097      46.380
2015    7        2     6  44    6.9641   385.0   12.091      46.421
2015    7        2     6  50    6.9688   385.2   12.085      46.463
2015    7        2     6  56    6.9737   385.4   12.079      46.505
2015    7        2     7   2    6.9785   385.7   12.073      46.547
2015    7        2     7   8    6.9834   385.9   12.068      46.589
2015    7        2     7  14    6.9884   386.1   12.063      46.632
2015    7        2     7  20    6.9934   386.4   12.058      46.676
2015    7        2     7  26    6.9985   386.6   12.054      46.720
2015    7        2     7  32    7.0037   386.8   12.051      46.766
2015    7        2     7  37    7.0090   387.1   12.048      46.812
2015    7        2     7  43    7.0144   387.3   12.046      46.858
2015    7        2     7  49    7.0200   387.5   12.044      46.906
2015    7        2     7  55    7.0257   387.8   12.043      46.956
2015    7        2     8   1    7.0315   388.0   12.043      47.007
2015    7        2     8   7    7.0375   388.3   12.044      47.062
2015    7        2     8  13    7.0437   388.5   12.045      47.120
2015    7        2     8  19    7.0500   388.8   12.047      47.181
2015    7        2     8  25    7.0566   389.0   12.051      47.244
2015    7        2     8  31    7.0633   389.3   12.055      47.310
2015    7        2     8  36    7.0703   389.6   12.060      47.381
2015    7        2     8  42    7.0774   389.9   12.066      47.458
2015    7        2     8  48    7.0846   390.1   12.073      47.538
2015    7        2     8  54    7.0919   390.4   12.079      47.624
2015    7        2     9   0    7.0993   390.8   12.086      47.713
2015    7        2     9   6    7.1067   391.1   12.093      47.806
2015    7        2     9  12    7.1141   391.4   12.100      47.902
2015    7        2     9  18    7.1214   391.7   12.107      48.001
2015    7        2     9  24    7.1287   392.0   12.113      48.101
2015    7        2     9  29    7.1357   392.4   12.119      48.203
2015    7        2     9  35    7.1427   392.7   12.124      48.306
2015    7        2     9  41    7.1495   393.0   12.129      48.410
2015    7        2     9  47    7.1560   393.4   12.132      48.514
2015    7        2     9  53    7.1623   393.7   12.135      48.619
2015    7        2     9  59    7.1682   394.1   12.137      48.721
2015    7        2    10   5    7.1739   394.4   12.138      48.823
2015    7        2    10  11    7.1794   394.8   12.137      48.922
2015    7        2    10  17    7.1847   395.1   12.136      49.021
2015    7        2    10  23    7.1897   395.4   12.134      49.117
2015    7        2    10  28    7.1944   395.8   12.132      49.212
2015    7        2    10  34    7.1989   396.1   12.128      49.306
2015    7        2    10  40    7.2033   396.4   12.123      49.399
2015    7        2    10  46    7.2074   396.8   12.118      49.490
2015    7        2    10  52    7.2114   397.1   12.112      49.580
2015    7        2    10  58    7.2152   397.4   12.106      49.669
2015    7        2    11   4    7.2188   397.7   12.099      49.756
2015    7        2    11  10    7.2224   398.1   12.091      49.842
2015    7        2    11  16    7.2258   398.4   12.083      49.928
2015    7        2    11  22    7.2290   398.7   12.074      50.012
2015    7        2    11  27    7.2322   399.0   12.064      50.095
2015    7        2    11  33    7.2353   399.3   12.054      50.176
2015    7        2    11  39    7.2383   399.7   12.044      50.256
2015    7        2    11  45    7.2413   400.0   12.033      50.335
2015    7        2    11  51    7.2442   400.3   12.021      50.413
2015    7        2    11  57    7.2470   400.6   12.009      50.490
2015    7        2    12   3    7.2498   400.9   11.997      50.565
2015    7        2    12   9    7.2526   401.2   11.985      50.640
2015    7        2    12  15    7.2554   401.5   11.972      50.714
2015    7        2    12  20    7.2582   401.9   11.959      50.787
2015    7        2    12  26    7.2610   402.2   11.945      50.859
2015    7        2    12  32    7.2638   402.5   11.931      50.930
2015    7        2    12  38    7.2667   402.8   11.917      51.001
2015    7        2    12  44    7.2695   403.1   11.903      51.071
2015    7        2    12  50    7.2724   403.4   11.889      51.140
2015    7        2    12  56    7.2753   403.7   11.874      51.208
2015    7        2    13   2    7.2783   404.1   11.860      51.276
2015    7        2    13   8    7.2813   404.4   11.845      51.342
2015    7        2    13  14    7.2843   404.7   11.830      51.408
2015    7        2    13  19    7.2873   405.0   11.815      51.473
2015    7        2    13  25    7.2903   405.3   11.799      51.538
2015    7        2    13  31    7.2934   405.6   11.784      51.602
2015    7        2    13  37    7.2964   406.0   11.768      51.665
2015    7        2    13  43    7.2995   406.3   11.752      51.727
2015    7        2    13  49    7.3026   406.6   11.736      51.788
2015    7        2    13  55    7.3057   406.9   11.720      51.848
2015    7        2    14   1    7.3088   407.3   11.704      51.907
2015    7        2    14   7    7.3119   407.6   11.688      51.966
2015    7        2    14  12    7.3150   408.0   11.671      52.024
2015    7        2    14  18    7.3181   408.3   11.655      52.082
2015    7        2    14  24    7.3212   408.6   11.638      52.139
2015    7        2    14  30    7.3242   409.0   11.621      52.197
2015    7        2    14  36    7.3271   409.4   11.603      52.256
2015    7        2    14  42    7.3299   409.8   11.585      52.316
2015    7        2    14  48    7.3325   410.1   11.567      52.373
2015    7        2    14  54    7.3348   410.5   11.548      52.428
2015    7        2    15   0    7.3370   410.9   11.529      52.481
2015    7        2    15   6    7.3390   411.2   11.511      52.532
2015    7        2    15  11    7.3408   411.6   11.492      52.583
2015    7        2    15  17    7.3425   412.0   11.474      52.633
2015    7        2    15  23    7.3441   412.3   11.456      52.681
2015    7        2    15  29    7.3456   412.7   11.438      52.728
2015    7        2    15  35    7.3471   413.0   11.421      52.776
2015    7        2    15  41    7.3487   413.4   11.405      52.823
2015    7        2    15  47    7.3503   413.7   11.389      52.870
2015    7        2    15  53    7.3521   414.0   11.375      52.915
2015    7        2    15  59    7.3540   414.4   11.363      52.960
2015    7        2    16   4    7.3563   414.7   11.352      53.006
2015    7        2    16  10    7.3586   414.9   11.342      53.054
2015    7        2    16  16    7.3614   415.3   11.333      53.107
2015    7        2    16  22    7.3644   415.6   11.326      53.165
2015    7        2    16  28    7.3677   415.9   11.319      53.229
2015    7        2    16  34    7.3712   416.2   11.313      53.298
2015    7        2    16  40    7.3749   416.6   11.308      53.373
2015    7        2    16  46    7.3787   416.9   11.303      53.455
2015    7        2    16  52    7.3826   417.3   11.299      53.544
2015    7        2    16  58    7.3865   417.7   11.295      53.638
2015    7        2    17   3    7.3904   418.1   11.291      53.736
2015    7        2    17   9    7.3942   418.5   11.287      53.839
2015    7        2    17  15    7.3978   419.0   11.281      53.947
2015    7        2    17  21    7.4011   419.4   11.275      54.057
2015    7        2    17  27    7.4041   419.9   11.268      54.168
2015    7        2    17  33    7.4066   420.3   11.260      54.278
2015    7        2    17  39    7.4088   420.8   11.251      54.388
2015    7        2    17  45    7.4106   421.3   11.241      54.497
2015    7        2    17  51    7.4121   421.7   11.230      54.604
2015    7        2    17  56    7.4131   422.2   11.219      54.711
2015    7        2    18   2    7.4139   422.7   11.207      54.816
2015    7        2    18   8    7.4143   423.1   11.193      54.920
2015    7        2    18  14    7.4146   423.6   11.179      55.021
2015    7        2    18  20    7.4145   424.0   11.165      55.118
2015    7        2    18  26    7.4142   424.5   11.149      55.212
2015    7        2    18  32    7.4137   424.9   11.133      55.305
2015    7        2    18  38    7.4131   425.4   11.117      55.395
2015    7        2    18  44    7.4123   425.8   11.100      55.483
2015    7        2    18  50    7.4115   426.2   11.083      55.569
2015    7        2    18  55    7.4106   426.6   11.066      55.655
2015    7        2    19   1    7.4098   427.1   11.048      55.739
2015    7        2    19   7    7.4090   427.5   11.030      55.823
2015    7        2    19  13    7.4083   427.9   11.012      55.906
2015    7        2    19  19    7.4077   428.3   10.994      55.989
2015    7        2    19  25    7.4071   428.7   10.976      56.072
2015    7        2    19  31    7.4067   429.1   10.958      56.154
2015    7        2    19  37    7.4063   429.6   10.940      56.236
2015    7        2    19  43    7.4060   430.0   10.921      56.318
2015    7        2    19  49    7.4058   430.4   10.903      56.400
2015    7        2    19  54    7.4056   430.8   10.884      56.483
2015    7        2    20   0    7.4055   431.2   10.865      56.566
2015    7        2    20   6    7.4055   431.7   10.846      56.649
2015    7        2    20  12    7.4056   432.1   10.827      56.732
2015    7        2    20  18    7.4056   432.5   10.808      56.816
2015    7        2    20  24    7.4057   433.0   10.788      56.899
2015    7        2    20  30    7.4059   433.4   10.768      56.983
2015    7        2    20  36    7.4060   433.9   10.748      57.067
2015    7        2    20  42    7.4062   434.3   10.728      57.151
2015    7        2    20  47    7.4063   434.8   10.707      57.235
2015    7        2    20  53    7.4063   435.2   10.685      57.319
2015    7        2    20  59    7.4063   435.7   10.663      57.402
2015    7        2    21   5    7.4062   436.2   10.641      57.485
2015    7        2    21  11    7.4059   436.7   10.617      57.567
2015    7        2    21  17    7.4054   437.1   10.593      57.648
2015    7        2    21  23    7.4048   437.6   10.568      57.725
2015    7        2    21  29    7.4038   438.1   10.541      57.798
2015    7        2    21  35    7.4026   438.6   10.513      57.868
2015    7        2    21  41    7.4010   439.1   10.484      57.936
2015    7        2    21  46    7.3990   439.6   10.453      57.999
2015    7        2    21  52    7.3964   440.1   10.420      58.054
2015    7        2    21  58    7.3933   440.6   10.386      58.102
2015    7        2    22   4    7.3898   441.1   10.351      58.142
2015    7        2    22  10    7.3859   441.6   10.314      58.178
2015    7        2    22  16    7.3815   442.1   10.277      58.210
2015    7        2    22  22    7.3768   442.6   10.238      58.238
2015    7        2    22  28    7.3715   443.1   10.198      58.260
2015    7        2    22  34    7.3658   443.6   10.157      58.276
2015    7        2    22  39    7.3597   444.1   10.116      58.287
2015    7        2    22  45    7.3534   444.6   10.074      58.294
2015    7        2    22  51    7.3468   445.1   10.032      58.298
2015    7        2    22  57    7.3400   445.6    9.990      58.300
2015    7        2    23   3    7.3329   446.1    9.948      58.297
2015    7        2    23   9    7.3258   446.6    9.907      58.290
2015    7        2    23  15    7.3186   447.1    9.867      58.282
2015    7        2    23  21    7.3114   447.5    9.826      58.274
2015    7        2    23  27    7.3041   448.0    9.786      58.267
2015    7        2    23  33    7.2969   448.5    9.747      58.260
2015    7        2    23  38    7.2895   448.9    9.707      58.248
2015    7        2    23  44    7.2821   449.3    9.669      58.231
2015    7        2    23  50    7.2745   449.7    9.631      58.209
2015    7        2    23  56    7.2670   450.1    9.594      58.186
2015    7        3     0   2    7.2595   450.5    9.557      58.163
2015    7        3     0   8    7.2521   450.9    9.521      58.141
2015    7        3     0  14    7.2446   451.3    9.486      58.121
2015    7        3     0  20    7.2371   451.7    9.451      58.101
2015    7        3     0  26    7.2296   452.1    9.417      58.085
2015    7        3     0  31    7.2221   452.5    9.384      58.073
2015    7        3     0  37    7.2146   452.9    9.351      58.066
2015    7        3     0  43    7.2072   453.3    9.319      58.062
2015    7        3     0  49    7.1996   453.7    9.288      58.063
2015    7        3     0  55    7.1921   454.2    9.257      58.068
2015    7        3     1   1    7.1843   454.6    9.226      58.074
2015    7        3     1   7    7.1767   455.0    9.196      58.082
2015    7        3     1  13    7.1688   455.5    9.167      58.094
2015    7        3     1  19    7.1611   455.9    9.138      58.108
2015    7        3     1  25    7.1531   456.4    9.109      58.125
2015    7        3     1  30    7.1452   456.8    9.081      58.144
2015    7        3     1  36    7.1373   457.3    9.053      58.164
2015    7        3     1  42    7.1294   457.7    9.025      58.185
2015    7        3     1  48    7.1214   458.2    8.998      58.207
2015    7        3     1  54    7.1135   458.6    8.972      58.228
2015    7        3     2   0    7.1056   459.0    8.946      58.248
2015    7        3     2   6    7.0978   459.4    8.920      58.266
2015    7        3     2  12    7.0900   459.8    8.894      58.283
2015    7        3     2  18    7.0823   460.2    8.869      58.300
2015    7        3     2  23    7.0747   460.6    8.844      58.315
2015    7        3     2  29    7.0672   461.0    8.820      58.329
2015    7        3     2  35    7.0598   461.4    8.797      58.344
2015    7        3     2  41    7.0526   461.8    8.774      58.360
2015    7        3     2  47    7.0456   462.2    8.751      58.377
2015    7        3     2  53    7.0387   462.5    8.729      58.394
2015    7        3     2  59    7.0320   462.9    8.707      58.411
2015    7        3     3   5    7.0255   463.3    8.686      58.428
2015    7        3     3  11    7.0190   463.7    8.664      58.445
2015    7        3     3  17    7.0126   464.0    8.643      58.462
2015    7        3     3  22    7.0063   464.4    8.623      58.479
2015    7        3     3  28    7.0000   464.8    8.602      58.496
2015    7        3     3  34    6.9938   465.2    8.581      58.513
2015    7        3     3  40    6.9875   465.6    8.560      58.532
2015    7        3     3  46    6.9812   466.0    8.539      58.550
2015    7        3     3  52    6.9749   466.4    8.518      58.568
2015    7        3     3  58    6.9685   466.8    8.497      58.586
2015    7        3     4   4    6.9620   467.2    8.476      58.605
2015    7        3     4  10    6.9553   467.6    8.454      58.623
2015    7        3     4  16    6.9485   468.1    8.432      58.642
2015    7        3     4  21    6.9416   468.5    8.409      58.661
2015    7        3     4  27    6.9345   468.9    8.386      58.680
2015    7        3     4  33    6.9272   469.3    8.363      58.697
2015    7        3     4  39    6.9197   469.8    8.339      58.713
2015    7        3     4  45    6.9119   470.2    8.315      58.726
2015    7        3     4  51    6.9040   470.6    8.290      58.737
2015    7        3     4  57    6.8957   471.0    8.263      58.749
2015    7        3     5   3    6.8872   471.5    8.236      58.759
2015    7        3     5   9    6.8784   471.9    8.207      58.761
2015    7        3     5  14    6.8692   472.3    8.178      58.755
2015    7        3     5  20    6.8598   472.7    8.149      58.741
2015    7        3     5  26    6.8502   473.1    8.118      58.721
2015    7        3     5  32    6.8405   473.4    8.088      58.695
2015    7        3     5  38    6.8306   473.8    8.057      58.664
2015    7        3     5  44    6.8206   474.2    8.027      58.627
2015    7        3     5  50    6.8105   474.6    7.996      58.587
2015    7        3     5  56    6.8003   474.9    7.965      58.544
2015    7        3     6   2    6.7902   475.3    7.935      58.501
2015    7        3     6   7    6.7800   475.7    7.905      58.457
2015    7        3     6  13    6.7699   476.1    7.876      58.412
2015    7        3     6  19    6.7598   476.5    7.846      58.367
2015    7        3     6  25    6.7498   476.9    7.818      58.318
2015    7        3     6  31    6.7397   477.3    7.790      58.270
2015    7        3     6  37    6.7298   477.7    7.762      58.224
2015    7        3     6  43    6.7198   478.1    7.734      58.181
2015    7        3     6  49    6.7097   478.5    7.707      58.138
2015    7        3     6  55    6.6996   478.9    7.679      58.098
2015    7        3     7   1    6.6893   479.3    7.651      58.057
2015    7        3     7   6    6.6788   479.7    7.623      58.012
2015    7        3     7  12    6.6681   480.1    7.595      57.965
2015    7        3     7  18    6.6573   480.6    7.566      57.914
2015    7        3     7  24    6.6462   480.9    7.538      57.862
2015    7        3     7  30    6.6350   481.3    7.509      57.806
2015    7        3     7  36    6.6238   481.7    7.480      57.748
2015    7        3     7  42    6.6124   482.1    7.452      57.688
2015    7        3     7  48    6.6009   482.5    7.423      57.626
2015    7        3     7  54    6.5894   482.8    7.395      57.561
2015    7        3     8   0    6.5778   483.2    7.367      57.495
2015    7        3     8   5    6.5664   483.6    7.339      57.427
2015    7        3     8  11    6.5549   483.9    7.311      57.359
2015    7        3     8  17    6.5437   484.2    7.284      57.290
2015    7        3     8  23    6.5325   484.6    7.257      57.221
2015    7        3     8  29    6.5215   484.9    7.231      57.150
2015    7        3     8  35    6.5107   485.2    7.206      57.079
2015    7        3     8  41    6.5001   485.5    7.182      57.011
2015    7        3     8  47    6.4897   485.8    7.158      56.945
2015    7        3     8  53    6.4796   486.1    7.135      56.881
2015    7        3     8  58    6.4697   486.4    7.112      56.820
2015    7        3     9   4    6.4600   486.6    7.090      56.761
2015    7        3     9  10    6.4505   486.9    7.069      56.705
2015    7        3     9  16    6.4413   487.2    7.049      56.651
2015    7        3     9  22    6.4323   487.4    7.029      56.600
2015    7        3     9  28    6.4235   487.7    7.010      56.552
2015    7        3     9  34    6.4148   487.9    6.992      56.506
2015    7        3     9  40    6.4064   488.2    6.974      56.463
2015    7        3     9  46    6.3981   488.4    6.957      56.422
2015    7        3     9  52    6.3899   488.7    6.940      56.384
2015    7        3     9  57    6.3819   488.9    6.924      56.348
2015    7        3    10   3    6.3739   489.1    6.908      56.314
2015    7        3    10   9    6.3662   489.4    6.892      56.282
2015    7        3    10  15    6.3585   489.6    6.877      56.252
2015    7        3    10  21    6.3509   489.8    6.863      56.224
2015    7        3    10  27    6.3433   490.1    6.848      56.196
2015    7        3    10  33    6.3358   490.3    6.834      56.170
2015    7        3    10  39    6.3284   490.5    6.820      56.145
2015    7        3    10  45    6.3210   490.8    6.806      56.119
2015    7        3    10  50    6.3137   491.0    6.793      56.095
2015    7        3    10  56    6.3064   491.2    6.779      56.071
2015    7        3    11   2    6.2992   491.5    6.766      56.047
2015    7        3    11   8    6.2919   491.7    6.753      56.024
2015    7        3    11  14    6.2846   492.0    6.739      56.002
2015    7        3    11  20    6.2774   492.2    6.726      55.979
2015    7        3    11  26    6.2701   492.4    6.713      55.954
2015    7        3    11  32    6.2627   492.7    6.700      55.928
2015    7        3    11  38    6.2553   492.9    6.686      55.901
2015    7        3    11  44    6.2478   493.1    6.673      55.873
2015    7        3    11  49    6.2403   493.4    6.660      55.843
2015    7        3    11  55    6.2327   493.6    6.646      55.813
2015    7        3    12   1    6.2251   493.8    6.633      55.781
2015    7        3    12   7    6.2174   494.0    6.620      55.749
2015    7        3    12  13    6.2098   494.2    6.607      55.717
2015    7        3    12  19    6.2022   494.4    6.595      55.683
2015    7        3    12  25    6.1946   494.6    6.582      55.650
2015    7        3    12  31    6.1871   494.8    6.570      55.617
2015    7        3    12  37    6.1796   494.9    6.558      55.586
2015    7        3    12  42    6.1723   495.1    6.547      55.556
2015    7        3    12  48    6.1650   495.3    6.535      55.527
2015    7        3    12  54    6.1579   495.4    6.524      55.499
2015    7        3    13   0    6.1509   495.6    6.513      55.473
2015    7        3    13   6    6.1439   495.8    6.503      55.448
2015    7        3    13  12    6.1371   495.9    6.493      55.424
2015    7        3    13  18    6.1303   496.1    6.483      55.403
2015    7        3    13  24    6.1237   496.3    6.473      55.384
2015    7        3    13  30    6.1171   496.5    6.464      55.367
2015    7        3    13  36    6.1106   496.6    6.455      55.351
2015    7        3    13  41    6.1042   496.8    6.446      55.337
2015    7        3    13  47    6.0979   497.0    6.437      55.325
2015    7        3    13  53    6.0916   497.2    6.428      55.313
2015    7        3    13  59    6.0854   497.5    6.419      55.302
2015    7        3    14   5    6.0791   497.7    6.411      55.291
2015    7        3    14  11    6.0729   497.9    6.402      55.280
2015    7        3    14  17    6.0667   498.1    6.393      55.269
2015    7        3    14  23    6.0605   498.3    6.384      55.259
2015    7        3    14  29    6.0542   498.5    6.375      55.247
2015    7        3    14  34    6.0480   498.7    6.366      55.234
2015    7        3    14  40    6.0418   498.9    6.356      55.221
2015    7        3    14  46    6.0356   499.1    6.347      55.208
2015    7        3    14  52    6.0293   499.3    6.338      55.194
2015    7        3    14  58    6.0232   499.5    6.328      55.179
2015    7        3    15   4    6.0170   499.7    6.319      55.164
2015    7        3    15  10    6.0109   499.9    6.309      55.150
2015    7        3    15  16    6.0047   500.1    6.300      55.134
2015    7        3    15  22    5.9987   500.3    6.290      55.119
2015    7        3    15  28    5.9927   500.5    6.280      55.104
2015    7        3    15  33    5.9868   500.7    6.271      55.088
2015    7        3    15  39    5.9810   500.9    6.261      55.073
2015    7        3    15  45    5.9752   501.1    6.252      55.057
2015    7        3    15  51    5.9695   501.2    6.242      55.041
2015    7        3    15  57    5.9639   501.4    6.232      55.026
2015    7        3    16   3    5.9584   501.6    6.223      55.010
2015    7        3    16   9    5.9529   501.8    6.213      54.994
2015    7        3    16  15    5.9475   502.0    6.204      54.978
2015    7        3    16  21    5.9422   502.2    6.194      54.963
2015    7        3    16  27    5.9370   502.4    6.185      54.948
2015    7        3    16  32    5.9318   502.5    6.175      54.934
2015    7        3    16  38    5.9268   502.7    6.166      54.920
2015    7        3    16  44    5.9218   502.9    6.157      54.907
2015    7        3    16  50    5.9168   503.1    6.147      54.895
2015    7        3    16  56    5.9120   503.3    6.138      54.884
2015    7        3    17   2    5.9072   503.5    6.129      54.874
2015    7        3    17   8    5.9025   503.6    6.121      54.864
2015    7        3    17  14    5.8978   503.8    6.112      54.856
2015    7        3    17  20    5.8932   504.0    6.103      54.848
2015    7        3    17  25    5.8886   504.2    6.095      54.841
2015    7        3    17  31    5.8841   504.4    6.087      54.834
2015    7        3    17  37    5.8796   504.6    6.078      54.829
2015    7        3    17  43    5.8752   504.8    6.070      54.825
2015    7        3    17  49    5.8708   504.9    6.062      54.821
2015    7        3    17  55    5.8665   505.1    6.055      54.818
2015    7        3    18   1    5.8621   505.3    6.047      54.815
2015    7        3    18   7    5.8578   505.5    6.039      54.813
2015    7        3    18  13    5.8536   505.7    6.032      54.810
2015    7        3    18  19    5.8493   505.9    6.024      54.808
2015    7        3    18  24    5.8451   506.1    6.017      54.806
2015    7        3    18  30    5.8409   506.3    6.009      54.804
2015    7        3    18  36    5.8367   506.5    6.002      54.802
2015    7        3    18  42    5.8325   506.7    5.995      54.800
2015    7        3    18  48    5.8284   506.9    5.987      54.798
2015    7        3    18  54    5.8242   507.1    5.980      54.796
2015    7        3    19   0    5.8201   507.3    5.973      54.794
2015    7        3    19   6    5.8160   507.5    5.966      54.792
2015    7        3    19  12    5.8119   507.7    5.959      54.790
2015    7        3    19  17    5.8079   507.9    5.952      54.788
2015    7        3    19  23    5.8038   508.1    5.945      54.787
2015    7        3    19  29    5.7999   508.2    5.938      54.785
2015    7        3    19  35    5.7959   508.4    5.932      54.785
2015    7        3    19  41    5.7920   508.6    5.925      54.785
2015    7        3    19  47    5.7881   508.8    5.919      54.785
2015    7        3    19  53    5.7843   509.0    5.912      54.787
2015    7        3    19  59    5.7805   509.2    5.906      54.789
2015    7        3    20   5    5.7768   509.4    5.900      54.792
2015    7        3    20  11    5.7730   509.6    5.894      54.795
2015    7        3    20  16    5.7693   509.7    5.888      54.800
2015    7        3    20  22    5.7656   509.9    5.881      54.805
2015    7        3    20  28    5.7619   510.1    5.875      54.811
2015    7        3    20  34    5.7583   510.3    5.870      54.817
2015    7        3    20  40    5.7546   510.5    5.864      54.825
2015    7        3    20  46    5.7509   510.7    5.858      54.833
2015    7        3    20  52    5.7473   510.9    5.852      54.842
2015    7        3    20  58    5.7436   511.1    5.846      54.851
2015    7        3    21   4    5.7399   511.3    5.840      54.861
2015    7        3    21   9    5.7362   511.5    5.834      54.872
2015    7        3    21  15    5.7326   511.7    5.828      54.883
2015    7        3    21  21    5.7289   511.8    5.822      54.894
2015    7        3    21  27    5.7252   512.0    5.816      54.905
2015    7        3    21  33    5.7215   512.2    5.810      54.916
2015    7        3    21  39    5.7178   512.4    5.804      54.927
2015    7        3    21  45    5.7141   512.6    5.798      54.938
2015    7        3    21  51    5.7104   512.8    5.792      54.949
2015    7        3    21  57    5.7067   513.0    5.786      54.960
2015    7        3    22   3    5.7031   513.2    5.780      54.971
2015    7        3    22   8    5.6994   513.3    5.775      54.981
2015    7        3    22  14    5.6957   513.5    5.769      54.992
2015    7        3    22  20    5.6921   513.7    5.763      55.002
2015    7        3    22  26    5.6884   513.9    5.757      55.013
2015    7        3    22  32    5.6848   514.1    5.751      55.024
2015    7        3    22  38    5.6812   514.3    5.745      55.034
2015    7        3    22  44    5.6776   514.5    5.739      55.045
2015    7        3    22  50    5.6740   514.6    5.734      55.055
2015    7        3    22  56    5.6705   514.8    5.728      55.066
2015    7        3    23   1    5.6670   515.0    5.722      55.077
2015    7        3    23   7    5.6635   515.2    5.716      55.088
2015    7        3    23  13    5.6600   515.4    5.710      55.099
2015    7        3    23  19    5.6566   515.5    5.705      55.111
2015    7        3    23  25    5.6531   515.7    5.699      55.123
2015    7        3    23  31    5.6497   515.9    5.693      55.134
2015    7        3    23  37    5.6463   516.1    5.687      55.146
2015    7        3    23  43    5.6429   516.3    5.682      55.157
2015    7        3    23  49    5.6396   516.5    5.676      55.169
2015    7        3    23  55    5.6362   516.7    5.670      55.180
2015    7        4     0   1    5.6329   516.9    5.664      55.192
