year    month   day   hour  minute  B_enl V_enl   n_enl       T_enl
[year] [month] [day] [hour][minute] [nT]  [km/s]  [cm-3]      [kK]
2013    2        6     0   3    4.84   449.8    6.6      39.649
2013    2        6     0   9    4.84   449.8    6.6      39.655
2013    2        6     0  16    4.84   449.8    6.6      39.661
2013    2        6     0  22    4.84   449.8    6.6      39.668
2013    2        6     0  28    4.84   449.8    6.6      39.674
2013    2        6     0  35    4.84   449.9    6.6      39.681
2013    2        6     0  41    4.84   449.9    6.6      39.688
2013    2        6     0  48    4.84   449.9    6.6      39.694
2013    2        6     0  54    4.84   449.9    6.6      39.701
2013    2        6     1   1    4.84   449.9    6.6      39.708
2013    2        6     1   7    4.84   449.9    6.6      39.714
2013    2        6     1  14    4.84   449.9    6.6      39.721
2013    2        6     1  20    4.84   449.9    6.6      39.728
2013    2        6     1  26    4.85   450.0    6.6      39.735
2013    2        6     1  33    4.85   450.0    6.6      39.742
2013    2        6     1  39    4.85   450.0    6.6      39.750
2013    2        6     1  46    4.85   450.0    6.6      39.757
2013    2        6     1  52    4.85   450.0    6.6      39.764
2013    2        6     1  59    4.85   450.0    6.6      39.772
2013    2        6     2   5    4.85   450.0    6.6      39.779
2013    2        6     2  11    4.85   450.0    6.6      39.787
2013    2        6     2  18    4.85   450.1    6.6      39.794
2013    2        6     2  24    4.85   450.1    6.6      39.802
2013    2        6     2  31    4.85   450.1    6.6      39.810
2013    2        6     2  37    4.85   450.1    6.6      39.818
2013    2        6     2  43    4.85   450.1    6.6      39.825
2013    2        6     2  50    4.85   450.1    6.6      39.833
2013    2        6     2  56    4.85   450.1    6.6      39.841
2013    2        6     3   3    4.85   450.2    6.6      39.849
2013    2        6     3   9    4.86   450.2    6.6      39.857
2013    2        6     3  16    4.86   450.2    6.6      39.865
2013    2        6     3  22    4.86   450.2    6.6      39.873
2013    2        6     3  28    4.86   450.2    6.6      39.881
2013    2        6     3  34    4.86   450.2    6.6      39.890
2013    2        6     3  39    4.86   450.3    6.6      39.899
2013    2        6     3  44    4.86   450.3    6.6      39.909
2013    2        6     3  49    4.86   450.3    6.6      39.918
2013    2        6     3  54    4.86   450.3    6.6      39.927
2013    2        6     3  59    4.86   450.3    6.6      39.937
2013    2        6     4   4    4.86   450.3    6.6      39.947
2013    2        6     4   9    4.86   450.3    6.6      39.957
2013    2        6     4  14    4.86   450.4    6.6      39.967
2013    2        6     4  19    4.86   450.4    6.6      39.976
2013    2        6     4  24    4.86   450.4    6.6      39.986
2013    2        6     4  29    4.86   450.4    6.6      39.996
2013    2        6     4  34    4.86   450.4    6.6      40.006
2013    2        6     4  39    4.86   450.4    6.6      40.016
2013    2        6     4  44    4.86   450.4    6.6      40.026
2013    2        6     4  49    4.86   450.5    6.6      40.036
2013    2        6     4  54    4.86   450.5    6.6      40.046
2013    2        6     4  59    4.86   450.5    6.6      40.055
2013    2        6     5   4    4.86   450.5    6.6      40.065
2013    2        6     5   8    4.86   450.5    6.6      40.075
2013    2        6     5  13    4.86   450.5    6.6      40.084
2013    2        6     5  18    4.86   450.6    6.6      40.093
2013    2        6     5  23    4.86   450.6    6.6      40.103
2013    2        6     5  28    4.86   450.6    6.6      40.112
2013    2        6     5  33    4.86   450.6    6.6      40.121
2013    2        6     5  38    4.86   450.6    6.6      40.130
2013    2        6     5  43    4.86   450.6    6.6      40.138
2013    2        6     5  47    4.86   450.6    6.6      40.147
2013    2        6     5  52    4.86   450.7    6.6      40.156
2013    2        6     5  57    4.86   450.7    6.6      40.164
2013    2        6     6   2    4.86   450.7    6.6      40.173
2013    2        6     6   7    4.87   450.7    6.6      40.181
2013    2        6     6  12    4.87   450.7    6.6      40.189
2013    2        6     6  16    4.87   450.7    6.6      40.197
2013    2        6     6  21    4.87   450.7    6.6      40.205
2013    2        6     6  26    4.87   450.8    6.6      40.213
2013    2        6     6  31    4.87   450.8    6.6      40.221
2013    2        6     6  36    4.87   450.8    6.6      40.229
2013    2        6     6  41    4.87   450.8    6.6      40.236
2013    2        6     6  46    4.87   450.8    6.6      40.244
2013    2        6     6  51    4.87   450.8    6.6      40.251
2013    2        6     6  55    4.87   450.9    6.6      40.259
2013    2        6     7   0    4.87   450.9    6.6      40.266
2013    2        6     7   5    4.87   450.9    6.6      40.273
2013    2        6     7  10    4.87   450.9    6.6      40.281
2013    2        6     7  15    4.87   450.9    6.6      40.288
2013    2        6     7  20    4.87   450.9    6.6      40.295
2013    2        6     7  25    4.87   450.9    6.6      40.302
2013    2        6     7  30    4.87   451.0    6.6      40.309
2013    2        6     7  35    4.87   451.0    6.6      40.317
2013    2        6     7  40    4.87   451.0    6.6      40.324
2013    2        6     7  45    4.87   451.0    6.6      40.331
2013    2        6     7  50    4.87   451.0    6.6      40.338
2013    2        6     7  55    4.87   451.0    6.6      40.345
2013    2        6     8   0    4.87   451.1    6.6      40.352
2013    2        6     8   5    4.87   451.1    6.6      40.359
2013    2        6     8  10    4.87   451.1    6.6      40.367
2013    2        6     8  15    4.87   451.1    6.6      40.374
2013    2        6     8  20    4.87   451.1    6.6      40.381
2013    2        6     8  25    4.87   451.1    6.6      40.389
2013    2        6     8  30    4.87   451.2    6.6      40.396
2013    2        6     8  35    4.87   451.2    6.6      40.404
2013    2        6     8  40    4.87   451.2    6.6      40.411
2013    2        6     8  45    4.87   451.2    6.6      40.419
2013    2        6     8  50    4.87   451.2    6.6      40.426
2013    2        6     8  55    4.87   451.2    6.6      40.434
2013    2        6     9   0    4.87   451.3    6.6      40.442
2013    2        6     9   5    4.87   451.3    6.6      40.449
2013    2        6     9  11    4.87   451.3    6.6      40.457
2013    2        6     9  16    4.87   451.3    6.6      40.465
2013    2        6     9  21    4.87   451.3    6.6      40.473
2013    2        6     9  26    4.87   451.3    6.6      40.481
2013    2        6     9  31    4.87   451.4    6.6      40.490
2013    2        6     9  37    4.87   451.4    6.6      40.498
2013    2        6     9  42    4.87   451.4    6.6      40.507
2013    2        6     9  47    4.87   451.4    6.6      40.516
2013    2        6     9  52    4.87   451.5    6.6      40.525
2013    2        6     9  57    4.87   451.5    6.6      40.534
2013    2        6    10   3    4.87   451.5    6.6      40.543
2013    2        6    10   8    4.87   451.5    6.6      40.552
2013    2        6    10  13    4.87   451.5    6.6      40.562
2013    2        6    10  18    4.87   451.6    6.6      40.571
2013    2        6    10  24    4.87   451.6    6.6      40.580
2013    2        6    10  29    4.87   451.6    6.6      40.589
2013    2        6    10  34    4.87   451.6    6.6      40.599
2013    2        6    10  40    4.87   451.7    6.6      40.608
2013    2        6    10  45    4.87   451.7    6.6      40.616
2013    2        6    10  50    4.87   451.7    6.6      40.625
2013    2        6    10  56    4.87   451.7    6.6      40.634
2013    2        6    11   1    4.87   451.8    6.6      40.642
2013    2        6    11   6    4.87   451.8    6.6      40.650
2013    2        6    11  12    4.87   451.8    6.6      40.658
2013    2        6    11  17    4.87   451.9    6.6      40.666
2013    2        6    11  22    4.87   451.9    6.6      40.674
2013    2        6    11  28    4.87   451.9    6.6      40.681
2013    2        6    11  33    4.87   451.9    6.6      40.689
2013    2        6    11  38    4.87   452.0    6.6      40.696
2013    2        6    11  44    4.87   452.0    6.6      40.703
2013    2        6    11  49    4.87   452.0    6.6      40.710
2013    2        6    11  55    4.87   452.0    6.6      40.717
2013    2        6    12   0    4.87   452.1    6.6      40.724
2013    2        6    12   5    4.87   452.1    6.6      40.730
2013    2        6    12  11    4.87   452.1    6.6      40.737
2013    2        6    12  16    4.87   452.1    6.6      40.743
2013    2        6    12  22    4.87   452.2    6.6      40.749
2013    2        6    12  27    4.86   452.2    6.6      40.755
2013    2        6    12  33    4.86   452.2    6.6      40.760
2013    2        6    12  38    4.86   452.3    6.6      40.765
2013    2        6    12  44    4.86   452.3    6.6      40.770
2013    2        6    12  49    4.86   452.3    6.6      40.775
2013    2        6    12  55    4.86   452.3    6.6      40.780
2013    2        6    13   0    4.86   452.4    6.6      40.784
2013    2        6    13   6    4.86   452.4    6.6      40.788
2013    2        6    13  11    4.86   452.4    6.6      40.792
2013    2        6    13  17    4.86   452.4    6.6      40.796
2013    2        6    13  22    4.86   452.5    6.6      40.799
2013    2        6    13  28    4.86   452.5    6.6      40.803
2013    2        6    13  33    4.86   452.5    6.6      40.806
2013    2        6    13  39    4.86   452.5    6.6      40.809
2013    2        6    13  45    4.86   452.6    6.6      40.812
2013    2        6    13  50    4.86   452.6    6.6      40.815
2013    2        6    13  56    4.86   452.6    6.6      40.818
2013    2        6    14   1    4.86   452.6    6.6      40.820
2013    2        6    14   7    4.85   452.7    6.6      40.823
2013    2        6    14  12    4.85   452.7    6.6      40.825
2013    2        6    14  18    4.85   452.7    6.6      40.827
2013    2        6    14  24    4.85   452.7    6.6      40.830
2013    2        6    14  29    4.85   452.8    6.6      40.832
2013    2        6    14  35    4.85   452.8    6.6      40.834
2013    2        6    14  40    4.85   452.8    6.6      40.836
2013    2        6    14  46    4.85   452.8    6.6      40.838
2013    2        6    14  52    4.85   452.9    6.6      40.841
2013    2        6    14  57    4.85   452.9    6.6      40.843
2013    2        6    15   3    4.85   452.9    6.6      40.845
2013    2        6    15   9    4.85   452.9    6.6      40.847
2013    2        6    15  14    4.85   453.0    6.6      40.849
2013    2        6    15  20    4.85   453.0    6.6      40.851
2013    2        6    15  26    4.85   453.0    6.6      40.854
2013    2        6    15  32    4.84   453.0    6.6      40.856
2013    2        6    15  37    4.84   453.1    6.6      40.859
2013    2        6    15  43    4.84   453.1    6.6      40.861
2013    2        6    15  49    4.84   453.1    6.6      40.863
2013    2        6    15  55    4.84   453.1    6.6      40.866
2013    2        6    16   0    4.84   453.2    6.6      40.869
2013    2        6    16   6    4.84   453.2    6.6      40.871
2013    2        6    16  12    4.84   453.2    6.6      40.874
2013    2        6    16  18    4.84   453.2    6.6      40.877
2013    2        6    16  24    4.84   453.3    6.6      40.879
2013    2        6    16  29    4.84   453.3    6.6      40.882
2013    2        6    16  35    4.84   453.3    6.6      40.884
2013    2        6    16  41    4.83   453.4    6.6      40.887
2013    2        6    16  47    4.83   453.4    6.6      40.890
2013    2        6    16  53    4.83   453.4    6.6      40.893
2013    2        6    16  59    4.83   453.4    6.6      40.896
2013    2        6    17   5    4.83   453.5    6.6      40.899
2013    2        6    17  11    4.83   453.5    6.5      40.903
2013    2        6    17  17    4.83   453.5    6.5      40.906
2013    2        6    17  23    4.83   453.6    6.5      40.910
2013    2        6    17  29    4.82   453.6    6.5      40.913
2013    2        6    17  35    4.82   453.6    6.5      40.916
2013    2        6    17  41    4.82   453.6    6.5      40.919
2013    2        6    17  47    4.82   453.7    6.5      40.922
2013    2        6    17  53    4.82   453.7    6.5      40.925
2013    2        6    17  59    4.82   453.7    6.5      40.928
2013    2        6    18   5    4.82   453.8    6.5      40.930
2013    2        6    18  11    4.81   453.8    6.5      40.932
2013    2        6    18  17    4.81   453.8    6.5      40.934
2013    2        6    18  23    4.81   453.8    6.5      40.935
2013    2        6    18  29    4.81   453.9    6.5      40.936
2013    2        6    18  36    4.81   453.9    6.5      40.936
2013    2        6    18  42    4.81   453.9    6.5      40.937
2013    2        6    18  48    4.80   453.9    6.5      40.936
2013    2        6    18  54    4.80   454.0    6.5      40.936
2013    2        6    19   0    4.80   454.0    6.5      40.935
2013    2        6    19   6    4.80   454.0    6.5      40.933
2013    2        6    19  13    4.80   454.0    6.5      40.932
2013    2        6    19  19    4.80   454.1    6.5      40.929
2013    2        6    19  25    4.79   454.1    6.5      40.927
2013    2        6    19  31    4.79   454.1    6.5      40.924
2013    2        6    19  38    4.79   454.1    6.5      40.921
2013    2        6    19  44    4.79   454.2    6.5      40.917
2013    2        6    19  50    4.79   454.2    6.5      40.913
2013    2        6    19  56    4.78   454.2    6.5      40.909
2013    2        6    20   3    4.78   454.2    6.5      40.904
2013    2        6    20   9    4.78   454.2    6.5      40.899
2013    2        6    20  15    4.78   454.3    6.5      40.893
2013    2        6    20  22    4.78   454.3    6.5      40.888
2013    2        6    20  28    4.77   454.3    6.5      40.881
2013    2        6    20  34    4.77   454.3    6.5      40.875
2013    2        6    20  41    4.77   454.3    6.5      40.868
2013    2        6    20  47    4.77   454.3    6.5      40.861
2013    2        6    20  54    4.77   454.4    6.5      40.853
2013    2        6    21   0    4.76   454.4    6.4      40.846
2013    2        6    21   6    4.76   454.4    6.4      40.837
2013    2        6    21  13    4.76   454.4    6.4      40.829
2013    2        6    21  19    4.76   454.4    6.4      40.820
2013    2        6    21  26    4.75   454.4    6.4      40.811
2013    2        6    21  32    4.75   454.4    6.4      40.802
2013    2        6    21  38    4.75   454.5    6.4      40.792
2013    2        6    21  45    4.75   454.5    6.4      40.783
2013    2        6    21  51    4.75   454.5    6.4      40.773
2013    2        6    21  58    4.74   454.5    6.4      40.763
2013    2        6    22   4    4.74   454.5    6.4      40.753
2013    2        6    22  10    4.74   454.5    6.4      40.742
2013    2        6    22  17    4.74   454.5    6.4      40.732
2013    2        6    22  23    4.73   454.5    6.4      40.722
2013    2        6    22  30    4.73   454.5    6.4      40.711
2013    2        6    22  36    4.73   454.5    6.4      40.701
2013    2        6    22  43    4.73   454.5    6.4      40.690
2013    2        6    22  49    4.72   454.5    6.4      40.680
2013    2        6    22  55    4.72   454.5    6.4      40.669
2013    2        6    23   2    4.72   454.5    6.4      40.659
2013    2        6    23   8    4.72   454.5    6.4      40.648
2013    2        6    23  15    4.72   454.6    6.4      40.638
2013    2        6    23  21    4.71   454.6    6.4      40.627
2013    2        6    23  27    4.71   454.6    6.4      40.616
2013    2        6    23  34    4.71   454.6    6.4      40.605
2013    2        6    23  40    4.71   454.6    6.4      40.594
2013    2        6    23  47    4.70   454.6    6.4      40.583
2013    2        6    23  53    4.70   454.6    6.4      40.571
2013    2        7     0   0    4.70   454.6    6.4      40.560
2013    2        7     0   6    4.70   454.6    6.4      40.548
2013    2        7     0  12    4.69   454.6    6.3      40.536
2013    2        7     0  19    4.69   454.6    6.3      40.524
2013    2        7     0  25    4.69   454.6    6.3      40.511
2013    2        7     0  32    4.69   454.6    6.3      40.499
2013    2        7     0  38    4.68   454.6    6.3      40.486
2013    2        7     0  45    4.68   454.6    6.3      40.473
2013    2        7     0  51    4.68   454.6    6.3      40.460
2013    2        7     0  57    4.67   454.6    6.3      40.446
2013    2        7     1   4    4.67   454.6    6.3      40.432
2013    2        7     1  10    4.67   454.6    6.3      40.418
2013    2        7     1  17    4.67   454.6    6.3      40.404
2013    2        7     1  23    4.66   454.6    6.3      40.390
2013    2        7     1  30    4.66   454.5    6.3      40.375
2013    2        7     1  36    4.66   454.5    6.3      40.360
2013    2        7     1  42    4.65   454.5    6.3      40.344
2013    2        7     1  49    4.65   454.5    6.3      40.329
2013    2        7     1  55    4.65   454.5    6.3      40.313
2013    2        7     2   2    4.65   454.5    6.3      40.297
2013    2        7     2   8    4.64   454.5    6.3      40.280
2013    2        7     2  15    4.64   454.5    6.3      40.263
2013    2        7     2  21    4.64   454.5    6.3      40.245
2013    2        7     2  27    4.63   454.5    6.3      40.228
2013    2        7     2  34    4.63   454.5    6.3      40.210
2013    2        7     2  40    4.63   454.4    6.3      40.191
2013    2        7     2  47    4.63   454.4    6.3      40.173
2013    2        7     2  53    4.62   454.4    6.3      40.154
2013    2        7     3   0    4.62   454.4    6.3      40.134
2013    2        7     3   6    4.62   454.4    6.2      40.114
2013    2        7     3  12    4.61   454.4    6.2      40.094
2013    2        7     3  19    4.61   454.3    6.2      40.074
2013    2        7     3  25    4.61   454.3    6.2      40.053
2013    2        7     3  32    4.61   454.3    6.2      40.032
2013    2        7     3  38    4.60   454.3    6.2      40.011
2013    2        7     3  44    4.60   454.3    6.2      39.989
2013    2        7     3  51    4.60   454.2    6.2      39.967
2013    2        7     3  57    4.59   454.2    6.2      39.945
2013    2        7     4   4    4.59   454.2    6.2      39.922
2013    2        7     4  10    4.59   454.2    6.2      39.899
2013    2        7     4  17    4.58   454.1    6.2      39.876
2013    2        7     4  23    4.58   454.1    6.2      39.853
2013    2        7     4  30    4.58   454.1    6.2      39.829
2013    2        7     4  36    4.58   454.1    6.2      39.805
2013    2        7     4  42    4.57   454.0    6.2      39.781
2013    2        7     4  49    4.57   454.0    6.2      39.757
2013    2        7     4  55    4.57   454.0    6.2      39.733
2013    2        7     5   2    4.56   453.9    6.2      39.708
2013    2        7     5   8    4.56   453.9    6.2      39.683
2013    2        7     5  14    4.56   453.9    6.2      39.659
2013    2        7     5  21    4.55   453.8    6.2      39.634
2013    2        7     5  27    4.55   453.8    6.2      39.609
2013    2        7     5  34    4.55   453.7    6.1      39.584
2013    2        7     5  40    4.55   453.7    6.1      39.559
2013    2        7     5  47    4.54   453.7    6.1      39.534
2013    2        7     5  53    4.54   453.6    6.1      39.509
2013    2        7     5  59    4.54   453.6    6.1      39.484
2013    2        7     6   6    4.53   453.5    6.1      39.459
2013    2        7     6  12    4.53   453.5    6.1      39.434
2013    2        7     6  19    4.53   453.4    6.1      39.409
2013    2        7     6  25    4.52   453.4    6.1      39.384
2013    2        7     6  31    4.52   453.3    6.1      39.359
2013    2        7     6  38    4.52   453.3    6.1      39.334
2013    2        7     6  44    4.52   453.2    6.1      39.309
2013    2        7     6  51    4.51   453.2    6.1      39.283
2013    2        7     6  57    4.51   453.1    6.1      39.258
2013    2        7     7   4    4.51   453.1    6.1      39.232
2013    2        7     7  10    4.51   453.0    6.1      39.206
2013    2        7     7  16    4.50   453.0    6.1      39.180
2013    2        7     7  23    4.50   452.9    6.1      39.154
2013    2        7     7  29    4.50   452.9    6.1      39.127
2013    2        7     7  36    4.49   452.8    6.1      39.100
2013    2        7     7  42    4.49   452.8    6.1      39.073
2013    2        7     7  49    4.49   452.7    6.1      39.047
2013    2        7     7  55    4.49   452.7    6.1      39.019
2013    2        7     8   1    4.48   452.6    6.1      38.992
2013    2        7     8   8    4.48   452.5    6.1      38.964
2013    2        7     8  14    4.48   452.5    6.1      38.937
2013    2        7     8  21    4.47   452.4    6.1      38.909
2013    2        7     8  27    4.47   452.4    6.1      38.881
2013    2        7     8  34    4.47   452.3    6.0      38.853
2013    2        7     8  40    4.47   452.3    6.0      38.825
2013    2        7     8  46    4.46   452.2    6.0      38.797
2013    2        7     8  53    4.46   452.1    6.0      38.769
2013    2        7     8  59    4.46   452.1    6.0      38.741
2013    2        7     9   6    4.46   452.0    6.0      38.713
2013    2        7     9  12    4.45   452.0    6.0      38.684
2013    2        7     9  18    4.45   451.9    6.0      38.656
2013    2        7     9  25    4.45   451.9    6.0      38.627
2013    2        7     9  31    4.45   451.8    6.0      38.598
2013    2        7     9  38    4.44   451.8    6.0      38.569
2013    2        7     9  44    4.44   451.7    6.0      38.541
2013    2        7     9  51    4.44   451.6    6.0      38.511
2013    2        7     9  57    4.44   451.6    6.0      38.482
2013    2        7    10   3    4.43   451.5    6.0      38.452
2013    2        7    10  10    4.43   451.5    6.0      38.423
2013    2        7    10  16    4.43   451.4    6.0      38.393
2013    2        7    10  23    4.43   451.4    6.0      38.363
2013    2        7    10  29    4.42   451.3    6.0      38.332
2013    2        7    10  36    4.42   451.2    6.0      38.302
2013    2        7    10  42    4.42   451.2    6.0      38.271
2013    2        7    10  48    4.42   451.1    6.0      38.240
2013    2        7    10  55    4.41   451.0    6.0      38.209
2013    2        7    11   1    4.41   451.0    6.0      38.178
2013    2        7    11   8    4.41   450.9    6.0      38.146
2013    2        7    11  14    4.40   450.8    6.0      38.115
2013    2        7    11  21    4.40   450.8    6.0      38.083
2013    2        7    11  27    4.40   450.7    6.0      38.051
2013    2        7    11  33    4.40   450.6    6.0      38.019
2013    2        7    11  40    4.39   450.6    6.0      37.986
2013    2        7    11  46    4.39   450.5    6.0      37.954
2013    2        7    11  53    4.39   450.4    6.0      37.922
2013    2        7    11  59    4.39   450.4    6.0      37.889
2013    2        7    12   6    4.38   450.3    6.0      37.856
2013    2        7    12  12    4.38   450.2    6.0      37.824
2013    2        7    12  18    4.38   450.1    6.0      37.791
2013    2        7    12  25    4.38   450.1    6.0      37.758
2013    2        7    12  31    4.37   450.0    6.0      37.726
2013    2        7    12  38    4.37   449.9    6.0      37.693
2013    2        7    12  44    4.37   449.8    6.0      37.660
2013    2        7    12  50    4.37   449.8    6.0      37.627
2013    2        7    12  57    4.37   449.7    6.0      37.595
2013    2        7    13   3    4.36   449.6    5.9      37.562
2013    2        7    13  10    4.36   449.5    5.9      37.529
2013    2        7    13  16    4.36   449.4    5.9      37.497
2013    2        7    13  23    4.36   449.3    5.9      37.464
2013    2        7    13  29    4.35   449.3    5.9      37.431
2013    2        7    13  35    4.35   449.2    5.9      37.399
2013    2        7    13  42    4.35   449.1    5.9      37.366
2013    2        7    13  48    4.35   449.0    5.9      37.334
2013    2        7    13  55    4.35   448.9    5.9      37.301
2013    2        7    14   1    4.34   448.8    5.9      37.269
2013    2        7    14   8    4.34   448.7    5.9      37.236
2013    2        7    14  14    4.34   448.7    5.9      37.203
2013    2        7    14  20    4.34   448.6    5.9      37.170
2013    2        7    14  27    4.33   448.5    5.9      37.138
2013    2        7    14  33    4.33   448.4    5.9      37.105
2013    2        7    14  40    4.33   448.3    5.9      37.073
2013    2        7    14  46    4.33   448.2    5.9      37.040
2013    2        7    14  52    4.33   448.1    5.9      37.007
2013    2        7    14  59    4.32   448.0    5.9      36.974
2013    2        7    15   5    4.32   447.9    5.9      36.942
2013    2        7    15  12    4.32   447.8    5.9      36.909
2013    2        7    15  18    4.32   447.7    5.9      36.877
2013    2        7    15  25    4.32   447.7    5.9      36.844
2013    2        7    15  31    4.31   447.6    5.9      36.812
2013    2        7    15  37    4.31   447.5    5.9      36.780
2013    2        7    15  44    4.31   447.4    5.9      36.748
2013    2        7    15  50    4.31   447.3    5.9      36.716
2013    2        7    15  57    4.31   447.2    5.9      36.684
2013    2        7    16   3    4.31   447.1    5.9      36.652
2013    2        7    16  10    4.30   447.0    5.9      36.620
2013    2        7    16  16    4.30   446.9    5.9      36.588
2013    2        7    16  22    4.30   446.8    5.9      36.557
2013    2        7    16  29    4.30   446.7    5.9      36.525
2013    2        7    16  35    4.30   446.7    5.9      36.493
2013    2        7    16  42    4.30   446.6    5.9      36.461
2013    2        7    16  48    4.29   446.5    5.9      36.429
2013    2        7    16  54    4.29   446.4    5.9      36.397
2013    2        7    17   1    4.29   446.3    5.9      36.365
2013    2        7    17   7    4.29   446.2    5.9      36.333
2013    2        7    17  14    4.29   446.1    5.9      36.301
2013    2        7    17  20    4.28   446.0    5.9      36.268
2013    2        7    17  27    4.28   446.0    5.9      36.235
2013    2        7    17  33    4.28   445.9    5.9      36.202
2013    2        7    17  39    4.28   445.8    5.9      36.170
2013    2        7    17  46    4.28   445.7    5.9      36.136
2013    2        7    17  52    4.28   445.6    5.9      36.103
2013    2        7    17  59    4.27   445.5    5.9      36.070
2013    2        7    18   5    4.27   445.4    5.9      36.036
2013    2        7    18  12    4.27   445.3    5.9      36.003
2013    2        7    18  18    4.27   445.2    5.9      35.969
2013    2        7    18  24    4.27   445.1    5.9      35.936
2013    2        7    18  31    4.27   445.0    5.9      35.902
2013    2        7    18  37    4.26   444.9    5.9      35.869
2013    2        7    18  44    4.26   444.8    5.9      35.835
2013    2        7    18  50    4.26   444.7    5.9      35.802
2013    2        7    18  57    4.26   444.6    5.9      35.769
2013    2        7    19   3    4.26   444.5    5.9      35.736
2013    2        7    19   9    4.26   444.4    5.9      35.703
2013    2        7    19  16    4.26   444.3    5.9      35.670
2013    2        7    19  22    4.25   444.2    5.9      35.638
2013    2        7    19  29    4.25   444.1    5.9      35.605
2013    2        7    19  35    4.25   444.0    5.9      35.573
2013    2        7    19  42    4.25   443.9    5.9      35.542
2013    2        7    19  48    4.25   443.8    5.9      35.510
2013    2        7    19  54    4.25   443.7    5.9      35.479
2013    2        7    20   1    4.25   443.6    5.9      35.449
2013    2        7    20   7    4.24   443.5    5.9      35.418
2013    2        7    20  14    4.24   443.4    5.9      35.388
2013    2        7    20  20    4.24   443.3    5.9      35.359
2013    2        7    20  26    4.24   443.3    5.9      35.330
2013    2        7    20  33    4.24   443.2    5.9      35.302
2013    2        7    20  39    4.24   443.1    5.9      35.275
2013    2        7    20  46    4.24   443.0    5.9      35.248
2013    2        7    20  52    4.24   442.9    5.9      35.222
2013    2        7    20  59    4.24   442.8    5.9      35.196
2013    2        7    21   5    4.23   442.7    5.9      35.171
2013    2        7    21  11    4.23   442.6    5.9      35.145
2013    2        7    21  18    4.23   442.5    5.9      35.120
2013    2        7    21  24    4.23   442.4    5.9      35.095
2013    2        7    21  31    4.23   442.3    5.9      35.070
2013    2        7    21  37    4.23   442.2    5.9      35.045
2013    2        7    21  43    4.23   442.1    5.9      35.020
2013    2        7    21  50    4.23   442.0    5.9      34.994
2013    2        7    21  56    4.23   441.9    5.9      34.968
2013    2        7    22   3    4.22   441.8    5.9      34.942
2013    2        7    22   9    4.22   441.7    5.9      34.915
2013    2        7    22  16    4.22   441.6    5.9      34.888
2013    2        7    22  22    4.22   441.5    5.9      34.862
2013    2        7    22  28    4.22   441.4    5.9      34.834
2013    2        7    22  35    4.22   441.3    5.9      34.807
2013    2        7    22  41    4.22   441.2    5.9      34.779
2013    2        7    22  48    4.22   441.1    5.9      34.751
2013    2        7    22  54    4.22   441.0    5.9      34.722
2013    2        7    23   1    4.21   440.9    5.9      34.694
2013    2        7    23   7    4.21   440.8    5.9      34.665
2013    2        7    23  13    4.21   440.7    5.9      34.637
2013    2        7    23  20    4.21   440.6    5.9      34.608
2013    2        7    23  26    4.21   440.5    5.9      34.579
2013    2        7    23  33    4.21   440.3    5.9      34.549
2013    2        7    23  39    4.21   440.2    5.9      34.520
2013    2        7    23  45    4.21   440.1    5.9      34.490
2013    2        7    23  52    4.21   440.0    5.9      34.461
2013    2        7    23  58    4.20   439.9    5.9      34.430
2013    2        8     0   5    4.20   439.8    5.9      34.401
2013    2        8     0  11    4.20   439.7    5.9      34.370
2013    2        8     0  18    4.20   439.6    5.9      34.340
2013    2        8     0  24    4.20   439.5    5.9      34.309
2013    2        8     0  30    4.20   439.4    5.9      34.279
2013    2        8     0  37    4.20   439.3    5.9      34.248
2013    2        8     0  43    4.20   439.2    5.9      34.217
2013    2        8     0  50    4.20   439.1    5.9      34.186
2013    2        8     0  56    4.19   439.0    5.9      34.154
2013    2        8     1   3    4.19   438.9    5.9      34.123
2013    2        8     1   9    4.19   438.8    5.9      34.092
2013    2        8     1  15    4.19   438.6    5.9      34.060
2013    2        8     1  22    4.19   438.5    5.9      34.029
2013    2        8     1  28    4.19   438.4    5.9      33.997
2013    2        8     1  35    4.19   438.3    5.9      33.966
2013    2        8     1  41    4.19   438.2    5.9      33.934
2013    2        8     1  47    4.19   438.1    5.9      33.903
2013    2        8     1  54    4.19   438.0    5.9      33.871
2013    2        8     2   0    4.19   437.9    5.9      33.840
2013    2        8     2   7    4.19   437.8    5.9      33.809
2013    2        8     2  13    4.18   437.6    5.9      33.778
2013    2        8     2  20    4.18   437.5    5.9      33.747
2013    2        8     2  26    4.18   437.4    5.9      33.716
2013    2        8     2  32    4.18   437.3    5.9      33.686
2013    2        8     2  39    4.18   437.2    5.9      33.656
2013    2        8     2  45    4.18   437.1    5.9      33.626
2013    2        8     2  52    4.18   437.0    5.9      33.597
2013    2        8     2  58    4.18   436.9    5.9      33.568
2013    2        8     3   5    4.18   436.7    5.9      33.540
2013    2        8     3  11    4.18   436.6    5.9      33.512
2013    2        8     3  17    4.18   436.5    5.9      33.485
2013    2        8     3  24    4.18   436.4    5.9      33.458
2013    2        8     3  30    4.18   436.3    5.9      33.433
2013    2        8     3  37    4.18   436.2    5.9      33.408
2013    2        8     3  43    4.18   436.1    5.9      33.384
2013    2        8     3  50    4.18   436.0    5.9      33.362
2013    2        8     3  56    4.18   435.9    5.9      33.340
2013    2        8     4   2    4.17   435.8    5.9      33.319
2013    2        8     4   9    4.17   435.7    5.9      33.299
2013    2        8     4  15    4.17   435.5    5.9      33.280
2013    2        8     4  22    4.17   435.4    5.9      33.261
2013    2        8     4  28    4.17   435.3    5.9      33.243
2013    2        8     4  34    4.17   435.2    5.9      33.226
2013    2        8     4  41    4.17   435.1    5.9      33.209
2013    2        8     4  47    4.17   435.0    5.9      33.193
2013    2        8     4  54    4.17   434.9    5.9      33.177
2013    2        8     5   0    4.17   434.8    5.9      33.161
2013    2        8     5   7    4.17   434.7    5.9      33.144
2013    2        8     5  13    4.17   434.6    5.9      33.129
2013    2        8     5  19    4.17   434.5    5.9      33.112
2013    2        8     5  26    4.17   434.5    5.9      33.096
2013    2        8     5  32    4.17   434.4    5.9      33.080
2013    2        8     5  39    4.17   434.3    5.9      33.064
2013    2        8     5  45    4.17   434.2    5.9      33.048
2013    2        8     5  51    4.17   434.1    5.9      33.032
2013    2        8     5  58    4.17   434.0    5.9      33.015
2013    2        8     6   4    4.17   433.9    5.9      32.999
2013    2        8     6  11    4.17   433.8    5.9      32.982
2013    2        8     6  17    4.17   433.7    5.9      32.966
2013    2        8     6  24    4.17   433.6    5.9      32.949
2013    2        8     6  30    4.17   433.5    5.9      32.932
2013    2        8     6  36    4.17   433.4    5.9      32.914
2013    2        8     6  43    4.16   433.3    5.9      32.897
2013    2        8     6  49    4.16   433.2    5.9      32.880
2013    2        8     6  56    4.16   433.0    5.9      32.862
2013    2        8     7   2    4.16   432.9    5.9      32.845
2013    2        8     7   9    4.16   432.8    5.9      32.828
2013    2        8     7  15    4.16   432.7    5.9      32.811
2013    2        8     7  21    4.16   432.6    5.9      32.794
2013    2        8     7  28    4.16   432.5    5.9      32.777
2013    2        8     7  34    4.16   432.4    5.9      32.761
2013    2        8     7  41    4.16   432.3    5.9      32.745
2013    2        8     7  47    4.16   432.2    5.9      32.730
2013    2        8     7  53    4.16   432.1    5.9      32.714
2013    2        8     8   0    4.16   432.0    5.9      32.699
2013    2        8     8   6    4.16   431.9    5.9      32.685
2013    2        8     8  13    4.16   431.8    6.0      32.670
2013    2        8     8  19    4.16   431.7    6.0      32.656
2013    2        8     8  26    4.16   431.6    6.0      32.643
2013    2        8     8  32    4.16   431.5    6.0      32.629
2013    2        8     8  38    4.16   431.5    6.0      32.616
2013    2        8     8  45    4.16   431.4    6.0      32.604
2013    2        8     8  51    4.16   431.3    6.0      32.592
2013    2        8     8  58    4.16   431.2    6.0      32.580
2013    2        8     9   4    4.16   431.1    6.0      32.568
2013    2        8     9  10    4.16   431.0    6.0      32.557
2013    2        8     9  17    4.16   430.9    6.0      32.547
2013    2        8     9  23    4.16   430.8    6.0      32.536
2013    2        8     9  30    4.16   430.7    6.0      32.526
2013    2        8     9  36    4.16   430.7    6.0      32.516
2013    2        8     9  43    4.16   430.6    6.0      32.507
2013    2        8     9  49    4.16   430.5    6.0      32.498
2013    2        8     9  55    4.16   430.4    6.0      32.490
2013    2        8    10   2    4.16   430.3    6.0      32.482
2013    2        8    10   8    4.16   430.3    6.0      32.475
2013    2        8    10  15    4.16   430.2    6.0      32.468
2013    2        8    10  21    4.16   430.1    6.0      32.462
2013    2        8    10  28    4.16   430.0    6.0      32.456
2013    2        8    10  34    4.16   429.9    6.0      32.452
2013    2        8    10  40    4.16   429.9    6.0      32.448
2013    2        8    10  47    4.16   429.8    6.0      32.445
2013    2        8    10  53    4.17   429.7    6.0      32.443
2013    2        8    11   0    4.17   429.6    6.0      32.442
2013    2        8    11   6    4.17   429.6    6.0      32.442
2013    2        8    11  12    4.17   429.5    6.0      32.444
2013    2        8    11  19    4.17   429.4    6.0      32.448
2013    2        8    11  25    4.17   429.3    6.0      32.453
2013    2        8    11  32    4.17   429.3    6.0      32.461
2013    2        8    11  38    4.18   429.2    6.0      32.470
2013    2        8    11  45    4.18   429.2    6.0      32.482
2013    2        8    11  51    4.18   429.1    6.0      32.497
2013    2        8    11  57    4.18   429.1    6.0      32.515
2013    2        8    12   4    4.19   429.0    6.0      32.536
2013    2        8    12  10    4.19   429.0    6.1      32.560
2013    2        8    12  17    4.19   428.9    6.1      32.589
2013    2        8    12  23    4.20   428.9    6.1      32.622
2013    2        8    12  30    4.20   428.8    6.1      32.660
2013    2        8    12  36    4.21   428.8    6.1      32.703
2013    2        8    12  42    4.21   428.8    6.1      32.752
2013    2        8    12  49    4.22   428.8    6.1      32.808
2013    2        8    12  55    4.22   428.8    6.1      32.872
2013    2        8    13   2    4.23   428.8    6.1      32.943
2013    2        8    13   8    4.24   428.8    6.1      33.023
2013    2        8    13  14    4.25   428.8    6.2      33.113
2013    2        8    13  21    4.26   428.8    6.2      33.213
2013    2        8    13  27    4.27   428.8    6.2      33.325
2013    2        8    13  34    4.28   428.9    6.2      33.449
2013    2        8    13  40    4.30   428.9    6.2      33.586
2013    2        8    13  47    4.31   429.0    6.3      33.737
2013    2        8    13  53    4.33   429.1    6.3      33.904
2013    2        8    13  59    4.35   429.2    6.3      34.088
2013    2        8    14   6    4.37   429.3    6.4      34.289
2013    2        8    14  12    4.39   429.4    6.4      34.511
2013    2        8    14  19    4.41   429.6    6.4      34.757
2013    2        8    14  25    4.44   429.8    6.5      35.026
2013    2        8    14  31    4.47   430.0    6.5      35.322
2013    2        8    14  38    4.50   430.3    6.5      35.643
2013    2        8    14  44    4.53   430.5    6.6      35.994
2013    2        8    14  51    4.57   430.8    6.6      36.371
2013    2        8    14  57    4.61   431.1    6.7      36.779
2013    2        8    15   4    4.65   431.5    6.8      37.212
2013    2        8    15  10    4.69   431.9    6.8      37.676
2013    2        8    15  16    4.74   432.3    6.9      38.164
2013    2        8    15  23    4.78   432.7    7.0      38.682
2013    2        8    15  29    4.83   433.2    7.0      39.222
2013    2        8    15  36    4.89   433.7    7.1      39.790
2013    2        8    15  42    4.94   434.2    7.2      40.379
2013    2        8    15  48    5.00   434.7    7.3      40.993
2013    2        8    15  55    5.06   435.3    7.4      41.627
2013    2        8    16   1    5.12   435.9    7.5      42.287
2013    2        8    16   8    5.19   436.5    7.6      42.961
2013    2        8    16  14    5.26   437.2    7.7      43.655
2013    2        8    16  21    5.32   437.9    7.8      44.365
2013    2        8    16  27    5.40   438.6    7.9      45.099
2013    2        8    16  33    5.47   439.3    8.0      45.863
2013    2        8    16  40    5.54   440.1    8.1      46.659
2013    2        8    16  46    5.61   440.8    8.2      47.471
2013    2        8    16  53    5.69   441.6    8.3      48.299
2013    2        8    16  59    5.76   442.3    8.4      49.130
2013    2        8    17   6    5.83   443.1    8.6      49.961
2013    2        8    17  12    5.90   443.8    8.7      50.784
2013    2        8    17  18    5.97   444.5    8.8      51.600
2013    2        8    17  25    6.04   445.2    8.9      52.399
2013    2        8    17  31    6.11   445.9    9.0      53.182
2013    2        8    17  38    6.18   446.5    9.1      53.929
2013    2        8    17  44    6.24   447.1    9.2      54.645
2013    2        8    17  50    6.31   447.7    9.3      55.323
2013    2        8    17  57    6.37   448.3    9.4      55.972
2013    2        8    18   3    6.43   448.8    9.5      56.583
2013    2        8    18  10    6.49   449.3    9.6      57.162
2013    2        8    18  16    6.55   449.8    9.7      57.706
2013    2        8    18  23    6.61   450.2    9.8      58.222
2013    2        8    18  29    6.67   450.7    9.9      58.711
2013    2        8    18  35    6.72   451.1    9.9      59.181
2013    2        8    18  42    6.77   451.5   10.0      59.630
2013    2        8    18  48    6.82   451.9   10.1      60.062
2013    2        8    18  55    6.87   452.2   10.2      60.473
2013    2        8    19   1    6.92   452.5   10.3      60.866
2013    2        8    19   7    6.96   452.8   10.3      61.239
2013    2        8    19  14    7.00   453.1   10.4      61.597
2013    2        8    19  20    7.04   453.3   10.5      61.939
2013    2        8    19  27    7.08   453.6   10.5      62.265
2013    2        8    19  33    7.11   453.8   10.6      62.573
2013    2        8    19  40    7.14   454.0   10.6      62.861
2013    2        8    19  46    7.17   454.1   10.7      63.127
2013    2        8    19  52    7.20   454.3   10.7      63.375
2013    2        8    19  59    7.22   454.4   10.7      63.601
2013    2        8    20   5    7.24   454.5   10.8      63.810
2013    2        8    20  12    7.27   454.6   10.8      64.000
2013    2        8    20  18    7.28   454.7   10.8      64.172
2013    2        8    20  25    7.30   454.8   10.9      64.324
2013    2        8    20  31    7.31   454.8   10.9      64.460
2013    2        8    20  37    7.32   454.9   10.9      64.577
2013    2        8    20  44    7.33   454.9   10.9      64.680
2013    2        8    20  50    7.34   454.9   10.9      64.766
2013    2        8    20  57    7.35   455.0   10.9      64.840
2013    2        8    21   3    7.35   455.0   10.9      64.899
2013    2        8    21   9    7.35   455.0   11.0      64.944
2013    2        8    21  16    7.35   454.9   11.0      64.977
2013    2        8    21  22    7.35   454.9   11.0      64.997
2013    2        8    21  29    7.34   454.8   10.9      65.004
2013    2        8    21  35    7.34   454.8   10.9      64.999
2013    2        8    21  42    7.33   454.7   10.9      64.981
2013    2        8    21  48    7.32   454.6   10.9      64.950
2013    2        8    21  54    7.31   454.4   10.9      64.907
2013    2        8    22   1    7.30   454.3   10.9      64.851
2013    2        8    22   7    7.28   454.1   10.9      64.782
2013    2        8    22  14    7.27   454.0   10.9      64.700
2013    2        8    22  20    7.25   453.8   10.8      64.607
2013    2        8    22  26    7.23   453.6   10.8      64.500
2013    2        8    22  33    7.21   453.3   10.8      64.382
2013    2        8    22  39    7.19   453.1   10.7      64.252
2013    2        8    22  46    7.17   452.9   10.7      64.112
2013    2        8    22  52    7.14   452.6   10.7      63.960
2013    2        8    22  59    7.12   452.4   10.7      63.799
2013    2        8    23   5    7.09   452.1   10.6      63.627
2013    2        8    23  11    7.06   451.9   10.6      63.446
2013    2        8    23  18    7.04   451.6   10.5      63.256
2013    2        8    23  24    7.01   451.4   10.5      63.059
2013    2        8    23  31    6.98   451.1   10.5      62.853
2013    2        8    23  37    6.94   450.9   10.4      62.641
2013    2        8    23  43    6.91   450.6   10.4      62.421
2013    2        8    23  50    6.88   450.4   10.3      62.195
2013    2        8    23  56    6.84   450.1   10.3      61.960
2013    2        9     0   3    6.81   449.9   10.2      61.719
2013    2        9     0   9    6.77   449.6   10.2      61.471
2013    2        9     0  16    6.74   449.3   10.1      61.218
2013    2        9     0  22    6.70   449.0   10.1      60.957
2013    2        9     0  28    6.66   448.8   10.0      60.692
2013    2        9     0  35    6.62   448.5   10.0      60.421
2013    2        9     0  41    6.58   448.2    9.9      60.146
2013    2        9     0  48    6.54   447.8    9.9      59.864
2013    2        9     0  54    6.50   447.5    9.8      59.579
2013    2        9     1   1    6.46   447.2    9.8      59.288
2013    2        9     1   7    6.42   446.9    9.7      58.995
2013    2        9     1  13    6.37   446.5    9.6      58.697
2013    2        9     1  20    6.33   446.2    9.6      58.397
2013    2        9     1  26    6.29   445.8    9.5      58.093
2013    2        9     1  33    6.24   445.5    9.5      57.788
2013    2        9     1  39    6.20   445.1    9.4      57.478
2013    2        9     1  45    6.15   444.8    9.3      57.167
2013    2        9     1  52    6.11   444.4    9.3      56.853
2013    2        9     1  58    6.06   444.1    9.2      56.537
2013    2        9     2   5    6.02   443.7    9.2      56.218
2013    2        9     2  11    5.97   443.4    9.1      55.899
2013    2        9     2  18    5.93   443.0    9.0      55.575
2013    2        9     2  24    5.88   442.6    9.0      55.252
2013    2        9     2  30    5.84   442.2    8.9      54.926
2013    2        9     2  37    5.79   441.9    8.8      54.602
2013    2        9     2  43    5.75   441.5    8.8      54.276
2013    2        9     2  50    5.70   441.1    8.7      53.953
2013    2        9     2  56    5.66   440.8    8.6      53.631
2013    2        9     3   2    5.62   440.4    8.6      53.313
2013    2        9     3   9    5.57   440.1    8.5      52.995
2013    2        9     3  15    5.53   439.7    8.4      52.683
2013    2        9     3  22    5.49   439.4    8.4      52.372
2013    2        9     3  28    5.45   439.0    8.3      52.068
2013    2        9     3  35    5.41   438.7    8.3      51.767
2013    2        9     3  41    5.37   438.3    8.2      51.472
2013    2        9     3  47    5.33   438.0    8.2      51.180
2013    2        9     3  54    5.30   437.7    8.1      50.895
2013    2        9     4   0    5.26   437.3    8.1      50.612
2013    2        9     4   7    5.22   437.0    8.0      50.336
2013    2        9     4  13    5.19   436.7    8.0      50.064
2013    2        9     4  19    5.16   436.4    7.9      49.798
2013    2        9     4  26    5.12   436.1    7.9      49.536
2013    2        9     4  32    5.09   435.8    7.9      49.280
2013    2        9     4  39    5.06   435.5    7.8      49.027
2013    2        9     4  45    5.03   435.3    7.8      48.781
2013    2        9     4  52    5.00   435.0    7.7      48.537
2013    2        9     4  58    4.98   434.8    7.7      48.301
2013    2        9     5   4    4.95   434.5    7.7      48.067
2013    2        9     5  11    4.93   434.3    7.7      47.838
2013    2        9     5  17    4.90   434.1    7.6      47.613
2013    2        9     5  24    4.88   433.9    7.6      47.393
2013    2        9     5  30    4.86   433.8    7.6      47.176
2013    2        9     5  36    4.83   433.6    7.6      46.964
2013    2        9     5  43    4.81   433.5    7.5      46.754
2013    2        9     5  49    4.79   433.3    7.5      46.550
2013    2        9     5  56    4.77   433.2    7.5      46.349
2013    2        9     6   2    4.76   433.1    7.5      46.153
2013    2        9     6   9    4.74   433.0    7.4      45.960
2013    2        9     6  15    4.72   432.9    7.4      45.772
2013    2        9     6  21    4.71   432.8    7.4      45.588
2013    2        9     6  28    4.69   432.7    7.4      45.409
2013    2        9     6  34    4.68   432.6    7.4      45.235
2013    2        9     6  41    4.66   432.5    7.3      45.067
2013    2        9     6  47    4.65   432.4    7.3      44.903
2013    2        9     6  53    4.64   432.3    7.3      44.745
2013    2        9     7   0    4.63   432.2    7.3      44.592
2013    2        9     7   6    4.61   432.1    7.3      44.446
2013    2        9     7  13    4.60   432.0    7.3      44.303
2013    2        9     7  19    4.59   431.9    7.2      44.167
2013    2        9     7  26    4.58   431.9    7.2      44.035
2013    2        9     7  32    4.58   431.8    7.2      43.909
2013    2        9     7  38    4.57   431.7    7.2      43.786
2013    2        9     7  45    4.56   431.6    7.2      43.667
2013    2        9     7  51    4.55   431.5    7.2      43.551
2013    2        9     7  58    4.55   431.4    7.2      43.440
2013    2        9     8   4    4.54   431.4    7.1      43.330
2013    2        9     8  10    4.54   431.3    7.1      43.224
2013    2        9     8  17    4.53   431.2    7.1      43.120
2013    2        9     8  23    4.53   431.2    7.1      43.018
2013    2        9     8  30    4.53   431.1    7.1      42.918
2013    2        9     8  36    4.53   431.0    7.1      42.820
2013    2        9     8  43    4.52   431.0    7.1      42.722
2013    2        9     8  49    4.52   430.9    7.1      42.627
2013    2        9     8  55    4.52   430.8    7.1      42.532
2013    2        9     9   2    4.52   430.8    7.1      42.439
2013    2        9     9   8    4.53   430.7    7.0      42.348
2013    2        9     9  15    4.53   430.7    7.0      42.258
2013    2        9     9  21    4.53   430.7    7.0      42.169
2013    2        9     9  27    4.53   430.6    7.0      42.084
2013    2        9     9  34    4.54   430.6    7.0      41.998
2013    2        9     9  40    4.54   430.5    7.0      41.913
2013    2        9     9  47    4.55   430.5    7.0      41.827
2013    2        9     9  53    4.56   430.5    7.0      41.742
2013    2        9    10   0    4.57   430.5    7.0      41.656
2013    2        9    10   6    4.57   430.5    7.0      41.570
2013    2        9    10  12    4.58   430.5    7.0      41.483
2013    2        9    10  19    4.59   430.5    7.0      41.397
2013    2        9    10  25    4.60   430.5    7.0      41.311
2013    2        9    10  32    4.62   430.5    7.0      41.226
2013    2        9    10  38    4.63   430.5    7.0      41.140
2013    2        9    10  44    4.64   430.5    7.0      41.055
2013    2        9    10  51    4.66   430.5    7.0      40.972
2013    2        9    10  57    4.67   430.5    7.0      40.892
2013    2        9    11   4    4.69   430.5    7.0      40.814
2013    2        9    11  10    4.70   430.6    7.0      40.740
2013    2        9    11  17    4.72   430.6    7.0      40.669
2013    2        9    11  23    4.74   430.6    7.0      40.602
2013    2        9    11  29    4.75   430.6    7.0      40.538
2013    2        9    11  36    4.77   430.7    7.0      40.479
2013    2        9    11  42    4.79   430.7    7.0      40.422
2013    2        9    11  49    4.81   430.7    7.0      40.369
2013    2        9    11  55    4.83   430.7    7.0      40.316
2013    2        9    12   1    4.85   430.8    7.0      40.265
2013    2        9    12   8    4.86   430.8    7.0      40.213
2013    2        9    12  14    4.88   430.8    7.0      40.160
2013    2        9    12  21    4.90   430.9    7.0      40.105
2013    2        9    12  27    4.92   430.9    7.0      40.049
2013    2        9    12  34    4.94   430.9    7.0      39.988
2013    2        9    12  40    4.96   431.0    7.0      39.925
2013    2        9    12  46    4.98   431.0    7.0      39.856
2013    2        9    12  53    5.00   431.0    7.0      39.783
2013    2        9    12  59    5.01   431.0    7.0      39.705
2013    2        9    13   6    5.03   431.1    7.0      39.623
2013    2        9    13  12    5.05   431.1    7.0      39.535
2013    2        9    13  18    5.06   431.1    7.0      39.444
2013    2        9    13  25    5.08   431.1    7.0      39.348
2013    2        9    13  31    5.09   431.1    7.0      39.248
2013    2        9    13  38    5.11   431.1    7.0      39.144
2013    2        9    13  44    5.12   431.0    7.0      39.036
2013    2        9    13  51    5.13   431.0    7.0      38.925
2013    2        9    13  57    5.14   431.0    6.9      38.811
2013    2        9    14   3    5.16   430.9    6.9      38.694
2013    2        9    14  10    5.17   430.9    6.9      38.575
2013    2        9    14  16    5.18   430.8    6.9      38.453
2013    2        9    14  23    5.19   430.8    6.9      38.331
2013    2        9    14  29    5.19   430.7    6.9      38.206
2013    2        9    14  35    5.20   430.6    6.9      38.080
2013    2        9    14  42    5.21   430.5    6.8      37.952
2013    2        9    14  48    5.22   430.4    6.8      37.824
2013    2        9    14  55    5.22   430.3    6.8      37.694
2013    2        9    15   1    5.23   430.3    6.8      37.563
2013    2        9    15   8    5.23   430.2    6.8      37.432
2013    2        9    15  14    5.24   430.1    6.7      37.300
2013    2        9    15  20    5.24   429.9    6.7      37.169
2013    2        9    15  27    5.24   429.8    6.7      37.039
2013    2        9    15  33    5.24   429.7    6.7      36.909
2013    2        9    15  40    5.25   429.6    6.6      36.782
2013    2        9    15  46    5.25   429.5    6.6      36.656
2013    2        9    15  52    5.25   429.4    6.6      36.531
2013    2        9    15  59    5.25   429.3    6.6      36.408
2013    2        9    16   5    5.25   429.2    6.6      36.286
2013    2        9    16  12    5.25   429.1    6.5      36.165
2013    2        9    16  18    5.25   429.0    6.5      36.046
2013    2        9    16  25    5.25   429.0    6.5      35.926
2013    2        9    16  31    5.24   428.9    6.5      35.808
2013    2        9    16  37    5.24   428.8    6.4      35.688
2013    2        9    16  44    5.24   428.7    6.4      35.569
2013    2        9    16  50    5.23   428.6    6.4      35.448
2013    2        9    16  57    5.23   428.5    6.4      35.327
2013    2        9    17   3    5.22   428.4    6.3      35.204
2013    2        9    17   9    5.22   428.3    6.3      35.081
2013    2        9    17  16    5.21   428.2    6.3      34.955
2013    2        9    17  22    5.21   428.1    6.3      34.828
2013    2        9    17  29    5.20   428.0    6.2      34.700
2013    2        9    17  35    5.19   427.9    6.2      34.571
2013    2        9    17  42    5.19   427.8    6.2      34.440
2013    2        9    17  48    5.18   427.7    6.2      34.308
2013    2        9    17  54    5.17   427.5    6.1      34.173
2013    2        9    18   1    5.17   427.4    6.1      34.037
2013    2        9    18   7    5.16   427.3    6.1      33.898
2013    2        9    18  14    5.15   427.2    6.0      33.758
2013    2        9    18  20    5.14   427.0    6.0      33.616
2013    2        9    18  26    5.13   426.9    6.0      33.473
2013    2        9    18  33    5.12   426.7    6.0      33.329
2013    2        9    18  39    5.12   426.6    5.9      33.185
2013    2        9    18  46    5.11   426.5    5.9      33.040
2013    2        9    18  52    5.10   426.3    5.9      32.896
2013    2        9    18  59    5.09   426.2    5.9      32.751
2013    2        9    19   5    5.08   426.1    5.9      32.607
2013    2        9    19  11    5.07   425.9    5.8      32.463
2013    2        9    19  18    5.06   425.8    5.8      32.321
2013    2        9    19  24    5.06   425.7    5.8      32.179
2013    2        9    19  31    5.05   425.5    5.8      32.040
2013    2        9    19  37    5.04   425.4    5.8      31.900
2013    2        9    19  43    5.03   425.3    5.7      31.763
2013    2        9    19  50    5.02   425.2    5.7      31.625
2013    2        9    19  56    5.01   425.0    5.7      31.490
2013    2        9    20   3    5.01   424.9    5.7      31.355
2013    2        9    20   9    5.00   424.8    5.7      31.222
2013    2        9    20  16    4.99   424.7    5.6      31.089
2013    2        9    20  22    4.98   424.6    5.6      30.959
2013    2        9    20  28    4.97   424.5    5.6      30.829
2013    2        9    20  35    4.97   424.4    5.6      30.701
2013    2        9    20  41    4.96   424.3    5.6      30.574
2013    2        9    20  48    4.95   424.2    5.6      30.449
2013    2        9    20  54    4.95   424.1    5.6      30.325
2013    2        9    21   0    4.94   424.0    5.5      30.204
2013    2        9    21   7    4.93   424.0    5.5      30.083
2013    2        9    21  13    4.92   423.9    5.5      29.965
2013    2        9    21  20    4.92   423.8    5.5      29.848
2013    2        9    21  26    4.91   423.7    5.5      29.734
2013    2        9    21  33    4.90   423.7    5.5      29.620
2013    2        9    21  39    4.90   423.6    5.5      29.509
2013    2        9    21  45    4.89   423.5    5.4      29.399
2013    2        9    21  52    4.88   423.4    5.4      29.292
2013    2        9    21  58    4.88   423.4    5.4      29.186
2013    2        9    22   5    4.87   423.3    5.4      29.083
2013    2        9    22  11    4.86   423.2    5.4      28.981
2013    2        9    22  17    4.86   423.1    5.4      28.882
2013    2        9    22  24    4.85   423.1    5.4      28.784
2013    2        9    22  30    4.85   423.0    5.3      28.689
2013    2        9    22  37    4.84   422.9    5.3      28.595
2013    2        9    22  43    4.83   422.9    5.3      28.503
2013    2        9    22  50    4.83   422.8    5.3      28.413
2013    2        9    22  56    4.82   422.7    5.3      28.325
2013    2        9    23   2    4.81   422.6    5.3      28.239
2013    2        9    23   9    4.81   422.6    5.3      28.155
2013    2        9    23  15    4.80   422.5    5.3      28.071
2013    2        9    23  22    4.80   422.4    5.2      27.990
2013    2        9    23  28    4.79   422.3    5.2      27.909
2013    2        9    23  34    4.78   422.2    5.2      27.830
2013    2        9    23  41    4.78   422.2    5.2      27.752
2013    2        9    23  47    4.77   422.1    5.2      27.676
2013    2        9    23  54    4.77   422.0    5.2      27.600
2013    2       10     0   0    4.76   421.9    5.2      27.526
2013    2       10     0   7    4.75   421.8    5.2      27.452
2013    2       10     0  13    4.75   421.7    5.2      27.379
2013    2       10     0  19    4.74   421.6    5.2      27.307
2013    2       10     0  26    4.74   421.6    5.1      27.237
2013    2       10     0  32    4.73   421.5    5.1      27.167
2013    2       10     0  39    4.73   421.4    5.1      27.097
2013    2       10     0  45    4.72   421.3    5.1      27.029
2013    2       10     0  51    4.71   421.2    5.1      26.961
2013    2       10     0  58    4.71   421.1    5.1      26.893
2013    2       10     1   4    4.70   421.0    5.1      26.826
2013    2       10     1  11    4.70   420.9    5.1      26.759
2013    2       10     1  17    4.69   420.8    5.1      26.693
2013    2       10     1  24    4.69   420.8    5.1      26.626
2013    2       10     1  30    4.68   420.7    5.1      26.561
2013    2       10     1  36    4.68   420.6    5.1      26.496
2013    2       10     1  43    4.67   420.5    5.1      26.432
2013    2       10     1  49    4.67   420.4    5.1      26.368
2013    2       10     1  56    4.66   420.3    5.1      26.305
2013    2       10     2   2    4.66   420.2    5.1      26.243
2013    2       10     2   8    4.65   420.1    5.1      26.182
2013    2       10     2  15    4.65   420.1    5.1      26.122
2013    2       10     2  21    4.64   420.0    5.1      26.064
2013    2       10     2  28    4.64   419.9    5.1      26.006
2013    2       10     2  34    4.63   419.8    5.1      25.951
2013    2       10     2  40    4.63   419.7    5.1      25.897
2013    2       10     2  47    4.62   419.6    5.1      25.845
2013    2       10     2  53    4.62   419.5    5.1      25.795
2013    2       10     3   0    4.61   419.5    5.1      25.747
2013    2       10     3   6    4.61   419.4    5.1      25.700
2013    2       10     3  13    4.60   419.3    5.1      25.656
2013    2       10     3  19    4.60   419.2    5.1      25.614
2013    2       10     3  25    4.59   419.1    5.1      25.574
2013    2       10     3  32    4.59   419.1    5.1      25.536
2013    2       10     3  38    4.58   419.0    5.1      25.501
2013    2       10     3  45    4.58   418.9    5.1      25.468
2013    2       10     3  51    4.57   418.8    5.1      25.438
2013    2       10     3  57    4.57   418.7    5.2      25.409
2013    2       10     4   4    4.56   418.7    5.2      25.384
2013    2       10     4  10    4.56   418.6    5.2      25.360
2013    2       10     4  17    4.55   418.5    5.2      25.339
2013    2       10     4  23    4.55   418.5    5.2      25.320
2013    2       10     4  29    4.54   418.4    5.2      25.304
2013    2       10     4  36    4.54   418.3    5.2      25.290
2013    2       10     4  42    4.53   418.2    5.2      25.279
2013    2       10     4  49    4.53   418.2    5.2      25.269
2013    2       10     4  55    4.52   418.1    5.2      25.262
2013    2       10     5   2    4.52   418.0    5.3      25.257
2013    2       10     5   8    4.51   417.9    5.3      25.255
2013    2       10     5  14    4.51   417.8    5.3      25.254
2013    2       10     5  21    4.50   417.7    5.3      25.256
2013    2       10     5  27    4.50   417.6    5.3      25.260
2013    2       10     5  34    4.50   417.6    5.3      25.265
2013    2       10     5  40    4.49   417.5    5.3      25.273
2013    2       10     5  46    4.49   417.4    5.3      25.282
2013    2       10     5  53    4.48   417.3    5.3      25.294
2013    2       10     5  59    4.48   417.2    5.4      25.307
2013    2       10     6   6    4.47   417.1    5.4      25.322
2013    2       10     6  12    4.47   417.0    5.4      25.339
2013    2       10     6  19    4.46   416.9    5.4      25.358
2013    2       10     6  25    4.46   416.7    5.4      25.378
2013    2       10     6  31    4.45   416.6    5.4      25.400
2013    2       10     6  38    4.45   416.5    5.4      25.424
2013    2       10     6  44    4.44   416.4    5.4      25.449
2013    2       10     6  51    4.44   416.3    5.4      25.476
2013    2       10     6  57    4.43   416.2    5.4      25.505
2013    2       10     7   3    4.43   416.1    5.5      25.534
2013    2       10     7  10    4.42   415.9    5.5      25.566
2013    2       10     7  16    4.42   415.8    5.5      25.598
2013    2       10     7  23    4.42   415.7    5.5      25.632
2013    2       10     7  29    4.41   415.6    5.5      25.667
2013    2       10     7  36    4.41   415.5    5.5      25.703
2013    2       10     7  42    4.40   415.3    5.5      25.739
2013    2       10     7  48    4.40   415.2    5.5      25.777
2013    2       10     7  55    4.40   415.1    5.5      25.816
2013    2       10     8   1    4.39   415.0    5.5      25.856
2013    2       10     8   8    4.39   414.9    5.6      25.895
2013    2       10     8  14    4.39   414.7    5.6      25.936
2013    2       10     8  20    4.38   414.6    5.6      25.976
2013    2       10     8  27    4.38   414.5    5.6      26.017
2013    2       10     8  33    4.38   414.3    5.6      26.057
2013    2       10     8  40    4.37   414.2    5.6      26.098
2013    2       10     8  46    4.37   414.1    5.6      26.138
2013    2       10     8  53    4.37   414.0    5.6      26.177
2013    2       10     8  59    4.36   413.8    5.6      26.216
2013    2       10     9   5    4.36   413.7    5.6      26.255
2013    2       10     9  12    4.36   413.6    5.6      26.293
2013    2       10     9  18    4.35   413.4    5.6      26.330
2013    2       10     9  25    4.35   413.3    5.7      26.366
2013    2       10     9  31    4.35   413.2    5.7      26.402
2013    2       10     9  37    4.35   413.0    5.7      26.436
2013    2       10     9  44    4.34   412.9    5.7      26.470
2013    2       10     9  50    4.34   412.7    5.7      26.502
2013    2       10     9  57    4.34   412.6    5.7      26.533
2013    2       10    10   3    4.34   412.5    5.7      26.564
2013    2       10    10   9    4.34   412.3    5.7      26.592
2013    2       10    10  16    4.33   412.2    5.7      26.620
2013    2       10    10  22    4.33   412.0    5.7      26.646
2013    2       10    10  29    4.33   411.9    5.7      26.671
2013    2       10    10  35    4.33   411.8    5.8      26.695
2013    2       10    10  42    4.33   411.6    5.8      26.718
2013    2       10    10  48    4.32   411.5    5.8      26.738
2013    2       10    10  54    4.32   411.3    5.8      26.758
2013    2       10    11   1    4.32   411.2    5.8      26.776
2013    2       10    11   7    4.32   411.0    5.8      26.794
2013    2       10    11  14    4.32   410.9    5.8      26.809
2013    2       10    11  20    4.32   410.8    5.8      26.823
2013    2       10    11  26    4.32   410.6    5.8      26.835
2013    2       10    11  33    4.32   410.5    5.8      26.845
2013    2       10    11  39    4.31   410.3    5.9      26.853
2013    2       10    11  46    4.31   410.2    5.9      26.860
2013    2       10    11  52    4.31   410.1    5.9      26.864
2013    2       10    11  58    4.31   410.0    5.9      26.867
2013    2       10    12   5    4.31   409.8    5.9      26.868
2013    2       10    12  11    4.31   409.7    5.9      26.868
2013    2       10    12  18    4.31   409.6    5.9      26.866
2013    2       10    12  24    4.31   409.5    5.9      26.863
2013    2       10    12  31    4.31   409.4    5.9      26.857
2013    2       10    12  37    4.31   409.3    5.9      26.850
2013    2       10    12  43    4.31   409.2    6.0      26.842
2013    2       10    12  50    4.31   409.1    6.0      26.833
2013    2       10    12  56    4.32   409.0    6.0      26.822
2013    2       10    13   3    4.32   408.9    6.0      26.811
2013    2       10    13   9    4.32   408.8    6.0      26.799
2013    2       10    13  15    4.32   408.7    6.0      26.786
2013    2       10    13  22    4.32   408.6    6.0      26.771
2013    2       10    13  28    4.32   408.5    6.0      26.756
2013    2       10    13  35    4.32   408.4    6.0      26.740
2013    2       10    13  41    4.32   408.3    6.0      26.724
2013    2       10    13  48    4.32   408.2    6.0      26.706
2013    2       10    13  54    4.33   408.1    6.0      26.688
2013    2       10    14   0    4.33   408.0    6.1      26.670
2013    2       10    14   7    4.33   407.9    6.1      26.650
2013    2       10    14  13    4.33   407.8    6.1      26.630
2013    2       10    14  20    4.33   407.7    6.1      26.610
2013    2       10    14  26    4.34   407.6    6.1      26.589
2013    2       10    14  32    4.34   407.5    6.1      26.568
2013    2       10    14  39    4.34   407.5    6.1      26.546
2013    2       10    14  45    4.34   407.4    6.1      26.524
2013    2       10    14  52    4.34   407.3    6.1      26.501
2013    2       10    14  58    4.35   407.2    6.1      26.478
2013    2       10    15   5    4.35   407.1    6.1      26.455
2013    2       10    15  11    4.35   407.0    6.1      26.432
2013    2       10    15  17    4.35   406.9    6.1      26.408
2013    2       10    15  24    4.36   406.8    6.1      26.385
2013    2       10    15  30    4.36   406.7    6.1      26.361
2013    2       10    15  37    4.36   406.7    6.1      26.337
2013    2       10    15  43    4.36   406.6    6.1      26.312
2013    2       10    15  49    4.36   406.5    6.1      26.288
2013    2       10    15  56    4.37   406.4    6.1      26.264
2013    2       10    16   2    4.37   406.3    6.2      26.239
2013    2       10    16   9    4.37   406.2    6.2      26.215
2013    2       10    16  15    4.37   406.1    6.2      26.190
2013    2       10    16  21    4.38   406.0    6.2      26.166
2013    2       10    16  28    4.38   406.0    6.2      26.141
2013    2       10    16  34    4.38   405.9    6.2      26.117
2013    2       10    16  41    4.38   405.8    6.2      26.092
2013    2       10    16  47    4.39   405.7    6.2      26.067
2013    2       10    16  54    4.39   405.6    6.2      26.043
2013    2       10    17   0    4.39   405.5    6.2      26.018
2013    2       10    17   6    4.39   405.5    6.2      25.994
2013    2       10    17  13    4.40   405.4    6.2      25.970
2013    2       10    17  19    4.40   405.3    6.2      25.945
2013    2       10    17  26    4.40   405.2    6.2      25.921
2013    2       10    17  32    4.40   405.1    6.2      25.897
2013    2       10    17  38    4.41   405.1    6.2      25.873
2013    2       10    17  45    4.41   405.0    6.2      25.850
2013    2       10    17  51    4.41   404.9    6.2      25.826
2013    2       10    17  58    4.41   404.8    6.2      25.803
2013    2       10    18   4    4.42   404.7    6.2      25.779
2013    2       10    18  10    4.42   404.7    6.2      25.757
2013    2       10    18  17    4.42   404.6    6.2      25.734
2013    2       10    18  23    4.42   404.5    6.2      25.712
2013    2       10    18  30    4.43   404.4    6.2      25.690
2013    2       10    18  36    4.43   404.4    6.2      25.668
2013    2       10    18  42    4.43   404.3    6.2      25.647
2013    2       10    18  49    4.43   404.2    6.3      25.626
2013    2       10    18  55    4.44   404.1    6.3      25.605
2013    2       10    19   2    4.44   404.1    6.3      25.585
2013    2       10    19   8    4.44   404.0    6.3      25.565
2013    2       10    19  14    4.44   403.9    6.3      25.546
2013    2       10    19  21    4.45   403.9    6.3      25.528
2013    2       10    19  27    4.45   403.8    6.3      25.509
2013    2       10    19  34    4.45   403.7    6.3      25.492
2013    2       10    19  40    4.45   403.6    6.3      25.475
2013    2       10    19  47    4.46   403.6    6.3      25.458
2013    2       10    19  53    4.46   403.5    6.3      25.443
2013    2       10    19  59    4.46   403.5    6.3      25.428
2013    2       10    20   6    4.46   403.4    6.3      25.414
2013    2       10    20  12    4.47   403.3    6.3      25.400
2013    2       10    20  19    4.47   403.3    6.3      25.388
2013    2       10    20  25    4.47   403.2    6.3      25.376
2013    2       10    20  32    4.47   403.2    6.3      25.365
2013    2       10    20  38    4.47   403.1    6.3      25.355
2013    2       10    20  44    4.48   403.0    6.3      25.346
2013    2       10    20  51    4.48   403.0    6.3      25.338
2013    2       10    20  57    4.48   402.9    6.3      25.331
2013    2       10    21   4    4.48   402.9    6.4      25.325
2013    2       10    21  10    4.48   402.8    6.4      25.320
2013    2       10    21  16    4.49   402.8    6.4      25.315
2013    2       10    21  23    4.49   402.7    6.4      25.311
2013    2       10    21  29    4.49   402.7    6.4      25.308
2013    2       10    21  36    4.49   402.6    6.4      25.306
2013    2       10    21  42    4.49   402.6    6.4      25.304
2013    2       10    21  49    4.50   402.5    6.4      25.303
2013    2       10    21  55    4.50   402.5    6.4      25.303
2013    2       10    22   1    4.50   402.4    6.4      25.303
2013    2       10    22   8    4.50   402.4    6.4      25.304
2013    2       10    22  14    4.50   402.3    6.4      25.306
2013    2       10    22  21    4.50   402.3    6.4      25.308
2013    2       10    22  27    4.51   402.2    6.4      25.311
2013    2       10    22  33    4.51   402.2    6.4      25.314
2013    2       10    22  40    4.51   402.1    6.4      25.317
2013    2       10    22  46    4.51   402.1    6.4      25.322
2013    2       10    22  53    4.51   402.0    6.4      25.326
2013    2       10    22  59    4.51   402.0    6.4      25.332
2013    2       10    23   5    4.52   401.9    6.4      25.337
2013    2       10    23  12    4.52   401.9    6.4      25.343
2013    2       10    23  18    4.52   401.9    6.4      25.350
2013    2       10    23  25    4.52   401.8    6.4      25.357
2013    2       10    23  31    4.52   401.8    6.4      25.365
2013    2       10    23  38    4.52   401.7    6.4      25.373
2013    2       10    23  44    4.52   401.7    6.4      25.381
2013    2       10    23  50    4.53   401.6    6.4      25.390
2013    2       10    23  57    4.53   401.6    6.4      25.400
2013    2       11     0   3    4.53   401.5    6.5      25.410
2013    2       11     0  10    4.53   401.5    6.5      25.420
2013    2       11     0  16    4.53   401.4    6.5      25.431
2013    2       11     0  22    4.53   401.4    6.5      25.442
2013    2       11     0  29    4.53   401.3    6.5      25.454
2013    2       11     0  35    4.53   401.3    6.5      25.466
2013    2       11     0  42    4.54   401.2    6.5      25.479
2013    2       11     0  48    4.54   401.2    6.5      25.492
2013    2       11     0  54    4.54   401.1    6.5      25.505
2013    2       11     1   1    4.54   401.1    6.5      25.519
2013    2       11     1   7    4.54   401.0    6.5      25.533
2013    2       11     1  14    4.54   401.0    6.5      25.548
2013    2       11     1  20    4.54   400.9    6.5      25.563
2013    2       11     1  26    4.54   400.9    6.5      25.578
2013    2       11     1  33    4.54   400.8    6.5      25.594
2013    2       11     1  39    4.54   400.8    6.5      25.610
2013    2       11     1  46    4.55   400.7    6.5      25.627
2013    2       11     1  52    4.55   400.7    6.5      25.643
2013    2       11     1  58    4.55   400.6    6.5      25.660
2013    2       11     2   5    4.55   400.6    6.5      25.677
2013    2       11     2  11    4.55   400.5    6.5      25.694
2013    2       11     2  18    4.55   400.5    6.5      25.712
2013    2       11     2  24    4.55   400.4    6.5      25.729
2013    2       11     2  31    4.55   400.4    6.5      25.747
2013    2       11     2  37    4.55   400.3    6.5      25.764
2013    2       11     2  43    4.55   400.3    6.5      25.781
2013    2       11     2  50    4.55   400.2    6.5      25.799
2013    2       11     2  56    4.55   400.2    6.5      25.816
2013    2       11     3   3    4.55   400.1    6.5      25.834
2013    2       11     3   9    4.56   400.1    6.5      25.851
2013    2       11     3  15    4.56   400.0    6.5      25.868
2013    2       11     3  22    4.56   399.9    6.5      25.884
2013    2       11     3  28    4.56   399.9    6.5      25.901
2013    2       11     3  35    4.56   399.8    6.5      25.917
2013    2       11     3  41    4.56   399.8    6.5      25.933
2013    2       11     3  48    4.56   399.7    6.5      25.949
2013    2       11     3  54    4.56   399.7    6.5      25.965
2013    2       11     4   0    4.56   399.6    6.5      25.980
2013    2       11     4   7    4.56   399.5    6.5      25.995
2013    2       11     4  13    4.56   399.5    6.5      26.010
2013    2       11     4  20    4.56   399.4    6.5      26.025
2013    2       11     4  26    4.56   399.4    6.6      26.039
2013    2       11     4  32    4.56   399.3    6.6      26.053
2013    2       11     4  39    4.56   399.2    6.6      26.067
2013    2       11     4  45    4.57   399.2    6.6      26.080
2013    2       11     4  52    4.57   399.1    6.6      26.093
2013    2       11     4  58    4.57   399.1    6.6      26.106
2013    2       11     5   5    4.57   399.0    6.6      26.118
2013    2       11     5  11    4.57   398.9    6.6      26.130
2013    2       11     5  17    4.57   398.9    6.6      26.141
2013    2       11     5  24    4.57   398.8    6.6      26.152
2013    2       11     5  30    4.57   398.8    6.6      26.162
2013    2       11     5  37    4.57   398.7    6.6      26.172
2013    2       11     5  43    4.57   398.7    6.6      26.182
2013    2       11     5  49    4.58   398.6    6.6      26.191
2013    2       11     5  56    4.58   398.6    6.6      26.200
2013    2       11     6   2    4.58   398.5    6.6      26.209
2013    2       11     6   9    4.58   398.4    6.6      26.217
2013    2       11     6  15    4.58   398.4    6.6      26.225
2013    2       11     6  21    4.58   398.4    6.6      26.233
2013    2       11     6  28    4.58   398.3    6.6      26.241
2013    2       11     6  34    4.58   398.3    6.7      26.249
2013    2       11     6  41    4.59   398.2    6.7      26.256
2013    2       11     6  47    4.59   398.2    6.7      26.263
2013    2       11     6  54    4.59   398.1    6.7      26.270
2013    2       11     7   0    4.59   398.1    6.7      26.277
2013    2       11     7   6    4.59   398.0    6.7      26.284
2013    2       11     7  13    4.59   398.0    6.7      26.291
2013    2       11     7  19    4.60   398.0    6.7      26.297
2013    2       11     7  26    4.60   397.9    6.7      26.304
2013    2       11     7  32    4.60   397.9    6.7      26.310
2013    2       11     7  38    4.60   397.8    6.7      26.316
2013    2       11     7  45    4.60   397.8    6.7      26.322
2013    2       11     7  51    4.61   397.8    6.7      26.328
2013    2       11     7  58    4.61   397.7    6.7      26.333
2013    2       11     8   4    4.61   397.7    6.7      26.339
2013    2       11     8  10    4.61   397.7    6.7      26.344
2013    2       11     8  17    4.61   397.6    6.7      26.350
2013    2       11     8  23    4.62   397.6    6.7      26.355
2013    2       11     8  30    4.62   397.6    6.7      26.360
2013    2       11     8  36    4.62   397.5    6.7      26.365
2013    2       11     8  42    4.62   397.5    6.7      26.370
2013    2       11     8  49    4.62   397.5    6.7      26.374
2013    2       11     8  55    4.63   397.4    6.8      26.379
2013    2       11     9   2    4.63   397.4    6.8      26.384
2013    2       11     9   8    4.63   397.4    6.8      26.389
2013    2       11     9  14    4.63   397.3    6.8      26.393
2013    2       11     9  21    4.63   397.3    6.8      26.398
2013    2       11     9  27    4.64   397.3    6.8      26.402
2013    2       11     9  34    4.64   397.2    6.8      26.406
2013    2       11     9  40    4.64   397.2    6.8      26.411
2013    2       11     9  46    4.64   397.2    6.8      26.415
2013    2       11     9  53    4.65   397.1    6.8      26.419
2013    2       11     9  59    4.65   397.1    6.8      26.424
2013    2       11    10   6    4.65   397.1    6.8      26.428
2013    2       11    10  12    4.65   397.0    6.8      26.432
2013    2       11    10  19    4.65   397.0    6.8      26.436
2013    2       11    10  25    4.66   397.0    6.8      26.441
2013    2       11    10  31    4.66   396.9    6.8      26.445
2013    2       11    10  38    4.66   396.9    6.8      26.449
2013    2       11    10  44    4.66   396.9    6.8      26.454
2013    2       11    10  51    4.67   396.8    6.8      26.458
2013    2       11    10  57    4.67   396.8    6.8      26.463
2013    2       11    11   3    4.67   396.8    6.8      26.467
2013    2       11    11  10    4.67   396.8    6.8      26.472
2013    2       11    11  16    4.68   396.7    6.8      26.477
2013    2       11    11  23    4.68   396.7    6.8      26.482
2013    2       11    11  29    4.68   396.7    6.8      26.487
2013    2       11    11  36    4.68   396.6    6.8      26.492
2013    2       11    11  42    4.68   396.6    6.8      26.497
2013    2       11    11  48    4.69   396.6    6.8      26.503
2013    2       11    11  55    4.69   396.6    6.8      26.509
2013    2       11    12   1    4.69   396.5    6.8      26.515
2013    2       11    12   8    4.69   396.5    6.8      26.521
2013    2       11    12  14    4.70   396.5    6.8      26.527
2013    2       11    12  20    4.70   396.4    6.8      26.534
2013    2       11    12  27    4.70   396.4    6.8      26.540
2013    2       11    12  33    4.70   396.4    6.8      26.547
2013    2       11    12  40    4.71   396.4    6.8      26.555
2013    2       11    12  46    4.71   396.3    6.8      26.562
2013    2       11    12  53    4.71   396.3    6.8      26.570
2013    2       11    12  59    4.71   396.3    6.8      26.578
2013    2       11    13   5    4.72   396.2    6.9      26.586
2013    2       11    13  12    4.72   396.2    6.9      26.595
2013    2       11    13  18    4.72   396.2    6.9      26.604
2013    2       11    13  25    4.72   396.2    6.9      26.613
2013    2       11    13  31    4.73   396.1    6.9      26.622
2013    2       11    13  37    4.73   396.1    6.9      26.632
2013    2       11    13  44    4.73   396.1    6.9      26.642
2013    2       11    13  50    4.73   396.1    6.9      26.652
2013    2       11    13  57    4.73   396.0    6.9      26.663
2013    2       11    14   3    4.74   396.0    6.9      26.674
2013    2       11    14   9    4.74   396.0    6.9      26.685
2013    2       11    14  16    4.74   396.0    6.9      26.696
2013    2       11    14  22    4.74   395.9    6.9      26.708
2013    2       11    14  29    4.75   395.9    6.9      26.720
2013    2       11    14  35    4.75   395.9    6.9      26.732
2013    2       11    14  41    4.75   395.9    6.9      26.744
2013    2       11    14  48    4.75   395.8    6.9      26.756
2013    2       11    14  54    4.76   395.8    6.9      26.769
2013    2       11    15   1    4.76   395.8    6.9      26.782
2013    2       11    15   7    4.76   395.8    6.9      26.795
2013    2       11    15  14    4.76   395.7    6.9      26.808
2013    2       11    15  20    4.77   395.7    6.9      26.821
2013    2       11    15  26    4.77   395.7    6.9      26.835
2013    2       11    15  33    4.77   395.7    6.9      26.849
2013    2       11    15  39    4.77   395.7    6.9      26.862
2013    2       11    15  46    4.78   395.6    6.9      26.876
2013    2       11    15  52    4.78   395.6    7.0      26.890
2013    2       11    15  58    4.78   395.6    7.0      26.904
2013    2       11    16   5    4.78   395.6    7.0      26.918
2013    2       11    16  11    4.79   395.6    7.0      26.933
2013    2       11    16  18    4.79   395.5    7.0      26.947
2013    2       11    16  24    4.79   395.5    7.0      26.961
2013    2       11    16  30    4.79   395.5    7.0      26.976
2013    2       11    16  37    4.80   395.5    7.0      26.990
2013    2       11    16  43    4.80   395.4    7.0      27.005
2013    2       11    16  50    4.80   395.4    7.0      27.019
2013    2       11    16  56    4.81   395.4    7.0      27.033
2013    2       11    17   2    4.81   395.4    7.0      27.048
2013    2       11    17   9    4.81   395.4    7.0      27.063
2013    2       11    17  15    4.81   395.4    7.0      27.077
2013    2       11    17  22    4.82   395.3    7.0      27.092
2013    2       11    17  28    4.82   395.3    7.0      27.108
2013    2       11    17  35    4.82   395.3    7.0      27.123
2013    2       11    17  41    4.82   395.3    7.1      27.139
2013    2       11    17  47    4.83   395.3    7.1      27.155
2013    2       11    17  54    4.83   395.3    7.1      27.171
2013    2       11    18   0    4.83   395.3    7.1      27.187
2013    2       11    18   7    4.83   395.2    7.1      27.204
2013    2       11    18  13    4.84   395.2    7.1      27.220
2013    2       11    18  19    4.84   395.2    7.1      27.237
2013    2       11    18  26    4.84   395.2    7.1      27.254
2013    2       11    18  32    4.84   395.2    7.1      27.271
2013    2       11    18  39    4.85   395.2    7.1      27.288
2013    2       11    18  45    4.85   395.2    7.1      27.306
2013    2       11    18  51    4.85   395.2    7.1      27.323
2013    2       11    18  58    4.85   395.1    7.1      27.340
2013    2       11    19   4    4.86   395.1    7.1      27.357
2013    2       11    19  11    4.86   395.1    7.1      27.373
2013    2       11    19  17    4.86   395.1    7.1      27.390
2013    2       11    19  24    4.86   395.1    7.1      27.407
2013    2       11    19  30    4.87   395.1    7.1      27.423
2013    2       11    19  36    4.87   395.1    7.2      27.439
2013    2       11    19  43    4.87   395.1    7.2      27.455
2013    2       11    19  49    4.87   395.1    7.2      27.471
2013    2       11    19  56    4.88   395.1    7.2      27.487
2013    2       11    20   2    4.88   395.0    7.2      27.502
2013    2       11    20   8    4.88   395.0    7.2      27.518
2013    2       11    20  15    4.88   395.0    7.2      27.533
2013    2       11    20  21    4.89   395.0    7.2      27.548
2013    2       11    20  28    4.89   395.0    7.2      27.563
2013    2       11    20  34    4.89   395.0    7.2      27.577
2013    2       11    20  41    4.89   395.0    7.2      27.592
2013    2       11    20  47    4.90   395.0    7.2      27.606
2013    2       11    20  53    4.90   395.0    7.2      27.620
2013    2       11    21   0    4.90   395.0    7.2      27.635
2013    2       11    21   6    4.90   395.0    7.2      27.649
2013    2       11    21  13    4.91   394.9    7.2      27.663
2013    2       11    21  19    4.91   394.9    7.2      27.677
2013    2       11    21  25    4.91   394.9    7.2      27.691
2013    2       11    21  32    4.91   394.9    7.2      27.705
2013    2       11    21  38    4.92   394.9    7.2      27.719
2013    2       11    21  45    4.92   394.9    7.2      27.733
2013    2       11    21  51    4.92   394.9    7.2      27.747
2013    2       11    21  57    4.93   394.9    7.2      27.762
2013    2       11    22   4    4.93   394.9    7.3      27.776
2013    2       11    22  10    4.93   394.9    7.3      27.790
2013    2       11    22  17    4.93   394.9    7.3      27.805
2013    2       11    22  23    4.94   394.9    7.3      27.819
2013    2       11    22  30    4.94   394.9    7.3      27.834
2013    2       11    22  36    4.94   394.9    7.3      27.849
2013    2       11    22  42    4.94   394.9    7.3      27.864
2013    2       11    22  49    4.95   394.9    7.3      27.879
2013    2       11    22  55    4.95   394.9    7.3      27.894
2013    2       11    23   2    4.95   394.9    7.3      27.909
2013    2       11    23   8    4.95   394.9    7.3      27.925
2013    2       11    23  14    4.96   394.9    7.3      27.940
2013    2       11    23  21    4.96   394.9    7.3      27.956
2013    2       11    23  27    4.96   394.9    7.3      27.972
2013    2       11    23  34    4.97   394.9    7.3      27.988
2013    2       11    23  40    4.97   394.9    7.3      28.004
2013    2       11    23  46    4.97   394.9    7.3      28.020
2013    2       11    23  53    4.97   394.9    7.3      28.036
2013    2       11    23  59    4.98   394.9    7.3      28.052
2013    2       12     0   6    4.98   394.9    7.3      28.069
2013    2       12     0  12    4.98   394.9    7.3      28.086
2013    2       12     0  18    4.98   394.9    7.3      28.103
2013    2       12     0  25    4.99   394.9    7.4      28.120
2013    2       12     0  31    4.99   394.9    7.4      28.137
2013    2       12     0  38    4.99   394.9    7.4      28.154
2013    2       12     0  44    5.00   394.9    7.4      28.172
2013    2       12     0  50    5.00   394.9    7.4      28.189
2013    2       12     0  57    5.00   394.9    7.4      28.207
2013    2       12     1   3    5.00   394.9    7.4      28.224
2013    2       12     1  10    5.01   395.0    7.4      28.242
2013    2       12     1  16    5.01   395.0    7.4      28.259
2013    2       12     1  23    5.01   395.0    7.4      28.277
2013    2       12     1  29    5.01   395.0    7.4      28.295
2013    2       12     1  35    5.02   395.0    7.4      28.313
2013    2       12     1  42    5.02   395.0    7.4      28.332
2013    2       12     1  48    5.02   395.0    7.4      28.350
2013    2       12     1  55    5.02   395.0    7.4      28.369
2013    2       12     2   1    5.03   395.0    7.4      28.387
2013    2       12     2   7    5.03   395.0    7.4      28.406
2013    2       12     2  14    5.03   395.1    7.4      28.424
2013    2       12     2  20    5.03   395.1    7.4      28.442
2013    2       12     2  27    5.04   395.1    7.4      28.460
2013    2       12     2  33    5.04   395.1    7.4      28.479
2013    2       12     2  39    5.04   395.1    7.5      28.496
2013    2       12     2  46    5.04   395.1    7.5      28.514
2013    2       12     2  52    5.05   395.1    7.5      28.532
2013    2       12     2  59    5.05   395.1    7.5      28.549
2013    2       12     3   5    5.05   395.1    7.5      28.566
2013    2       12     3  12    5.05   395.1    7.5      28.582
2013    2       12     3  18    5.06   395.1    7.5      28.598
2013    2       12     3  24    5.06   395.2    7.5      28.615
2013    2       12     3  31    5.06   395.2    7.5      28.630
2013    2       12     3  37    5.06   395.2    7.5      28.646
2013    2       12     3  44    5.07   395.2    7.5      28.662
2013    2       12     3  50    5.07   395.2    7.5      28.677
2013    2       12     3  56    5.07   395.2    7.5      28.692
2013    2       12     4   3    5.07   395.2    7.5      28.707
2013    2       12     4   9    5.07   395.2    7.5      28.722
2013    2       12     4  16    5.08   395.2    7.5      28.737
2013    2       12     4  22    5.08   395.2    7.5      28.751
2013    2       12     4  29    5.08   395.2    7.5      28.766
2013    2       12     4  35    5.08   395.3    7.5      28.780
2013    2       12     4  41    5.09   395.3    7.5      28.795
2013    2       12     4  48    5.09   395.3    7.5      28.809
2013    2       12     4  54    5.09   395.3    7.5      28.823
2013    2       12     5   1    5.09   395.3    7.5      28.838
2013    2       12     5   7    5.09   395.3    7.5      28.852
2013    2       12     5  13    5.10   395.3    7.5      28.867
2013    2       12     5  20    5.10   395.3    7.5      28.881
2013    2       12     5  26    5.10   395.3    7.5      28.896
2013    2       12     5  33    5.10   395.4    7.5      28.910
2013    2       12     5  39    5.10   395.4    7.5      28.925
2013    2       12     5  45    5.11   395.4    7.5      28.940
2013    2       12     5  52    5.11   395.4    7.5      28.955
2013    2       12     5  58    5.11   395.4    7.5      28.970
2013    2       12     6   5    5.11   395.4    7.5      28.985
2013    2       12     6  11    5.12   395.4    7.5      29.001
2013    2       12     6  17    5.12   395.5    7.6      29.016
2013    2       12     6  24    5.12   395.5    7.6      29.032
2013    2       12     6  30    5.12   395.5    7.6      29.047
2013    2       12     6  37    5.12   395.5    7.6      29.063
2013    2       12     6  43    5.13   395.5    7.6      29.080
2013    2       12     6  49    5.13   395.6    7.6      29.096
2013    2       12     6  56    5.13   395.6    7.6      29.112
2013    2       12     7   2    5.13   395.6    7.6      29.129
2013    2       12     7   9    5.13   395.6    7.6      29.146
2013    2       12     7  15    5.14   395.6    7.6      29.162
2013    2       12     7  21    5.14   395.7    7.6      29.180
2013    2       12     7  28    5.14   395.7    7.6      29.197
2013    2       12     7  34    5.14   395.7    7.6      29.215
2013    2       12     7  41    5.14   395.7    7.6      29.234
2013    2       12     7  47    5.15   395.8    7.6      29.252
2013    2       12     7  54    5.15   395.8    7.6      29.271
2013    2       12     8   0    5.15   395.8    7.6      29.291
2013    2       12     8   6    5.15   395.8    7.6      29.310
2013    2       12     8  13    5.16   395.9    7.6      29.330
2013    2       12     8  19    5.16   395.9    7.6      29.350
2013    2       12     8  26    5.16   395.9    7.6      29.371
2013    2       12     8  32    5.16   396.0    7.6      29.391
2013    2       12     8  38    5.16   396.0    7.6      29.412
2013    2       12     8  45    5.17   396.0    7.6      29.433
2013    2       12     8  51    5.17   396.0    7.7      29.455
2013    2       12     8  58    5.17   396.1    7.7      29.477
2013    2       12     9   4    5.17   396.1    7.7      29.500
2013    2       12     9  11    5.18   396.1    7.7      29.523
2013    2       12     9  17    5.18   396.2    7.7      29.546
2013    2       12     9  23    5.18   396.2    7.7      29.570
2013    2       12     9  30    5.18   396.3    7.7      29.594
2013    2       12     9  36    5.18   396.3    7.7      29.618
2013    2       12     9  43    5.19   396.3    7.7      29.642
2013    2       12     9  49    5.19   396.4    7.7      29.666
2013    2       12     9  55    5.19   396.4    7.7      29.689
2013    2       12    10   2    5.19   396.5    7.7      29.712
2013    2       12    10   8    5.19   396.5    7.7      29.736
2013    2       12    10  15    5.20   396.5    7.7      29.759
2013    2       12    10  21    5.20   396.6    7.7      29.781
2013    2       12    10  28    5.20   396.6    7.7      29.803
2013    2       12    10  34    5.20   396.7    7.7      29.824
2013    2       12    10  40    5.20   396.7    7.7      29.845
2013    2       12    10  47    5.20   396.7    7.7      29.864
2013    2       12    10  53    5.21   396.8    7.7      29.884
2013    2       12    11   0    5.21   396.8    7.7      29.902
2013    2       12    11   6    5.21   396.8    7.7      29.921
2013    2       12    11  12    5.21   396.9    7.7      29.938
2013    2       12    11  19    5.21   396.9    7.7      29.955
2013    2       12    11  25    5.21   396.9    7.7      29.972
2013    2       12    11  32    5.22   397.0    7.7      29.988
2013    2       12    11  38    5.22   397.0    7.7      30.004
2013    2       12    11  45    5.22   397.0    7.7      30.019
2013    2       12    11  51    5.22   397.1    7.7      30.034
2013    2       12    11  57    5.22   397.1    7.7      30.048
2013    2       12    12   4    5.22   397.1    7.7      30.063
2013    2       12    12  10    5.23   397.2    7.7      30.076
2013    2       12    12  17    5.23   397.2    7.7      30.090
2013    2       12    12  23    5.23   397.2    7.7      30.103
2013    2       12    12  29    5.23   397.3    7.7      30.116
2013    2       12    12  36    5.23   397.3    7.7      30.128
2013    2       12    12  42    5.23   397.3    7.7      30.141
2013    2       12    12  49    5.23   397.4    7.7      30.153
2013    2       12    12  55    5.24   397.4    7.7      30.165
2013    2       12    13   1    5.24   397.4    7.7      30.177
2013    2       12    13   8    5.24   397.4    7.7      30.188
2013    2       12    13  14    5.24   397.5    7.7      30.199
2013    2       12    13  21    5.24   397.5    7.7      30.210
2013    2       12    13  27    5.24   397.5    7.7      30.221
2013    2       12    13  33    5.25   397.6    7.7      30.232
2013    2       12    13  40    5.25   397.6    7.7      30.243
2013    2       12    13  46    5.25   397.6    7.7      30.254
2013    2       12    13  53    5.25   397.7    7.7      30.264
2013    2       12    13  59    5.25   397.7    7.8      30.274
2013    2       12    14   5    5.25   397.7    7.8      30.285
2013    2       12    14  12    5.25   397.7    7.8      30.295
2013    2       12    14  18    5.26   397.8    7.8      30.305
2013    2       12    14  25    5.26   397.8    7.8      30.315
2013    2       12    14  31    5.26   397.8    7.8      30.326
2013    2       12    14  37    5.26   397.9    7.8      30.336
2013    2       12    14  44    5.26   397.9    7.8      30.346
2013    2       12    14  50    5.26   397.9    7.8      30.357
2013    2       12    14  57    5.27   397.9    7.8      30.367
2013    2       12    15   3    5.27   398.0    7.8      30.378
2013    2       12    15  10    5.27   398.0    7.8      30.389
2013    2       12    15  16    5.27   398.0    7.8      30.400
2013    2       12    15  22    5.27   398.0    7.8      30.411
2013    2       12    15  29    5.27   398.1    7.8      30.423
2013    2       12    15  35    5.28   398.1    7.8      30.435
2013    2       12    15  42    5.28   398.1    7.8      30.447
2013    2       12    15  48    5.28   398.2    7.8      30.460
2013    2       12    15  54    5.28   398.2    7.8      30.473
2013    2       12    16   1    5.28   398.2    7.8      30.486
2013    2       12    16   7    5.28   398.3    7.8      30.500
2013    2       12    16  14    5.29   398.3    7.8      30.515
2013    2       12    16  20    5.29   398.3    7.8      30.529
2013    2       12    16  27    5.29   398.3    7.8      30.545
2013    2       12    16  33    5.29   398.4    7.8      30.561
2013    2       12    16  39    5.29   398.4    7.8      30.578
2013    2       12    16  46    5.30   398.5    7.8      30.596
2013    2       12    16  52    5.30   398.5    7.8      30.615
2013    2       12    16  59    5.30   398.5    7.8      30.634
2013    2       12    17   5    5.30   398.6    7.8      30.654
2013    2       12    17  11    5.30   398.6    7.8      30.674
2013    2       12    17  18    5.31   398.7    7.8      30.696
2013    2       12    17  24    5.31   398.7    7.8      30.718
2013    2       12    17  31    5.31   398.8    7.8      30.741
2013    2       12    17  37    5.31   398.8    7.8      30.764
2013    2       12    17  44    5.31   398.9    7.8      30.787
2013    2       12    17  50    5.32   398.9    7.8      30.811
2013    2       12    17  56    5.32   399.0    7.8      30.835
2013    2       12    18   3    5.32   399.0    7.8      30.858
2013    2       12    18   9    5.32   399.1    7.8      30.882
2013    2       12    18  16    5.32   399.2    7.9      30.905
2013    2       12    18  22    5.32   399.2    7.9      30.928
2013    2       12    18  28    5.33   399.3    7.9      30.950
2013    2       12    18  35    5.33   399.3    7.9      30.972
2013    2       12    18  41    5.33   399.4    7.9      30.994
2013    2       12    18  48    5.33   399.4    7.9      31.015
2013    2       12    18  54    5.33   399.5    7.9      31.036
2013    2       12    19   0    5.33   399.5    7.9      31.056
2013    2       12    19   7    5.33   399.6    7.9      31.075
2013    2       12    19  13    5.33   399.7    7.9      31.094
2013    2       12    19  20    5.34   399.7    7.9      31.113
2013    2       12    19  26    5.34   399.8    7.9      31.131
2013    2       12    19  32    5.34   399.8    7.9      31.149
2013    2       12    19  39    5.34   399.9    7.9      31.167
2013    2       12    19  45    5.34   399.9    7.9      31.184
2013    2       12    19  52    5.34   400.0    7.9      31.200
2013    2       12    19  58    5.34   400.0    7.9      31.217
2013    2       12    20   5    5.35   400.1    7.9      31.233
2013    2       12    20  11    5.35   400.1    7.9      31.249
2013    2       12    20  17    5.35   400.2    7.9      31.264
2013    2       12    20  24    5.35   400.2    7.9      31.280
2013    2       12    20  30    5.35   400.3    7.9      31.295
2013    2       12    20  37    5.35   400.3    7.9      31.310
2013    2       12    20  43    5.35   400.4    7.9      31.325
2013    2       12    20  49    5.35   400.4    7.9      31.340
2013    2       12    20  56    5.36   400.5    7.9      31.354
2013    2       12    21   2    5.36   400.6    7.9      31.369
2013    2       12    21   9    5.36   400.6    7.9      31.384
2013    2       12    21  15    5.36   400.7    7.9      31.399
2013    2       12    21  21    5.36   400.7    7.9      31.414
2013    2       12    21  28    5.36   400.8    7.9      31.430
2013    2       12    21  34    5.36   400.8    7.9      31.446
2013    2       12    21  41    5.36   400.9    7.9      31.462
2013    2       12    21  47    5.37   400.9    7.9      31.478
2013    2       12    21  53    5.37   401.0    7.9      31.495
2013    2       12    22   0    5.37   401.1    7.9      31.511
2013    2       12    22   6    5.37   401.1    7.9      31.528
2013    2       12    22  13    5.37   401.2    7.9      31.545
2013    2       12    22  19    5.37   401.2    7.9      31.562
2013    2       12    22  25    5.37   401.3    7.9      31.578
2013    2       12    22  32    5.37   401.3    7.9      31.595
2013    2       12    22  38    5.38   401.4    7.9      31.611
2013    2       12    22  45    5.38   401.4    7.9      31.627
2013    2       12    22  51    5.38   401.5    7.9      31.643
2013    2       12    22  58    5.38   401.6    7.9      31.659
2013    2       12    23   4    5.38   401.6    7.9      31.674
2013    2       12    23  10    5.38   401.7    7.9      31.689
2013    2       12    23  17    5.38   401.7    7.9      31.703
2013    2       12    23  23    5.38   401.8    7.9      31.717
2013    2       12    23  30    5.39   401.8    7.9      31.731
2013    2       12    23  36    5.39   401.9    7.9      31.745
2013    2       12    23  42    5.39   401.9    7.9      31.758
2013    2       12    23  49    5.39   402.0    7.9      31.771
2013    2       12    23  55    5.39   402.0    7.9      31.784
2013    2       13     0   2    5.39   402.1    7.9      31.796
2013    2       13     0   8    5.39   402.1    7.9      31.808
2013    2       13     0  15    5.39   402.2    7.9      31.820
2013    2       13     0  21    5.39   402.2    7.9      31.832
2013    2       13     0  27    5.40   402.3    7.9      31.844
2013    2       13     0  34    5.40   402.4    7.9      31.855
2013    2       13     0  40    5.40   402.4    7.9      31.866
2013    2       13     0  47    5.40   402.5    7.9      31.878
2013    2       13     0  53    5.40   402.5    7.9      31.889
2013    2       13     0  59    5.40   402.6    7.9      31.900
2013    2       13     1   6    5.40   402.6    7.9      31.910
2013    2       13     1  12    5.40   402.7    7.9      31.921
2013    2       13     1  19    5.40   402.7    7.9      31.932
2013    2       13     1  25    5.41   402.8    7.9      31.943
2013    2       13     1  32    5.41   402.8    7.9      31.953
2013    2       13     1  38    5.41   402.9    7.9      31.964
2013    2       13     1  44    5.41   402.9    7.9      31.974
2013    2       13     1  51    5.41   403.0    7.9      31.985
2013    2       13     1  57    5.41   403.0    7.9      31.995
2013    2       13     2   4    5.41   403.1    7.9      32.006
2013    2       13     2  10    5.41   403.1    7.9      32.017
2013    2       13     2  16    5.41   403.2    7.9      32.027
2013    2       13     2  23    5.42   403.2    7.9      32.038
2013    2       13     2  29    5.42   403.3    7.9      32.049
2013    2       13     2  36    5.42   403.3    7.9      32.060
2013    2       13     2  42    5.42   403.4    7.9      32.071
2013    2       13     2  48    5.42   403.4    7.9      32.083
2013    2       13     2  55    5.42   403.5    7.9      32.095
2013    2       13     3   1    5.42   403.5    7.9      32.108
2013    2       13     3   8    5.42   403.6    7.9      32.122
2013    2       13     3  14    5.42   403.7    7.9      32.135
2013    2       13     3  20    5.43   403.7    7.9      32.150
2013    2       13     3  27    5.43   403.8    7.9      32.164
2013    2       13     3  33    5.43   403.8    7.9      32.178
2013    2       13     3  40    5.43   403.9    7.9      32.193
2013    2       13     3  46    5.43   404.0    7.9      32.208
2013    2       13     3  53    5.43   404.0    7.9      32.223
2013    2       13     3  59    5.43   404.1    7.9      32.237
2013    2       13     4   5    5.43   404.2    7.9      32.252
2013    2       13     4  12    5.43   404.2    7.9      32.267
2013    2       13     4  18    5.43   404.3    7.9      32.281
2013    2       13     4  25    5.43   404.3    7.9      32.296
2013    2       13     4  31    5.44   404.4    7.9      32.310
2013    2       13     4  37    5.44   404.5    7.9      32.323
2013    2       13     4  44    5.44   404.5    7.9      32.337
2013    2       13     4  50    5.44   404.6    7.9      32.350
2013    2       13     4  57    5.44   404.7    7.9      32.364
2013    2       13     5   3    5.44   404.7    7.9      32.377
2013    2       13     5   9    5.44   404.8    7.9      32.390
2013    2       13     5  16    5.44   404.8    7.9      32.404
2013    2       13     5  22    5.44   404.9    7.9      32.417
2013    2       13     5  29    5.44   405.0    7.9      32.430
2013    2       13     5  35    5.44   405.0    7.9      32.444
2013    2       13     5  41    5.44   405.1    7.9      32.457
2013    2       13     5  48    5.44   405.1    7.9      32.470
2013    2       13     5  54    5.44   405.2    7.9      32.484
2013    2       13     6   1    5.44   405.3    7.9      32.497
2013    2       13     6   7    5.44   405.3    7.9      32.510
2013    2       13     6  13    5.44   405.4    7.9      32.524
2013    2       13     6  20    5.44   405.5    7.9      32.537
2013    2       13     6  26    5.45   405.5    7.9      32.550
2013    2       13     6  33    5.45   405.6    7.9      32.563
2013    2       13     6  39    5.45   405.6    7.9      32.576
2013    2       13     6  46    5.45   405.7    7.9      32.589
2013    2       13     6  52    5.45   405.8    7.9      32.602
2013    2       13     6  58    5.45   405.8    7.9      32.614
2013    2       13     7   5    5.45   405.9    7.9      32.627
2013    2       13     7  11    5.45   406.0    7.9      32.640
2013    2       13     7  18    5.45   406.0    7.9      32.652
2013    2       13     7  24    5.45   406.1    7.9      32.664
2013    2       13     7  30    5.45   406.1    7.9      32.676
2013    2       13     7  37    5.45   406.2    7.9      32.688
2013    2       13     7  43    5.45   406.3    7.9      32.700
2013    2       13     7  50    5.45   406.3    7.9      32.712
2013    2       13     7  56    5.45   406.4    7.9      32.723
2013    2       13     8   3    5.45   406.5    7.9      32.734
2013    2       13     8   9    5.45   406.5    7.9      32.746
2013    2       13     8  15    5.45   406.6    7.9      32.757
2013    2       13     8  22    5.45   406.6    7.8      32.768
2013    2       13     8  28    5.45   406.7    7.8      32.779
2013    2       13     8  35    5.45   406.8    7.8      32.789
2013    2       13     8  41    5.45   406.8    7.8      32.799
2013    2       13     8  47    5.45   406.9    7.8      32.810
2013    2       13     8  54    5.45   407.0    7.8      32.820
2013    2       13     9   0    5.45   407.0    7.8      32.829
2013    2       13     9   7    5.45   407.1    7.8      32.839
2013    2       13     9  13    5.45   407.1    7.8      32.848
2013    2       13     9  20    5.45   407.2    7.8      32.857
2013    2       13     9  26    5.45   407.3    7.8      32.866
2013    2       13     9  32    5.45   407.3    7.8      32.875
2013    2       13     9  39    5.46   407.4    7.8      32.883
2013    2       13     9  45    5.46   407.4    7.8      32.891
2013    2       13     9  52    5.46   407.5    7.8      32.899
2013    2       13     9  58    5.46   407.5    7.8      32.907
2013    2       13    10   4    5.46   407.6    7.8      32.914
2013    2       13    10  11    5.46   407.7    7.8      32.922
2013    2       13    10  17    5.46   407.7    7.8      32.929
2013    2       13    10  24    5.46   407.8    7.8      32.936
2013    2       13    10  30    5.46   407.8    7.8      32.943
2013    2       13    10  36    5.46   407.9    7.8      32.950
2013    2       13    10  43    5.46   407.9    7.8      32.956
2013    2       13    10  49    5.46   408.0    7.8      32.963
2013    2       13    10  56    5.46   408.0    7.8      32.970
2013    2       13    11   2    5.46   408.1    7.8      32.976
2013    2       13    11   8    5.46   408.2    7.8      32.983
2013    2       13    11  15    5.46   408.2    7.8      32.989
2013    2       13    11  21    5.46   408.3    7.8      32.995
2013    2       13    11  28    5.46   408.3    7.8      33.001
2013    2       13    11  34    5.46   408.4    7.8      33.007
2013    2       13    11  40    5.46   408.4    7.8      33.013
2013    2       13    11  47    5.46   408.5    7.8      33.019
2013    2       13    11  53    5.46   408.5    7.8      33.025
2013    2       13    12   0    5.46   408.6    7.8      33.031
2013    2       13    12   6    5.46   408.6    7.8      33.036
2013    2       13    12  12    5.46   408.7    7.8      33.041
2013    2       13    12  19    5.46   408.7    7.8      33.047
2013    2       13    12  25    5.46   408.8    7.8      33.052
2013    2       13    12  32    5.46   408.8    7.8      33.057
2013    2       13    12  38    5.46   408.9    7.8      33.062
2013    2       13    12  45    5.46   409.0    7.7      33.067
2013    2       13    12  51    5.46   409.0    7.7      33.072
2013    2       13    12  57    5.46   409.1    7.7      33.077
2013    2       13    13   4    5.46   409.1    7.7      33.081
2013    2       13    13  10    5.46   409.2    7.7      33.086
2013    2       13    13  17    5.46   409.2    7.7      33.091
2013    2       13    13  23    5.46   409.3    7.7      33.096
2013    2       13    13  29    5.46   409.3    7.7      33.101
2013    2       13    13  36    5.46   409.3    7.7      33.106
2013    2       13    13  42    5.46   409.4    7.7      33.111
2013    2       13    13  49    5.46   409.4    7.7      33.116
2013    2       13    13  55    5.46   409.5    7.7      33.121
2013    2       13    14   2    5.46   409.5    7.7      33.126
2013    2       13    14   8    5.46   409.6    7.7      33.132
2013    2       13    14  14    5.45   409.6    7.7      33.137
2013    2       13    14  21    5.45   409.7    7.7      33.143
2013    2       13    14  27    5.45   409.7    7.7      33.148
2013    2       13    14  34    5.45   409.8    7.7      33.154
2013    2       13    14  40    5.45   409.8    7.7      33.160
2013    2       13    14  46    5.45   409.9    7.7      33.166
2013    2       13    14  53    5.45   409.9    7.7      33.172
2013    2       13    14  59    5.45   410.0    7.7      33.178
2013    2       13    15   6    5.45   410.0    7.7      33.184
2013    2       13    15  12    5.45   410.1    7.7      33.191
2013    2       13    15  19    5.45   410.1    7.7      33.197
2013    2       13    15  25    5.45   410.2    7.7      33.204
2013    2       13    15  31    5.45   410.2    7.7      33.210
2013    2       13    15  38    5.45   410.2    7.7      33.217
2013    2       13    15  44    5.45   410.3    7.7      33.224
2013    2       13    15  51    5.45   410.3    7.7      33.231
2013    2       13    15  57    5.45   410.4    7.7      33.238
2013    2       13    16   3    5.45   410.4    7.7      33.245
2013    2       13    16  10    5.45   410.5    7.7      33.252
2013    2       13    16  16    5.45   410.5    7.7      33.259
2013    2       13    16  23    5.45   410.6    7.7      33.266
2013    2       13    16  29    5.45   410.6    7.7      33.274
2013    2       13    16  35    5.45   410.6    7.7      33.281
2013    2       13    16  42    5.45   410.7    7.7      33.289
2013    2       13    16  48    5.45   410.7    7.7      33.296
2013    2       13    16  55    5.45   410.8    7.7      33.303
2013    2       13    17   1    5.45   410.8    7.7      33.311
2013    2       13    17   8    5.45   410.9    7.7      33.318
2013    2       13    17  14    5.45   410.9    7.7      33.325
2013    2       13    17  20    5.45   410.9    7.7      33.332
2013    2       13    17  27    5.45   411.0    7.7      33.339
2013    2       13    17  33    5.45   411.0    7.6      33.346
2013    2       13    17  40    5.45   411.1    7.6      33.353
2013    2       13    17  46    5.45   411.1    7.6      33.360
2013    2       13    17  52    5.45   411.2    7.6      33.367
2013    2       13    17  59    5.45   411.2    7.6      33.373
2013    2       13    18   5    5.45   411.2    7.6      33.380
2013    2       13    18  12    5.45   411.3    7.6      33.386
2013    2       13    18  18    5.45   411.3    7.6      33.392
2013    2       13    18  24    5.45   411.3    7.6      33.399
2013    2       13    18  31    5.45   411.4    7.6      33.405
2013    2       13    18  37    5.45   411.4    7.6      33.411
2013    2       13    18  44    5.45   411.5    7.6      33.416
2013    2       13    18  50    5.44   411.5    7.6      33.422
2013    2       13    18  56    5.44   411.5    7.6      33.428
2013    2       13    19   3    5.44   411.6    7.6      33.433
2013    2       13    19   9    5.44   411.6    7.6      33.438
2013    2       13    19  16    5.44   411.7    7.6      33.444
2013    2       13    19  22    5.44   411.7    7.6      33.449
2013    2       13    19  28    5.44   411.7    7.6      33.453
2013    2       13    19  35    5.44   411.8    7.6      33.458
2013    2       13    19  41    5.44   411.8    7.6      33.463
2013    2       13    19  48    5.44   411.8    7.6      33.468
2013    2       13    19  54    5.44   411.9    7.6      33.472
2013    2       13    20   0    5.44   411.9    7.6      33.476
2013    2       13    20   7    5.44   411.9    7.6      33.481
2013    2       13    20  13    5.44   412.0    7.6      33.485
2013    2       13    20  20    5.44   412.0    7.6      33.489
2013    2       13    20  26    5.44   412.1    7.6      33.493
2013    2       13    20  33    5.44   412.1    7.6      33.497
2013    2       13    20  39    5.44   412.1    7.6      33.501
2013    2       13    20  45    5.44   412.2    7.6      33.505
2013    2       13    20  52    5.44   412.2    7.6      33.509
2013    2       13    20  58    5.44   412.2    7.6      33.514
2013    2       13    21   5    5.44   412.3    7.6      33.518
2013    2       13    21  11    5.44   412.3    7.6      33.522
2013    2       13    21  17    5.44   412.3    7.6      33.526
2013    2       13    21  24    5.44   412.4    7.6      33.530
2013    2       13    21  30    5.44   412.4    7.6      33.535
2013    2       13    21  37    5.44   412.5    7.6      33.539
2013    2       13    21  43    5.44   412.5    7.6      33.543
2013    2       13    21  50    5.44   412.5    7.6      33.547
2013    2       13    21  56    5.44   412.6    7.6      33.552
2013    2       13    22   2    5.44   412.6    7.6      33.556
2013    2       13    22   9    5.44   412.6    7.6      33.560
2013    2       13    22  15    5.44   412.7    7.6      33.564
2013    2       13    22  22    5.44   412.7    7.6      33.568
2013    2       13    22  28    5.43   412.7    7.6      33.573
2013    2       13    22  34    5.43   412.8    7.6      33.577
2013    2       13    22  41    5.43   412.8    7.5      33.581
2013    2       13    22  47    5.43   412.8    7.5      33.585
2013    2       13    22  54    5.43   412.9    7.5      33.589
2013    2       13    23   0    5.43   412.9    7.5      33.594
2013    2       13    23   7    5.43   413.0    7.5      33.598
2013    2       13    23  13    5.43   413.0    7.5      33.602
2013    2       13    23  19    5.43   413.0    7.5      33.607
2013    2       13    23  26    5.43   413.1    7.5      33.611
2013    2       13    23  32    5.43   413.1    7.5      33.616
2013    2       13    23  39    5.43   413.1    7.5      33.621
2013    2       13    23  45    5.43   413.2    7.5      33.626
2013    2       13    23  51    5.43   413.2    7.5      33.630
2013    2       13    23  58    5.43   413.2    7.5      33.635
2013    2       14     0   4    5.43   413.3    7.5      33.640
2013    2       14     0  11    5.43   413.3    7.5      33.646
2013    2       14     0  17    5.43   413.3    7.5      33.651
2013    2       14     0  23    5.43   413.3    7.5      33.656
2013    2       14     0  30    5.43   413.4    7.5      33.662
2013    2       14     0  36    5.43   413.4    7.5      33.667
2013    2       14     0  43    5.43   413.4    7.5      33.673
2013    2       14     0  49    5.43   413.5    7.5      33.679
2013    2       14     0  56    5.43   413.5    7.5      33.685
2013    2       14     1   2    5.43   413.5    7.5      33.690
2013    2       14     1   8    5.43   413.6    7.5      33.697
2013    2       14     1  15    5.43   413.6    7.5      33.703
2013    2       14     1  21    5.43   413.6    7.5      33.709
2013    2       14     1  28    5.43   413.7    7.5      33.715
2013    2       14     1  34    5.43   413.7    7.5      33.721
2013    2       14     1  40    5.43   413.7    7.5      33.728
2013    2       14     1  47    5.42   413.8    7.5      33.734
2013    2       14     1  53    5.42   413.8    7.5      33.740
2013    2       14     2   0    5.42   413.8    7.5      33.747
2013    2       14     2   6    5.42   413.8    7.5      33.753
2013    2       14     2  12    5.42   413.9    7.5      33.760
2013    2       14     2  19    5.42   413.9    7.5      33.766
2013    2       14     2  25    5.42   413.9    7.5      33.772
2013    2       14     2  32    5.42   414.0    7.5      33.779
2013    2       14     2  38    5.42   414.0    7.5      33.785
2013    2       14     2  44    5.42   414.0    7.5      33.791
2013    2       14     2  51    5.42   414.0    7.5      33.797
2013    2       14     2  57    5.42   414.1    7.5      33.803
2013    2       14     3   4    5.42   414.1    7.5      33.810
2013    2       14     3  10    5.42   414.1    7.5      33.816
2013    2       14     3  16    5.42   414.2    7.5      33.821
2013    2       14     3  23    5.42   414.2    7.5      33.827
2013    2       14     3  29    5.42   414.2    7.5      33.833
2013    2       14     3  36    5.42   414.3    7.5      33.839
2013    2       14     3  42    5.42   414.3    7.5      33.845
2013    2       14     3  48    5.42   414.3    7.5      33.850
2013    2       14     3  55    5.42   414.3    7.5      33.856
2013    2       14     4   1    5.42   414.4    7.5      33.861
2013    2       14     4   8    5.42   414.4    7.5      33.867
2013    2       14     4  14    5.42   414.4    7.5      33.872
2013    2       14     4  21    5.42   414.5    7.5      33.877
2013    2       14     4  27    5.42   414.5    7.5      33.883
2013    2       14     4  33    5.42   414.5    7.5      33.888
2013    2       14     4  40    5.42   414.5    7.5      33.893
2013    2       14     4  46    5.42   414.6    7.5      33.898
2013    2       14     4  53    5.42   414.6    7.5      33.903
2013    2       14     4  59    5.42   414.6    7.5      33.909
2013    2       14     5   5    5.42   414.7    7.5      33.914
2013    2       14     5  12    5.42   414.7    7.5      33.919
2013    2       14     5  18    5.42   414.7    7.5      33.925
2013    2       14     5  25    5.42   414.8    7.5      33.930
2013    2       14     5  31    5.42   414.8    7.5      33.936
2013    2       14     5  38    5.42   414.8    7.5      33.941
2013    2       14     5  44    5.42   414.9    7.5      33.946
2013    2       14     5  50    5.42   414.9    7.5      33.952
2013    2       14     5  57    5.42   414.9    7.5      33.957
2013    2       14     6   3    5.42   414.9    7.5      33.963
2013    2       14     6  10    5.42   415.0    7.5      33.968
2013    2       14     6  16    5.42   415.0    7.5      33.974
2013    2       14     6  22    5.42   415.0    7.5      33.979
2013    2       14     6  29    5.41   415.1    7.5      33.985
2013    2       14     6  35    5.41   415.1    7.5      33.990
2013    2       14     6  42    5.41   415.1    7.5      33.995
2013    2       14     6  48    5.41   415.2    7.4      34.000
2013    2       14     6  55    5.41   415.2    7.4      34.005
2013    2       14     7   1    5.41   415.2    7.4      34.010
2013    2       14     7   7    5.41   415.3    7.4      34.015
2013    2       14     7  14    5.41   415.3    7.4      34.021
2013    2       14     7  20    5.41   415.3    7.4      34.025
2013    2       14     7  27    5.41   415.4    7.4      34.031
2013    2       14     7  33    5.41   415.4    7.4      34.035
2013    2       14     7  39    5.41   415.4    7.4      34.040
2013    2       14     7  46    5.41   415.5    7.4      34.045
2013    2       14     7  52    5.41   415.5    7.4      34.050
2013    2       14     7  59    5.41   415.5    7.4      34.055
2013    2       14     8   5    5.41   415.6    7.4      34.060
2013    2       14     8  11    5.41   415.6    7.4      34.065
2013    2       14     8  18    5.41   415.6    7.4      34.070
2013    2       14     8  24    5.41   415.7    7.4      34.076
2013    2       14     8  31    5.41   415.7    7.4      34.081
2013    2       14     8  37    5.41   415.7    7.4      34.086
2013    2       14     8  43    5.41   415.7    7.4      34.091
2013    2       14     8  50    5.41   415.8    7.4      34.096
2013    2       14     8  56    5.41   415.8    7.4      34.101
2013    2       14     9   3    5.41   415.8    7.4      34.107
2013    2       14     9   9    5.41   415.9    7.4      34.112
2013    2       14     9  16    5.41   415.9    7.4      34.117
2013    2       14     9  22    5.41   415.9    7.4      34.123
2013    2       14     9  28    5.40   416.0    7.4      34.128
2013    2       14     9  35    5.40   416.0    7.4      34.134
2013    2       14     9  41    5.40   416.0    7.4      34.139
2013    2       14     9  48    5.40   416.0    7.4      34.145
2013    2       14     9  54    5.40   416.1    7.4      34.150
2013    2       14    10   0    5.40   416.1    7.4      34.156
2013    2       14    10   7    5.40   416.1    7.4      34.162
2013    2       14    10  13    5.40   416.2    7.4      34.167
2013    2       14    10  20    5.40   416.2    7.4      34.173
2013    2       14    10  26    5.40   416.2    7.4      34.178
2013    2       14    10  32    5.40   416.3    7.4      34.184
2013    2       14    10  39    5.40   416.3    7.4      34.190
2013    2       14    10  45    5.40   416.3    7.4      34.195
2013    2       14    10  52    5.40   416.4    7.4      34.201
2013    2       14    10  58    5.40   416.4    7.4      34.207
2013    2       14    11   4    5.40   416.4    7.4      34.212
2013    2       14    11  11    5.40   416.4    7.4      34.218
2013    2       14    11  17    5.40   416.5    7.4      34.223
2013    2       14    11  24    5.40   416.5    7.4      34.229
2013    2       14    11  30    5.40   416.5    7.4      34.235
2013    2       14    11  37    5.40   416.6    7.4      34.240
2013    2       14    11  43    5.40   416.6    7.4      34.246
2013    2       14    11  49    5.40   416.6    7.4      34.251
2013    2       14    11  56    5.40   416.7    7.4      34.256
2013    2       14    12   2    5.40   416.7    7.4      34.262
2013    2       14    12   9    5.40   416.7    7.4      34.267
2013    2       14    12  15    5.40   416.7    7.4      34.273
2013    2       14    12  21    5.40   416.8    7.4      34.278
2013    2       14    12  28    5.40   416.8    7.4      34.283
2013    2       14    12  34    5.40   416.8    7.4      34.288
2013    2       14    12  41    5.40   416.9    7.4      34.294
2013    2       14    12  47    5.40   416.9    7.4      34.299
2013    2       14    12  54    5.40   416.9    7.4      34.304
2013    2       14    13   0    5.39   417.0    7.4      34.309
2013    2       14    13   6    5.39   417.0    7.4      34.314
2013    2       14    13  13    5.39   417.0    7.4      34.319
2013    2       14    13  19    5.39   417.0    7.4      34.324
2013    2       14    13  26    5.39   417.1    7.4      34.329
2013    2       14    13  32    5.39   417.1    7.4      34.334
2013    2       14    13  38    5.39   417.1    7.4      34.339
2013    2       14    13  45    5.39   417.2    7.4      34.343
2013    2       14    13  51    5.39   417.2    7.4      34.348
2013    2       14    13  58    5.39   417.2    7.4      34.353
2013    2       14    14   4    5.39   417.3    7.4      34.358
2013    2       14    14  10    5.39   417.3    7.4      34.362
2013    2       14    14  17    5.39   417.3    7.4      34.367
2013    2       14    14  23    5.39   417.4    7.4      34.372
2013    2       14    14  30    5.39   417.4    7.4      34.376
2013    2       14    14  36    5.39   417.4    7.4      34.381
2013    2       14    14  43    5.39   417.5    7.4      34.386
2013    2       14    14  49    5.39   417.5    7.3      34.390
2013    2       14    14  55    5.39   417.5    7.3      34.395
2013    2       14    15   2    5.39   417.5    7.3      34.399
2013    2       14    15   8    5.39   417.6    7.3      34.404
2013    2       14    15  15    5.39   417.6    7.3      34.409
2013    2       14    15  21    5.39   417.6    7.3      34.413
2013    2       14    15  27    5.39   417.7    7.3      34.418
2013    2       14    15  34    5.39   417.7    7.3      34.423
2013    2       14    15  40    5.39   417.7    7.3      34.427
2013    2       14    15  47    5.38   417.8    7.3      34.432
2013    2       14    15  53    5.38   417.8    7.3      34.437
2013    2       14    15  59    5.38   417.8    7.3      34.441
2013    2       14    16   6    5.38   417.9    7.3      34.446
2013    2       14    16  12    5.38   417.9    7.3      34.451
2013    2       14    16  19    5.38   417.9    7.3      34.455
2013    2       14    16  25    5.38   418.0    7.3      34.460
2013    2       14    16  31    5.38   418.0    7.3      34.465
2013    2       14    16  38    5.38   418.0    7.3      34.469
2013    2       14    16  44    5.38   418.0    7.3      34.474
2013    2       14    16  51    5.38   418.1    7.3      34.479
2013    2       14    16  57    5.38   418.1    7.3      34.483
2013    2       14    17   3    5.38   418.1    7.3      34.488
2013    2       14    17  10    5.38   418.2    7.3      34.492
2013    2       14    17  16    5.38   418.2    7.3      34.497
2013    2       14    17  23    5.38   418.2    7.3      34.501
2013    2       14    17  29    5.38   418.3    7.3      34.506
2013    2       14    17  36    5.38   418.3    7.3      34.510
2013    2       14    17  42    5.38   418.3    7.3      34.515
2013    2       14    17  48    5.38   418.4    7.3      34.519
2013    2       14    17  55    5.38   418.4    7.3      34.524
2013    2       14    18   1    5.37   418.4    7.3      34.528
2013    2       14    18   8    5.37   418.4    7.3      34.533
2013    2       14    18  14    5.37   418.5    7.3      34.537
2013    2       14    18  20    5.37   418.5    7.3      34.541
2013    2       14    18  27    5.37   418.5    7.3      34.546
2013    2       14    18  33    5.37   418.6    7.3      34.550
2013    2       14    18  40    5.37   418.6    7.3      34.554
2013    2       14    18  46    5.37   418.6    7.3      34.559
2013    2       14    18  52    5.37   418.7    7.3      34.563
2013    2       14    18  59    5.37   418.7    7.3      34.567
2013    2       14    19   5    5.37   418.7    7.3      34.571
2013    2       14    19  12    5.37   418.8    7.3      34.576
2013    2       14    19  18    5.37   418.8    7.3      34.580
2013    2       14    19  25    5.37   418.8    7.3      34.584
2013    2       14    19  31    5.37   418.8    7.3      34.588
2013    2       14    19  37    5.37   418.9    7.3      34.592
2013    2       14    19  44    5.37   418.9    7.3      34.596
2013    2       14    19  50    5.37   418.9    7.3      34.600
2013    2       14    19  57    5.37   419.0    7.3      34.604
2013    2       14    20   3    5.36   419.0    7.3      34.608
2013    2       14    20   9    5.36   419.0    7.3      34.612
2013    2       14    20  16    5.36   419.1    7.3      34.616
2013    2       14    20  22    5.36   419.1    7.3      34.620
2013    2       14    20  29    5.36   419.1    7.3      34.624
2013    2       14    20  35    5.36   419.1    7.3      34.628
2013    2       14    20  42    5.36   419.2    7.3      34.632
2013    2       14    20  48    5.36   419.2    7.3      34.636
2013    2       14    20  54    5.36   419.2    7.3      34.640
2013    2       14    21   1    5.36   419.3    7.3      34.644
2013    2       14    21   7    5.36   419.3    7.3      34.649
2013    2       14    21  14    5.36   419.3    7.3      34.653
2013    2       14    21  20    5.36   419.4    7.3      34.657
2013    2       14    21  26    5.36   419.4    7.3      34.661
2013    2       14    21  33    5.36   419.4    7.3      34.665
2013    2       14    21  39    5.36   419.4    7.3      34.669
2013    2       14    21  46    5.36   419.5    7.3      34.673
2013    2       14    21  52    5.36   419.5    7.2      34.677
2013    2       14    21  58    5.35   419.5    7.2      34.681
2013    2       14    22   5    5.35   419.6    7.2      34.685
2013    2       14    22  11    5.35   419.6    7.2      34.689
2013    2       14    22  18    5.35   419.6    7.2      34.693
2013    2       14    22  24    5.35   419.6    7.2      34.697
2013    2       14    22  31    5.35   419.7    7.2      34.701
2013    2       14    22  37    5.35   419.7    7.2      34.705
2013    2       14    22  43    5.35   419.7    7.2      34.709
2013    2       14    22  50    5.35   419.8    7.2      34.713
2013    2       14    22  56    5.35   419.8    7.2      34.717
2013    2       14    23   3    5.35   419.8    7.2      34.721
2013    2       14    23   9    5.35   419.9    7.2      34.725
2013    2       14    23  15    5.35   419.9    7.2      34.729
2013    2       14    23  22    5.35   419.9    7.2      34.733
2013    2       14    23  28    5.35   419.9    7.2      34.736
2013    2       14    23  35    5.34   420.0    7.2      34.740
2013    2       14    23  41    5.34   420.0    7.2      34.744
2013    2       14    23  47    5.34   420.0    7.2      34.748
2013    2       14    23  54    5.34   420.1    7.2      34.752
2013    2       15     0   0    5.34   420.1    7.2      34.756
2013    2       15     0   7    5.34   420.1    7.2      34.759
2013    2       15     0  13    5.34   420.2    7.2      34.763
2013    2       15     0  19    5.34   420.2    7.2      34.767
2013    2       15     0  26    5.34   420.2    7.2      34.771
2013    2       15     0  32    5.34   420.2    7.2      34.774
2013    2       15     0  39    5.34   420.3    7.2      34.778
2013    2       15     0  45    5.34   420.3    7.2      34.782
2013    2       15     0  51    5.34   420.3    7.2      34.785
2013    2       15     0  58    5.34   420.4    7.2      34.789
2013    2       15     1   4    5.33   420.4    7.2      34.792
2013    2       15     1  11    5.33   420.4    7.2      34.796
2013    2       15     1  17    5.33   420.4    7.2      34.800
2013    2       15     1  23    5.33   420.5    7.2      34.803
2013    2       15     1  30    5.33   420.5    7.2      34.807
2013    2       15     1  36    5.33   420.5    7.2      34.810
2013    2       15     1  43    5.33   420.6    7.2      34.813
2013    2       15     1  49    5.33   420.6    7.2      34.817
2013    2       15     1  56    5.33   420.6    7.2      34.820
2013    2       15     2   2    5.33   420.7    7.2      34.823
2013    2       15     2   8    5.33   420.7    7.2      34.827
2013    2       15     2  15    5.33   420.7    7.2      34.830
2013    2       15     2  21    5.32   420.7    7.2      34.833
2013    2       15     2  28    5.32   420.8    7.2      34.836
2013    2       15     2  34    5.32   420.8    7.2      34.839
2013    2       15     2  40    5.32   420.8    7.2      34.842
2013    2       15     2  47    5.32   420.9    7.2      34.845
2013    2       15     2  53    5.32   420.9    7.2      34.848
2013    2       15     3   0    5.32   420.9    7.2      34.851
2013    2       15     3   6    5.32   420.9    7.2      34.854
2013    2       15     3  13    5.32   421.0    7.2      34.857
2013    2       15     3  19    5.32   421.0    7.2      34.859
2013    2       15     3  25    5.32   421.0    7.2      34.862
2013    2       15     3  32    5.32   421.1    7.2      34.865
2013    2       15     3  38    5.31   421.1    7.2      34.867
2013    2       15     3  45    5.31   421.1    7.2      34.870
2013    2       15     3  51    5.31   421.1    7.2      34.872
2013    2       15     3  57    5.31   421.2    7.2      34.875
2013    2       15     4   4    5.31   421.2    7.2      34.877
2013    2       15     4  10    5.31   421.2    7.2      34.879
2013    2       15     4  17    5.31   421.3    7.1      34.881
2013    2       15     4  23    5.31   421.3    7.1      34.884
2013    2       15     4  30    5.31   421.3    7.1      34.886
2013    2       15     4  36    5.31   421.3    7.1      34.888
2013    2       15     4  42    5.31   421.4    7.1      34.890
2013    2       15     4  49    5.30   421.4    7.1      34.892
2013    2       15     4  55    5.30   421.4    7.1      34.894
2013    2       15     5   2    5.30   421.4    7.1      34.897
2013    2       15     5   8    5.30   421.5    7.1      34.899
2013    2       15     5  14    5.30   421.5    7.1      34.901
2013    2       15     5  21    5.30   421.5    7.1      34.903
2013    2       15     5  27    5.30   421.5    7.1      34.905
2013    2       15     5  34    5.30   421.6    7.1      34.907
2013    2       15     5  40    5.30   421.6    7.1      34.909
2013    2       15     5  46    5.30   421.6    7.1      34.911
2013    2       15     5  53    5.30   421.6    7.1      34.913
2013    2       15     5  59    5.29   421.7    7.1      34.914
2013    2       15     6   6    5.29   421.7    7.1      34.916
2013    2       15     6  12    5.29   421.7    7.1      34.918
2013    2       15     6  18    5.29   421.7    7.1      34.920
2013    2       15     6  25    5.29   421.8    7.1      34.922
2013    2       15     6  31    5.29   421.8    7.1      34.924
2013    2       15     6  38    5.29   421.8    7.1      34.926
2013    2       15     6  44    5.29   421.8    7.1      34.928
2013    2       15     6  51    5.29   421.9    7.1      34.930
2013    2       15     6  57    5.29   421.9    7.1      34.932
2013    2       15     7   3    5.29   421.9    7.1      34.934
2013    2       15     7  10    5.28   421.9    7.1      34.936
2013    2       15     7  16    5.28   422.0    7.1      34.938
2013    2       15     7  23    5.28   422.0    7.1      34.940
2013    2       15     7  29    5.28   422.0    7.1      34.942
2013    2       15     7  35    5.28   422.0    7.1      34.944
2013    2       15     7  42    5.28   422.1    7.1      34.946
2013    2       15     7  48    5.28   422.1    7.1      34.948
2013    2       15     7  55    5.28   422.1    7.1      34.950
2013    2       15     8   1    5.28   422.1    7.1      34.952
2013    2       15     8   7    5.28   422.2    7.1      34.954
2013    2       15     8  14    5.27   422.2    7.1      34.956
2013    2       15     8  20    5.27   422.2    7.1      34.958
2013    2       15     8  27    5.27   422.2    7.1      34.960
2013    2       15     8  33    5.27   422.3    7.1      34.962
2013    2       15     8  39    5.27   422.3    7.1      34.964
2013    2       15     8  46    5.27   422.3    7.1      34.966
2013    2       15     8  52    5.27   422.3    7.1      34.968
2013    2       15     8  59    5.27   422.4    7.1      34.969
2013    2       15     9   5    5.27   422.4    7.1      34.971
2013    2       15     9  12    5.26   422.4    7.1      34.973
2013    2       15     9  18    5.26   422.4    7.1      34.974
2013    2       15     9  24    5.26   422.4    7.1      34.976
2013    2       15     9  31    5.26   422.5    7.1      34.977
2013    2       15     9  37    5.26   422.5    7.1      34.979
2013    2       15     9  44    5.26   422.5    7.1      34.980
2013    2       15     9  50    5.26   422.5    7.1      34.981
2013    2       15     9  56    5.26   422.6    7.1      34.983
2013    2       15    10   3    5.26   422.6    7.0      34.984
2013    2       15    10   9    5.25   422.6    7.0      34.985
2013    2       15    10  16    5.25   422.6    7.0      34.986
2013    2       15    10  22    5.25   422.6    7.0      34.987
2013    2       15    10  29    5.25   422.7    7.0      34.988
2013    2       15    10  35    5.25   422.7    7.0      34.989
2013    2       15    10  41    5.25   422.7    7.0      34.990
2013    2       15    10  48    5.25   422.7    7.0      34.991
2013    2       15    10  54    5.25   422.8    7.0      34.992
2013    2       15    11   1    5.24   422.8    7.0      34.992
2013    2       15    11   7    5.24   422.8    7.0      34.993
2013    2       15    11  13    5.24   422.8    7.0      34.994
2013    2       15    11  20    5.24   422.8    7.0      34.994
2013    2       15    11  26    5.24   422.9    7.0      34.995
2013    2       15    11  33    5.24   422.9    7.0      34.995
2013    2       15    11  39    5.24   422.9    7.0      34.996
2013    2       15    11  45    5.24   422.9    7.0      34.996
2013    2       15    11  52    5.24   422.9    7.0      34.997
2013    2       15    11  58    5.23   423.0    7.0      34.997
2013    2       15    12   5    5.23   423.0    7.0      34.997
2013    2       15    12  11    5.23   423.0    7.0      34.997
2013    2       15    12  18    5.23   423.0    7.0      34.998
2013    2       15    12  24    5.23   423.0    7.0      34.998
2013    2       15    12  30    5.23   423.1    7.0      34.998
2013    2       15    12  37    5.23   423.1    7.0      34.998
2013    2       15    12  43    5.23   423.1    7.0      34.998
2013    2       15    12  50    5.22   423.1    7.0      34.999
2013    2       15    12  56    5.22   423.1    7.0      34.999
2013    2       15    13   2    5.22   423.2    7.0      34.999
2013    2       15    13   9    5.22   423.2    7.0      34.999
2013    2       15    13  15    5.22   423.2    7.0      34.999
2013    2       15    13  22    5.22   423.2    7.0      34.999
2013    2       15    13  28    5.22   423.2    7.0      34.999
2013    2       15    13  34    5.22   423.3    7.0      34.999
2013    2       15    13  41    5.22   423.3    7.0      34.999
2013    2       15    13  47    5.21   423.3    7.0      34.999
2013    2       15    13  54    5.21   423.3    7.0      34.999
2013    2       15    14   0    5.21   423.3    7.0      34.999
2013    2       15    14   6    5.21   423.4    7.0      34.998
2013    2       15    14  13    5.21   423.4    7.0      34.998
2013    2       15    14  19    5.21   423.4    7.0      34.998
2013    2       15    14  26    5.21   423.4    7.0      34.998
2013    2       15    14  32    5.21   423.4    7.0      34.997
2013    2       15    14  38    5.20   423.4    7.0      34.997
2013    2       15    14  45    5.20   423.5    7.0      34.997
2013    2       15    14  51    5.20   423.5    7.0      34.997
2013    2       15    14  58    5.20   423.5    7.0      34.996
2013    2       15    15   4    5.20   423.5    7.0      34.996
2013    2       15    15  11    5.20   423.5    7.0      34.995
2013    2       15    15  17    5.20   423.5    7.0      34.995
2013    2       15    15  23    5.20   423.6    7.0      34.994
2013    2       15    15  30    5.19   423.6    7.0      34.994
2013    2       15    15  36    5.19   423.6    7.0      34.993
2013    2       15    15  43    5.19   423.6    6.9      34.993
2013    2       15    15  49    5.19   423.6    6.9      34.992
2013    2       15    15  55    5.19   423.6    6.9      34.991
2013    2       15    16   2    5.19   423.6    6.9      34.991
2013    2       15    16   8    5.19   423.7    6.9      34.990
2013    2       15    16  15    5.19   423.7    6.9      34.989
2013    2       15    16  21    5.18   423.7    6.9      34.989
2013    2       15    16  27    5.18   423.7    6.9      34.988
2013    2       15    16  34    5.18   423.7    6.9      34.987
2013    2       15    16  40    5.18   423.7    6.9      34.987
2013    2       15    16  47    5.18   423.8    6.9      34.986
2013    2       15    16  53    5.18   423.8    6.9      34.986
2013    2       15    16  59    5.18   423.8    6.9      34.985
2013    2       15    17   6    5.17   423.8    6.9      34.984
2013    2       15    17  12    5.17   423.8    6.9      34.984
2013    2       15    17  19    5.17   423.8    6.9      34.983
2013    2       15    17  25    5.17   423.8    6.9      34.983
2013    2       15    17  32    5.17   423.9    6.9      34.982
2013    2       15    17  38    5.17   423.9    6.9      34.982
2013    2       15    17  44    5.17   423.9    6.9      34.981
2013    2       15    17  51    5.17   423.9    6.9      34.980
2013    2       15    17  57    5.16   423.9    6.9      34.980
2013    2       15    18   4    5.16   423.9    6.9      34.979
2013    2       15    18  10    5.16   423.9    6.9      34.979
2013    2       15    18  16    5.16   424.0    6.9      34.978
2013    2       15    18  23    5.16   424.0    6.9      34.978
2013    2       15    18  29    5.16   424.0    6.9      34.977
2013    2       15    18  36    5.16   424.0    6.9      34.976
2013    2       15    18  42    5.16   424.0    6.9      34.976
2013    2       15    18  49    5.15   424.0    6.9      34.975
2013    2       15    18  55    5.15   424.0    6.9      34.974
2013    2       15    19   1    5.15   424.1    6.9      34.974
2013    2       15    19   8    5.15   424.1    6.9      34.973
2013    2       15    19  14    5.15   424.1    6.9      34.972
2013    2       15    19  21    5.15   424.1    6.9      34.971
2013    2       15    19  27    5.15   424.1    6.9      34.970
2013    2       15    19  33    5.14   424.1    6.9      34.969
2013    2       15    19  40    5.14   424.1    6.9      34.968
2013    2       15    19  46    5.14   424.1    6.9      34.967
2013    2       15    19  53    5.14   424.2    6.9      34.966
2013    2       15    19  59    5.14   424.2    6.9      34.965
2013    2       15    20   6    5.14   424.2    6.9      34.963
2013    2       15    20  12    5.14   424.2    6.9      34.962
2013    2       15    20  18    5.14   424.2    6.9      34.960
2013    2       15    20  25    5.13   424.2    6.9      34.959
2013    2       15    20  31    5.13   424.2    6.9      34.957
2013    2       15    20  38    5.13   424.3    6.9      34.956
2013    2       15    20  44    5.13   424.3    6.9      34.954
2013    2       15    20  50    5.13   424.3    6.9      34.952
2013    2       15    20  57    5.13   424.3    6.9      34.950
2013    2       15    21   3    5.13   424.3    6.9      34.948
2013    2       15    21  10    5.12   424.3    6.9      34.946
2013    2       15    21  16    5.12   424.3    6.9      34.944
2013    2       15    21  22    5.12   424.3    6.9      34.942
2013    2       15    21  29    5.12   424.4    6.9      34.940
2013    2       15    21  35    5.12   424.4    6.8      34.938
2013    2       15    21  42    5.12   424.4    6.8      34.936
2013    2       15    21  48    5.12   424.4    6.8      34.934
2013    2       15    21  54    5.11   424.4    6.8      34.932
2013    2       15    22   1    5.11   424.4    6.8      34.929
2013    2       15    22   7    5.11   424.4    6.8      34.927
2013    2       15    22  14    5.11   424.4    6.8      34.925
2013    2       15    22  20    5.11   424.4    6.8      34.923
2013    2       15    22  26    5.11   424.5    6.8      34.920
2013    2       15    22  33    5.11   424.5    6.8      34.918
2013    2       15    22  39    5.10   424.5    6.8      34.916
2013    2       15    22  46    5.10   424.5    6.8      34.914
2013    2       15    22  52    5.10   424.5    6.8      34.911
2013    2       15    22  58    5.10   424.5    6.8      34.909
2013    2       15    23   5    5.10   424.5    6.8      34.907
2013    2       15    23  11    5.10   424.5    6.8      34.905
2013    2       15    23  18    5.10   424.5    6.8      34.903
2013    2       15    23  24    5.09   424.5    6.8      34.901
2013    2       15    23  31    5.09   424.6    6.8      34.899
2013    2       15    23  37    5.09   424.6    6.8      34.897
2013    2       15    23  43    5.09   424.6    6.8      34.895
2013    2       15    23  50    5.09   424.6    6.8      34.893
2013    2       15    23  56    5.09   424.6    6.8      34.891
2013    2       16     0   3    5.09   424.6    6.8      34.890
