year    month   day   hour  minute  B_enl V_enl   n_enl       T_enl
[year] [month] [day] [hour][minute] [nT]  [km/s]  [cm-3]      [kK]
2013    2        5     0   5    4.05   446.7    6.1      36.365
2013    2        5     0  11    4.05   446.7    6.1      36.363
2013    2        5     0  18    4.05   446.6    6.1      36.360
2013    2        5     0  24    4.05   446.5    6.1      36.357
2013    2        5     0  31    4.05   446.4    6.1      36.355
2013    2        5     0  38    4.05   446.4    6.1      36.352
2013    2        5     0  44    4.05   446.3    6.1      36.350
2013    2        5     0  51    4.05   446.2    6.1      36.347
2013    2        5     0  57    4.05   446.2    6.1      36.345
2013    2        5     1   4    4.05   446.1    6.1      36.343
2013    2        5     1  10    4.05   446.0    6.1      36.341
2013    2        5     1  17    4.06   446.0    6.1      36.339
2013    2        5     1  23    4.06   445.9    6.1      36.337
2013    2        5     1  30    4.06   445.8    6.1      36.335
2013    2        5     1  37    4.06   445.7    6.1      36.333
2013    2        5     1  43    4.06   445.7    6.1      36.332
2013    2        5     1  50    4.06   445.6    6.1      36.330
2013    2        5     1  56    4.06   445.5    6.1      36.329
2013    2        5     2   3    4.06   445.5    6.2      36.328
2013    2        5     2  10    4.06   445.4    6.2      36.326
2013    2        5     2  16    4.06   445.4    6.2      36.325
2013    2        5     2  23    4.06   445.3    6.2      36.324
2013    2        5     2  29    4.07   445.2    6.2      36.323
2013    2        5     2  36    4.07   445.2    6.2      36.322
2013    2        5     2  42    4.07   445.1    6.2      36.321
2013    2        5     2  49    4.07   445.0    6.2      36.321
2013    2        5     2  56    4.07   445.0    6.2      36.320
2013    2        5     3   2    4.07   444.9    6.2      36.320
2013    2        5     3   9    4.07   444.8    6.2      36.320
2013    2        5     3  15    4.07   444.8    6.2      36.321
2013    2        5     3  22    4.07   444.7    6.2      36.321
2013    2        5     3  28    4.08   444.7    6.2      36.322
2013    2        5     3  35    4.08   444.6    6.2      36.323
2013    2        5     3  42    4.08   444.5    6.2      36.325
2013    2        5     3  48    4.08   444.5    6.2      36.327
2013    2        5     3  55    4.08   444.4    6.2      36.329
2013    2        5     4   1    4.08   444.4    6.2      36.331
2013    2        5     4   8    4.08   444.3    6.2      36.334
2013    2        5     4  14    4.08   444.3    6.2      36.337
2013    2        5     4  21    4.09   444.2    6.2      36.341
2013    2        5     4  28    4.09   444.1    6.2      36.345
2013    2        5     4  34    4.09   444.1    6.2      36.349
2013    2        5     4  41    4.09   444.0    6.2      36.354
2013    2        5     4  47    4.09   444.0    6.3      36.358
2013    2        5     4  54    4.09   443.9    6.3      36.363
2013    2        5     5   0    4.09   443.9    6.3      36.369
2013    2        5     5   7    4.10   443.8    6.3      36.374
2013    2        5     5  14    4.10   443.8    6.3      36.380
2013    2        5     5  20    4.10   443.7    6.3      36.386
2013    2        5     5  27    4.10   443.7    6.3      36.393
2013    2        5     5  33    4.10   443.6    6.3      36.399
2013    2        5     5  40    4.10   443.6    6.3      36.406
2013    2        5     5  46    4.10   443.5    6.3      36.413
2013    2        5     5  53    4.11   443.5    6.3      36.420
2013    2        5     6   0    4.11   443.4    6.3      36.427
2013    2        5     6   6    4.11   443.4    6.3      36.434
2013    2        5     6  13    4.11   443.3    6.3      36.442
2013    2        5     6  19    4.11   443.3    6.3      36.449
2013    2        5     6  26    4.11   443.2    6.3      36.457
2013    2        5     6  32    4.12   443.2    6.3      36.465
2013    2        5     6  39    4.12   443.1    6.3      36.473
2013    2        5     6  45    4.12   443.1    6.3      36.482
2013    2        5     6  52    4.12   443.1    6.3      36.491
2013    2        5     6  59    4.12   443.0    6.3      36.500
2013    2        5     7   5    4.12   443.0    6.4      36.510
2013    2        5     7  12    4.13   442.9    6.4      36.521
2013    2        5     7  18    4.13   442.9    6.4      36.531
2013    2        5     7  25    4.13   442.9    6.4      36.543
2013    2        5     7  31    4.13   442.8    6.4      36.554
2013    2        5     7  38    4.13   442.8    6.4      36.566
2013    2        5     7  45    4.13   442.7    6.4      36.578
2013    2        5     7  51    4.14   442.7    6.4      36.591
2013    2        5     7  58    4.14   442.7    6.4      36.603
2013    2        5     8   4    4.14   442.6    6.4      36.616
2013    2        5     8  11    4.14   442.6    6.4      36.629
2013    2        5     8  17    4.14   442.6    6.4      36.641
2013    2        5     8  24    4.15   442.5    6.4      36.654
2013    2        5     8  31    4.15   442.5    6.4      36.666
2013    2        5     8  37    4.15   442.5    6.4      36.679
2013    2        5     8  44    4.15   442.5    6.4      36.691
2013    2        5     8  50    4.15   442.4    6.4      36.703
2013    2        5     8  57    4.15   442.4    6.4      36.715
2013    2        5     9   3    4.16   442.4    6.4      36.727
2013    2        5     9  10    4.16   442.3    6.4      36.739
2013    2        5     9  17    4.16   442.3    6.4      36.751
2013    2        5     9  23    4.16   442.3    6.4      36.762
2013    2        5     9  30    4.16   442.3    6.4      36.774
2013    2        5     9  36    4.16   442.2    6.4      36.785
2013    2        5     9  43    4.16   442.2    6.5      36.796
2013    2        5     9  49    4.17   442.2    6.5      36.807
2013    2        5     9  56    4.17   442.2    6.5      36.818
2013    2        5    10   3    4.17   442.2    6.5      36.828
2013    2        5    10   9    4.17   442.1    6.5      36.838
2013    2        5    10  16    4.17   442.1    6.5      36.848
2013    2        5    10  22    4.17   442.1    6.5      36.858
2013    2        5    10  29    4.18   442.1    6.5      36.868
2013    2        5    10  35    4.18   442.1    6.5      36.877
2013    2        5    10  42    4.18   442.0    6.5      36.887
2013    2        5    10  49    4.18   442.0    6.5      36.895
2013    2        5    10  55    4.18   442.0    6.5      36.904
2013    2        5    11   2    4.18   442.0    6.5      36.913
2013    2        5    11   8    4.19   442.0    6.5      36.921
2013    2        5    11  15    4.19   441.9    6.5      36.929
2013    2        5    11  22    4.19   441.9    6.5      36.937
2013    2        5    11  28    4.19   441.9    6.5      36.945
2013    2        5    11  35    4.19   441.9    6.5      36.952
2013    2        5    11  41    4.19   441.9    6.5      36.960
2013    2        5    11  48    4.19   441.9    6.5      36.967
2013    2        5    11  54    4.20   441.8    6.5      36.974
2013    2        5    12   1    4.20   441.8    6.5      36.981
2013    2        5    12   8    4.20   441.8    6.5      36.988
2013    2        5    12  14    4.20   441.8    6.5      36.996
2013    2        5    12  21    4.20   441.8    6.5      37.003
2013    2        5    12  27    4.20   441.8    6.5      37.010
2013    2        5    12  34    4.20   441.7    6.5      37.017
2013    2        5    12  40    4.21   441.7    6.5      37.024
2013    2        5    12  47    4.21   441.7    6.5      37.032
2013    2        5    12  53    4.21   441.7    6.5      37.040
2013    2        5    13   0    4.21   441.7    6.5      37.047
2013    2        5    13   7    4.21   441.7    6.5      37.056
2013    2        5    13  13    4.21   441.7    6.5      37.064
2013    2        5    13  20    4.21   441.6    6.6      37.072
2013    2        5    13  26    4.22   441.6    6.6      37.081
2013    2        5    13  33    4.22   441.6    6.6      37.090
2013    2        5    13  39    4.22   441.6    6.6      37.099
2013    2        5    13  46    4.22   441.6    6.6      37.109
2013    2        5    13  53    4.22   441.6    6.6      37.119
2013    2        5    13  59    4.22   441.6    6.6      37.129
2013    2        5    14   6    4.23   441.6    6.6      37.140
2013    2        5    14  12    4.23   441.6    6.6      37.151
2013    2        5    14  19    4.23   441.6    6.6      37.163
2013    2        5    14  25    4.23   441.5    6.6      37.175
2013    2        5    14  32    4.23   441.5    6.6      37.188
2013    2        5    14  38    4.23   441.5    6.6      37.202
2013    2        5    14  45    4.23   441.5    6.6      37.215
2013    2        5    14  52    4.24   441.5    6.6      37.229
2013    2        5    14  58    4.24   441.5    6.6      37.243
2013    2        5    15   5    4.24   441.5    6.6      37.257
2013    2        5    15  11    4.24   441.5    6.6      37.272
2013    2        5    15  18    4.24   441.5    6.6      37.286
2013    2        5    15  24    4.24   441.5    6.6      37.300
2013    2        5    15  31    4.24   441.5    6.6      37.314
2013    2        5    15  38    4.24   441.5    6.6      37.328
2013    2        5    15  44    4.25   441.5    6.6      37.342
2013    2        5    15  51    4.25   441.5    6.6      37.355
2013    2        5    15  57    4.25   441.5    6.6      37.368
2013    2        5    16   4    4.25   441.5    6.6      37.381
2013    2        5    16  10    4.25   441.5    6.6      37.394
2013    2        5    16  17    4.25   441.5    6.6      37.407
2013    2        5    16  24    4.25   441.5    6.6      37.419
2013    2        5    16  30    4.25   441.5    6.6      37.431
2013    2        5    16  37    4.26   441.5    6.6      37.443
2013    2        5    16  43    4.26   441.5    6.6      37.455
2013    2        5    16  50    4.26   441.5    6.6      37.467
2013    2        5    16  56    4.26   441.5    6.6      37.479
2013    2        5    17   3    4.26   441.5    6.6      37.490
2013    2        5    17  10    4.26   441.5    6.6      37.501
2013    2        5    17  16    4.26   441.5    6.6      37.512
2013    2        5    17  23    4.26   441.5    6.6      37.523
2013    2        5    17  29    4.26   441.6    6.6      37.533
2013    2        5    17  36    4.27   441.6    6.6      37.543
2013    2        5    17  42    4.27   441.6    6.6      37.553
2013    2        5    17  49    4.27   441.6    6.6      37.562
2013    2        5    17  56    4.27   441.6    6.6      37.571
2013    2        5    18   2    4.27   441.6    6.7      37.580
2013    2        5    18   9    4.27   441.6    6.7      37.588
2013    2        5    18  15    4.27   441.6    6.7      37.596
2013    2        5    18  22    4.27   441.6    6.7      37.604
2013    2        5    18  29    4.27   441.6    6.7      37.611
2013    2        5    18  35    4.27   441.6    6.7      37.619
2013    2        5    18  42    4.27   441.6    6.7      37.625
2013    2        5    18  48    4.28   441.6    6.7      37.632
2013    2        5    18  55    4.28   441.6    6.7      37.639
2013    2        5    19   1    4.28   441.6    6.7      37.645
2013    2        5    19   8    4.28   441.6    6.7      37.651
2013    2        5    19  15    4.28   441.6    6.7      37.657
2013    2        5    19  21    4.28   441.6    6.7      37.663
2013    2        5    19  28    4.28   441.6    6.7      37.669
2013    2        5    19  34    4.28   441.6    6.7      37.675
2013    2        5    19  41    4.28   441.6    6.7      37.680
2013    2        5    19  47    4.28   441.6    6.7      37.686
2013    2        5    19  54    4.28   441.6    6.7      37.691
2013    2        5    20   1    4.28   441.6    6.7      37.697
2013    2        5    20   7    4.29   441.6    6.7      37.703
2013    2        5    20  14    4.29   441.6    6.7      37.709
2013    2        5    20  20    4.29   441.6    6.7      37.714
2013    2        5    20  27    4.29   441.6    6.7      37.720
2013    2        5    20  33    4.29   441.6    6.7      37.726
2013    2        5    20  40    4.29   441.6    6.7      37.733
2013    2        5    20  46    4.29   441.6    6.7      37.739
2013    2        5    20  53    4.29   441.6    6.7      37.745
2013    2        5    21   0    4.29   441.6    6.7      37.752
2013    2        5    21   6    4.29   441.6    6.7      37.759
2013    2        5    21  13    4.29   441.6    6.7      37.766
2013    2        5    21  19    4.29   441.6    6.7      37.773
2013    2        5    21  26    4.29   441.6    6.7      37.780
2013    2        5    21  32    4.30   441.6    6.7      37.787
2013    2        5    21  39    4.30   441.6    6.7      37.795
2013    2        5    21  45    4.30   441.6    6.7      37.802
2013    2        5    21  52    4.30   441.6    6.7      37.810
2013    2        5    21  59    4.30   441.6    6.7      37.818
2013    2        5    22   5    4.30   441.7    6.7      37.826
2013    2        5    22  12    4.30   441.7    6.7      37.834
2013    2        5    22  18    4.30   441.7    6.7      37.842
2013    2        5    22  25    4.30   441.7    6.7      37.850
2013    2        5    22  31    4.30   441.7    6.7      37.859
2013    2        5    22  38    4.30   441.7    6.7      37.867
2013    2        5    22  45    4.30   441.7    6.7      37.876
2013    2        5    22  51    4.30   441.7    6.7      37.884
2013    2        5    22  58    4.30   441.7    6.7      37.893
2013    2        5    23   4    4.30   441.7    6.7      37.901
2013    2        5    23  11    4.30   441.7    6.7      37.910
2013    2        5    23  17    4.31   441.7    6.7      37.919
2013    2        5    23  24    4.31   441.7    6.7      37.927
2013    2        5    23  31    4.31   441.7    6.7      37.936
2013    2        5    23  37    4.31   441.8    6.7      37.945
2013    2        5    23  44    4.31   441.8    6.7      37.954
2013    2        5    23  50    4.31   441.8    6.7      37.963
2013    2        5    23  57    4.31   441.8    6.7      37.972
2013    2        6     0   3    4.31   441.8    6.7      37.981
2013    2        6     0  10    4.31   441.8    6.7      37.990
2013    2        6     0  17    4.31   441.8    6.7      37.999
2013    2        6     0  23    4.31   441.8    6.7      38.008
2013    2        6     0  30    4.31   441.8    6.7      38.017
2013    2        6     0  36    4.31   441.8    6.7      38.025
2013    2        6     0  43    4.31   441.8    6.7      38.034
2013    2        6     0  50    4.31   441.8    6.7      38.043
2013    2        6     0  56    4.31   441.8    6.7      38.051
2013    2        6     1   3    4.31   441.9    6.7      38.059
2013    2        6     1   9    4.31   441.9    6.7      38.067
2013    2        6     1  16    4.31   441.9    6.7      38.075
2013    2        6     1  22    4.31   441.9    6.7      38.083
2013    2        6     1  29    4.32   441.9    6.7      38.091
2013    2        6     1  36    4.32   441.9    6.7      38.099
2013    2        6     1  42    4.32   441.9    6.7      38.106
2013    2        6     1  49    4.32   441.9    6.7      38.114
2013    2        6     1  55    4.32   441.9    6.7      38.121
2013    2        6     2   2    4.32   441.9    6.7      38.128
2013    2        6     2   8    4.32   441.9    6.7      38.135
2013    2        6     2  15    4.32   441.9    6.7      38.142
2013    2        6     2  22    4.32   441.9    6.7      38.149
2013    2        6     2  28    4.32   442.0    6.7      38.156
2013    2        6     2  35    4.32   442.0    6.7      38.163
2013    2        6     2  41    4.32   442.0    6.7      38.169
2013    2        6     2  48    4.32   442.0    6.7      38.176
2013    2        6     2  54    4.32   442.0    6.7      38.182
2013    2        6     3   1    4.32   442.0    6.7      38.189
2013    2        6     3   8    4.32   442.0    6.7      38.195
2013    2        6     3  14    4.32   442.0    6.7      38.201
2013    2        6     3  21    4.32   442.0    6.7      38.207
2013    2        6     3  27    4.32   442.0    6.7      38.213
2013    2        6     3  34    4.32   442.0    6.7      38.219
2013    2        6     3  40    4.32   442.0    6.7      38.225
2013    2        6     3  47    4.32   442.1    6.7      38.230
2013    2        6     3  54    4.32   442.1    6.7      38.236
2013    2        6     4   0    4.32   442.1    6.7      38.242
2013    2        6     4   6    4.32   442.1    6.7      38.247
2013    2        6     4  12    4.32   442.1    6.7      38.253
2013    2        6     4  19    4.32   442.1    6.7      38.259
2013    2        6     4  25    4.32   442.1    6.7      38.265
2013    2        6     4  30    4.32   442.1    6.7      38.271
2013    2        6     4  36    4.33   442.1    6.7      38.277
2013    2        6     4  42    4.33   442.1    6.7      38.283
2013    2        6     4  48    4.33   442.2    6.7      38.289
2013    2        6     4  54    4.33   442.2    6.7      38.295
2013    2        6     4  59    4.33   442.2    6.7      38.302
2013    2        6     5   5    4.33   442.2    6.7      38.308
2013    2        6     5  11    4.33   442.2    6.7      38.314
2013    2        6     5  16    4.33   442.2    6.7      38.320
2013    2        6     5  22    4.33   442.2    6.7      38.326
2013    2        6     5  28    4.33   442.2    6.7      38.332
2013    2        6     5  33    4.33   442.2    6.7      38.338
2013    2        6     5  39    4.33   442.2    6.7      38.344
2013    2        6     5  45    4.33   442.3    6.7      38.350
2013    2        6     5  50    4.33   442.3    6.7      38.356
2013    2        6     5  56    4.33   442.3    6.7      38.362
2013    2        6     6   2    4.33   442.3    6.7      38.368
2013    2        6     6   7    4.33   442.3    6.7      38.374
2013    2        6     6  13    4.33   442.3    6.7      38.380
2013    2        6     6  18    4.33   442.3    6.7      38.386
2013    2        6     6  24    4.33   442.3    6.7      38.392
2013    2        6     6  30    4.33   442.3    6.7      38.398
2013    2        6     6  35    4.33   442.4    6.7      38.404
2013    2        6     6  41    4.33   442.4    6.7      38.409
2013    2        6     6  47    4.33   442.4    6.7      38.415
2013    2        6     6  52    4.33   442.4    6.7      38.421
2013    2        6     6  58    4.33   442.4    6.7      38.427
2013    2        6     7   3    4.33   442.4    6.7      38.433
2013    2        6     7   9    4.33   442.4    6.7      38.439
2013    2        6     7  15    4.33   442.4    6.7      38.444
2013    2        6     7  20    4.33   442.4    6.7      38.450
2013    2        6     7  26    4.33   442.5    6.7      38.456
2013    2        6     7  32    4.33   442.5    6.7      38.462
2013    2        6     7  37    4.33   442.5    6.7      38.468
2013    2        6     7  43    4.33   442.5    6.7      38.474
2013    2        6     7  49    4.33   442.5    6.7      38.480
2013    2        6     7  54    4.33   442.5    6.7      38.486
2013    2        6     8   0    4.33   442.5    6.7      38.492
2013    2        6     8   6    4.33   442.5    6.7      38.498
2013    2        6     8  12    4.33   442.5    6.7      38.504
2013    2        6     8  17    4.33   442.6    6.7      38.510
2013    2        6     8  23    4.33   442.6    6.7      38.517
2013    2        6     8  29    4.33   442.6    6.7      38.523
2013    2        6     8  34    4.33   442.6    6.7      38.530
2013    2        6     8  40    4.33   442.6    6.7      38.536
2013    2        6     8  46    4.33   442.6    6.7      38.543
2013    2        6     8  52    4.33   442.6    6.7      38.550
2013    2        6     8  58    4.33   442.6    6.7      38.557
2013    2        6     9   4    4.33   442.7    6.7      38.564
2013    2        6     9  10    4.33   442.7    6.7      38.571
2013    2        6     9  16    4.33   442.7    6.7      38.578
2013    2        6     9  21    4.33   442.7    6.7      38.584
2013    2        6     9  27    4.33   442.7    6.7      38.591
2013    2        6     9  33    4.32   442.7    6.7      38.598
2013    2        6     9  39    4.32   442.7    6.7      38.604
2013    2        6     9  45    4.32   442.8    6.7      38.610
2013    2        6     9  51    4.32   442.8    6.7      38.617
2013    2        6     9  57    4.32   442.8    6.7      38.622
2013    2        6    10   3    4.32   442.8    6.7      38.628
2013    2        6    10   9    4.32   442.8    6.7      38.634
2013    2        6    10  15    4.32   442.8    6.7      38.639
2013    2        6    10  21    4.32   442.8    6.7      38.644
2013    2        6    10  27    4.32   442.9    6.7      38.649
2013    2        6    10  33    4.32   442.9    6.7      38.653
2013    2        6    10  39    4.32   442.9    6.7      38.658
2013    2        6    10  45    4.32   442.9    6.7      38.662
2013    2        6    10  51    4.32   442.9    6.7      38.666
2013    2        6    10  57    4.32   442.9    6.7      38.669
2013    2        6    11   4    4.32   442.9    6.7      38.673
2013    2        6    11  10    4.32   443.0    6.7      38.676
2013    2        6    11  16    4.32   443.0    6.7      38.678
2013    2        6    11  22    4.32   443.0    6.7      38.681
2013    2        6    11  28    4.32   443.0    6.7      38.683
2013    2        6    11  34    4.32   443.0    6.7      38.685
2013    2        6    11  41    4.32   443.0    6.7      38.687
2013    2        6    11  47    4.31   443.0    6.7      38.688
2013    2        6    11  53    4.31   443.1    6.7      38.689
2013    2        6    11  59    4.31   443.1    6.7      38.690
2013    2        6    12   6    4.31   443.1    6.7      38.690
2013    2        6    12  12    4.31   443.1    6.7      38.690
2013    2        6    12  18    4.31   443.1    6.7      38.690
2013    2        6    12  25    4.31   443.1    6.7      38.690
2013    2        6    12  31    4.31   443.1    6.7      38.690
2013    2        6    12  38    4.31   443.2    6.7      38.689
2013    2        6    12  44    4.31   443.2    6.7      38.689
2013    2        6    12  50    4.31   443.2    6.7      38.688
2013    2        6    12  57    4.31   443.2    6.7      38.687
2013    2        6    13   3    4.31   443.2    6.7      38.685
2013    2        6    13  10    4.30   443.2    6.7      38.684
2013    2        6    13  16    4.30   443.2    6.7      38.682
2013    2        6    13  23    4.30   443.3    6.7      38.680
2013    2        6    13  30    4.30   443.3    6.7      38.679
2013    2        6    13  36    4.30   443.3    6.7      38.677
2013    2        6    13  43    4.30   443.3    6.7      38.675
2013    2        6    13  49    4.30   443.3    6.7      38.672
2013    2        6    13  56    4.30   443.3    6.7      38.670
2013    2        6    14   2    4.30   443.3    6.7      38.668
2013    2        6    14   9    4.30   443.3    6.7      38.665
2013    2        6    14  15    4.29   443.4    6.7      38.663
2013    2        6    14  22    4.29   443.4    6.7      38.660
2013    2        6    14  29    4.29   443.4    6.7      38.658
2013    2        6    14  35    4.29   443.4    6.7      38.655
2013    2        6    14  42    4.29   443.4    6.7      38.652
2013    2        6    14  48    4.29   443.4    6.7      38.649
2013    2        6    14  55    4.29   443.4    6.7      38.647
2013    2        6    15   1    4.29   443.4    6.7      38.644
2013    2        6    15   8    4.28   443.4    6.6      38.640
2013    2        6    15  15    4.28   443.5    6.6      38.637
2013    2        6    15  21    4.28   443.5    6.6      38.634
2013    2        6    15  28    4.28   443.5    6.6      38.631
2013    2        6    15  34    4.28   443.5    6.6      38.629
2013    2        6    15  41    4.28   443.5    6.6      38.626
2013    2        6    15  47    4.28   443.5    6.6      38.623
2013    2        6    15  54    4.28   443.5    6.6      38.621
2013    2        6    16   1    4.27   443.5    6.6      38.618
2013    2        6    16   7    4.27   443.5    6.6      38.615
2013    2        6    16  14    4.27   443.5    6.6      38.612
2013    2        6    16  20    4.27   443.5    6.6      38.610
2013    2        6    16  27    4.27   443.6    6.6      38.607
2013    2        6    16  33    4.27   443.6    6.6      38.603
2013    2        6    16  40    4.26   443.6    6.6      38.600
2013    2        6    16  47    4.26   443.6    6.6      38.597
2013    2        6    16  53    4.26   443.6    6.6      38.593
2013    2        6    17   0    4.26   443.6    6.6      38.589
2013    2        6    17   6    4.26   443.6    6.6      38.585
2013    2        6    17  13    4.26   443.6    6.6      38.580
2013    2        6    17  19    4.25   443.6    6.6      38.576
2013    2        6    17  26    4.25   443.6    6.6      38.571
2013    2        6    17  32    4.25   443.6    6.6      38.566
2013    2        6    17  39    4.25   443.6    6.6      38.561
2013    2        6    17  46    4.25   443.6    6.6      38.555
2013    2        6    17  52    4.24   443.6    6.6      38.550
2013    2        6    17  59    4.24   443.6    6.6      38.544
2013    2        6    18   5    4.24   443.6    6.6      38.538
2013    2        6    18  12    4.24   443.6    6.6      38.532
2013    2        6    18  18    4.24   443.6    6.6      38.525
2013    2        6    18  25    4.23   443.6    6.6      38.519
2013    2        6    18  32    4.23   443.6    6.6      38.512
2013    2        6    18  38    4.23   443.6    6.6      38.505
2013    2        6    18  45    4.23   443.6    6.6      38.498
2013    2        6    18  51    4.23   443.6    6.6      38.490
2013    2        6    18  58    4.22   443.6    6.6      38.483
2013    2        6    19   4    4.22   443.6    6.6      38.475
2013    2        6    19  11    4.22   443.6    6.6      38.466
2013    2        6    19  17    4.22   443.6    6.6      38.458
2013    2        6    19  24    4.22   443.6    6.6      38.449
2013    2        6    19  31    4.21   443.6    6.5      38.440
2013    2        6    19  37    4.21   443.6    6.5      38.430
2013    2        6    19  44    4.21   443.6    6.5      38.421
2013    2        6    19  50    4.21   443.6    6.5      38.411
2013    2        6    19  57    4.20   443.6    6.5      38.401
2013    2        6    20   3    4.20   443.5    6.5      38.390
2013    2        6    20  10    4.20   443.5    6.5      38.379
2013    2        6    20  16    4.20   443.5    6.5      38.368
2013    2        6    20  23    4.19   443.5    6.5      38.357
2013    2        6    20  30    4.19   443.5    6.5      38.346
2013    2        6    20  36    4.19   443.5    6.5      38.334
2013    2        6    20  43    4.19   443.5    6.5      38.322
2013    2        6    20  49    4.18   443.5    6.5      38.310
2013    2        6    20  56    4.18   443.5    6.5      38.297
2013    2        6    21   2    4.18   443.4    6.5      38.284
2013    2        6    21   9    4.18   443.4    6.5      38.271
2013    2        6    21  15    4.17   443.4    6.5      38.258
2013    2        6    21  22    4.17   443.4    6.5      38.244
2013    2        6    21  29    4.17   443.4    6.5      38.230
2013    2        6    21  35    4.17   443.4    6.5      38.216
2013    2        6    21  42    4.16   443.4    6.5      38.202
2013    2        6    21  48    4.16   443.3    6.5      38.187
2013    2        6    21  55    4.16   443.3    6.5      38.172
2013    2        6    22   1    4.16   443.3    6.5      38.157
2013    2        6    22   8    4.15   443.3    6.5      38.141
2013    2        6    22  14    4.15   443.3    6.5      38.126
2013    2        6    22  21    4.15   443.2    6.5      38.110
2013    2        6    22  28    4.15   443.2    6.4      38.093
2013    2        6    22  34    4.14   443.2    6.4      38.077
2013    2        6    22  41    4.14   443.2    6.4      38.060
2013    2        6    22  47    4.14   443.1    6.4      38.043
2013    2        6    22  54    4.14   443.1    6.4      38.026
2013    2        6    23   0    4.13   443.1    6.4      38.008
2013    2        6    23   7    4.13   443.1    6.4      37.990
2013    2        6    23  14    4.13   443.0    6.4      37.972
2013    2        6    23  20    4.12   443.0    6.4      37.954
2013    2        6    23  27    4.12   443.0    6.4      37.936
2013    2        6    23  33    4.12   442.9    6.4      37.918
2013    2        6    23  40    4.12   442.9    6.4      37.899
2013    2        6    23  46    4.11   442.9    6.4      37.881
2013    2        6    23  53    4.11   442.8    6.4      37.862
2013    2        7     0   0    4.11   442.8    6.4      37.843
2013    2        7     0   6    4.10   442.8    6.4      37.824
2013    2        7     0  13    4.10   442.7    6.4      37.805
2013    2        7     0  19    4.10   442.7    6.4      37.787
2013    2        7     0  26    4.10   442.7    6.4      37.768
2013    2        7     0  32    4.09   442.6    6.4      37.749
2013    2        7     0  39    4.09   442.6    6.4      37.730
2013    2        7     0  46    4.09   442.5    6.4      37.711
2013    2        7     0  52    4.09   442.5    6.4      37.691
2013    2        7     0  59    4.08   442.5    6.4      37.672
2013    2        7     1   5    4.08   442.4    6.4      37.653
2013    2        7     1  12    4.08   442.4    6.4      37.634
2013    2        7     1  18    4.07   442.3    6.4      37.614
2013    2        7     1  25    4.07   442.3    6.4      37.595
2013    2        7     1  32    4.07   442.2    6.3      37.575
2013    2        7     1  38    4.07   442.2    6.3      37.556
2013    2        7     1  45    4.06   442.2    6.3      37.536
2013    2        7     1  51    4.06   442.1    6.3      37.516
2013    2        7     1  58    4.06   442.1    6.3      37.496
2013    2        7     2   4    4.05   442.0    6.3      37.475
2013    2        7     2  11    4.05   442.0    6.3      37.455
2013    2        7     2  18    4.05   441.9    6.3      37.434
2013    2        7     2  24    4.05   441.9    6.3      37.413
2013    2        7     2  31    4.04   441.8    6.3      37.392
2013    2        7     2  37    4.04   441.8    6.3      37.370
2013    2        7     2  44    4.04   441.7    6.3      37.348
2013    2        7     2  50    4.03   441.7    6.3      37.326
2013    2        7     2  57    4.03   441.6    6.3      37.304
2013    2        7     3   4    4.03   441.5    6.3      37.281
2013    2        7     3  10    4.03   441.5    6.3      37.258
2013    2        7     3  17    4.02   441.4    6.3      37.235
2013    2        7     3  23    4.02   441.4    6.3      37.212
2013    2        7     3  30    4.02   441.3    6.3      37.188
2013    2        7     3  36    4.01   441.3    6.3      37.165
2013    2        7     3  43    4.01   441.2    6.3      37.141
2013    2        7     3  50    4.01   441.1    6.3      37.116
2013    2        7     3  56    4.00   441.1    6.3      37.092
2013    2        7     4   3    4.00   441.0    6.3      37.068
2013    2        7     4   9    4.00   440.9    6.3      37.043
2013    2        7     4  16    4.00   440.9    6.3      37.018
2013    2        7     4  22    3.99   440.8    6.3      36.993
2013    2        7     4  29    3.99   440.7    6.3      36.968
2013    2        7     4  36    3.99   440.7    6.3      36.943
2013    2        7     4  42    3.98   440.6    6.3      36.917
2013    2        7     4  49    3.98   440.5    6.2      36.891
2013    2        7     4  55    3.98   440.5    6.2      36.866
2013    2        7     5   2    3.98   440.4    6.2      36.840
2013    2        7     5   8    3.97   440.3    6.2      36.813
2013    2        7     5  15    3.97   440.3    6.2      36.787
2013    2        7     5  22    3.97   440.2    6.2      36.761
2013    2        7     5  28    3.96   440.1    6.2      36.734
2013    2        7     5  35    3.96   440.1    6.2      36.707
2013    2        7     5  41    3.96   440.0    6.2      36.681
2013    2        7     5  48    3.96   439.9    6.2      36.654
2013    2        7     5  54    3.95   439.8    6.2      36.626
2013    2        7     6   1    3.95   439.8    6.2      36.599
2013    2        7     6   8    3.95   439.7    6.2      36.571
2013    2        7     6  14    3.94   439.6    6.2      36.544
2013    2        7     6  21    3.94   439.5    6.2      36.516
2013    2        7     6  27    3.94   439.5    6.2      36.488
2013    2        7     6  34    3.94   439.4    6.2      36.460
2013    2        7     6  40    3.93   439.3    6.2      36.432
2013    2        7     6  47    3.93   439.2    6.2      36.404
2013    2        7     6  54    3.93   439.1    6.2      36.375
2013    2        7     7   0    3.93   439.1    6.2      36.347
2013    2        7     7   7    3.92   439.0    6.2      36.319
2013    2        7     7  13    3.92   438.9    6.2      36.290
2013    2        7     7  20    3.92   438.8    6.2      36.261
2013    2        7     7  26    3.92   438.7    6.2      36.233
2013    2        7     7  33    3.91   438.7    6.2      36.204
2013    2        7     7  40    3.91   438.6    6.2      36.175
2013    2        7     7  46    3.91   438.5    6.2      36.147
2013    2        7     7  53    3.91   438.4    6.2      36.118
2013    2        7     7  59    3.90   438.3    6.2      36.089
2013    2        7     8   6    3.90   438.3    6.2      36.060
2013    2        7     8  12    3.90   438.2    6.2      36.031
2013    2        7     8  19    3.90   438.1    6.2      36.002
2013    2        7     8  26    3.89   438.0    6.2      35.974
2013    2        7     8  32    3.89   437.9    6.2      35.944
2013    2        7     8  39    3.89   437.9    6.2      35.915
2013    2        7     8  45    3.89   437.8    6.1      35.886
2013    2        7     8  52    3.88   437.7    6.1      35.857
2013    2        7     8  58    3.88   437.6    6.1      35.827
2013    2        7     9   5    3.88   437.5    6.1      35.798
2013    2        7     9  12    3.88   437.5    6.1      35.768
2013    2        7     9  18    3.87   437.4    6.1      35.738
2013    2        7     9  25    3.87   437.3    6.1      35.708
2013    2        7     9  31    3.87   437.2    6.1      35.678
2013    2        7     9  38    3.87   437.1    6.1      35.647
2013    2        7     9  44    3.86   437.0    6.1      35.617
2013    2        7     9  51    3.86   436.9    6.1      35.586
2013    2        7     9  58    3.86   436.9    6.1      35.555
2013    2        7    10   4    3.86   436.8    6.1      35.524
2013    2        7    10  11    3.85   436.7    6.1      35.492
2013    2        7    10  17    3.85   436.6    6.1      35.461
2013    2        7    10  24    3.85   436.5    6.1      35.429
2013    2        7    10  30    3.85   436.4    6.1      35.397
2013    2        7    10  37    3.85   436.3    6.1      35.365
2013    2        7    10  44    3.84   436.2    6.1      35.333
2013    2        7    10  50    3.84   436.1    6.1      35.301
2013    2        7    10  57    3.84   436.0    6.1      35.268
2013    2        7    11   3    3.84   435.9    6.1      35.236
2013    2        7    11  10    3.83   435.8    6.1      35.203
2013    2        7    11  16    3.83   435.7    6.1      35.171
2013    2        7    11  23    3.83   435.6    6.1      35.138
2013    2        7    11  30    3.83   435.5    6.1      35.105
2013    2        7    11  36    3.82   435.4    6.1      35.072
2013    2        7    11  43    3.82   435.3    6.1      35.039
2013    2        7    11  49    3.82   435.2    6.1      35.006
2013    2        7    11  56    3.82   435.1    6.1      34.973
2013    2        7    12   2    3.82   435.0    6.1      34.940
2013    2        7    12   9    3.81   434.9    6.1      34.906
2013    2        7    12  15    3.81   434.8    6.1      34.873
2013    2        7    12  22    3.81   434.7    6.1      34.840
2013    2        7    12  29    3.81   434.6    6.1      34.806
2013    2        7    12  35    3.80   434.5    6.1      34.772
2013    2        7    12  42    3.80   434.4    6.1      34.739
2013    2        7    12  48    3.80   434.3    6.1      34.705
2013    2        7    12  55    3.80   434.2    6.1      34.671
2013    2        7    13   1    3.80   434.0    6.1      34.637
2013    2        7    13   8    3.79   433.9    6.1      34.603
2013    2        7    13  15    3.79   433.8    6.1      34.570
2013    2        7    13  21    3.79   433.7    6.1      34.536
2013    2        7    13  28    3.79   433.6    6.1      34.502
2013    2        7    13  34    3.79   433.5    6.1      34.468
2013    2        7    13  41    3.79   433.4    6.1      34.434
2013    2        7    13  47    3.78   433.3    6.1      34.400
2013    2        7    13  54    3.78   433.1    6.1      34.366
2013    2        7    14   1    3.78   433.0    6.1      34.332
2013    2        7    14   7    3.78   432.9    6.1      34.298
2013    2        7    14  14    3.78   432.8    6.1      34.264
2013    2        7    14  20    3.77   432.7    6.1      34.231
2013    2        7    14  27    3.77   432.6    6.1      34.197
2013    2        7    14  33    3.77   432.5    6.0      34.163
2013    2        7    14  40    3.77   432.4    6.0      34.130
2013    2        7    14  47    3.77   432.2    6.0      34.097
2013    2        7    14  53    3.77   432.1    6.0      34.063
2013    2        7    15   0    3.76   432.0    6.0      34.031
2013    2        7    15   6    3.76   431.9    6.0      33.998
2013    2        7    15  13    3.76   431.8    6.0      33.965
2013    2        7    15  19    3.76   431.7    6.0      33.933
2013    2        7    15  26    3.76   431.6    6.0      33.901
2013    2        7    15  33    3.76   431.5    6.0      33.868
2013    2        7    15  39    3.76   431.3    6.0      33.837
2013    2        7    15  46    3.75   431.2    6.0      33.805
2013    2        7    15  52    3.75   431.1    6.0      33.773
2013    2        7    15  59    3.75   431.0    6.0      33.742
2013    2        7    16   5    3.75   430.9    6.0      33.711
2013    2        7    16  12    3.75   430.8    6.0      33.679
2013    2        7    16  19    3.75   430.7    6.0      33.648
2013    2        7    16  25    3.75   430.6    6.0      33.617
2013    2        7    16  32    3.74   430.5    6.0      33.586
2013    2        7    16  38    3.74   430.4    6.0      33.556
2013    2        7    16  45    3.74   430.3    6.0      33.525
2013    2        7    16  51    3.74   430.2    6.0      33.494
2013    2        7    16  58    3.74   430.0    6.0      33.463
2013    2        7    17   5    3.74   429.9    6.0      33.433
2013    2        7    17  11    3.74   429.8    6.0      33.402
2013    2        7    17  18    3.73   429.7    6.1      33.371
2013    2        7    17  24    3.73   429.6    6.1      33.341
2013    2        7    17  31    3.73   429.5    6.1      33.310
2013    2        7    17  37    3.73   429.4    6.1      33.279
2013    2        7    17  44    3.73   429.3    6.1      33.249
2013    2        7    17  51    3.73   429.1    6.1      33.218
2013    2        7    17  57    3.73   429.0    6.1      33.187
2013    2        7    18   4    3.72   428.9    6.1      33.157
2013    2        7    18  10    3.72   428.8    6.1      33.126
2013    2        7    18  17    3.72   428.7    6.1      33.096
2013    2        7    18  23    3.72   428.6    6.1      33.065
2013    2        7    18  30    3.72   428.5    6.1      33.034
2013    2        7    18  37    3.72   428.4    6.1      33.004
2013    2        7    18  43    3.72   428.2    6.1      32.973
2013    2        7    18  50    3.72   428.1    6.1      32.942
2013    2        7    18  56    3.71   428.0    6.1      32.912
2013    2        7    19   3    3.71   427.9    6.1      32.881
2013    2        7    19   9    3.71   427.8    6.1      32.850
2013    2        7    19  16    3.71   427.7    6.1      32.819
2013    2        7    19  23    3.71   427.5    6.1      32.789
2013    2        7    19  29    3.71   427.4    6.1      32.758
2013    2        7    19  36    3.71   427.3    6.0      32.727
2013    2        7    19  42    3.71   427.2    6.0      32.696
2013    2        7    19  49    3.71   427.1    6.0      32.665
2013    2        7    19  55    3.70   426.9    6.0      32.634
2013    2        7    20   2    3.70   426.8    6.0      32.603
2013    2        7    20   8    3.70   426.7    6.0      32.572
2013    2        7    20  15    3.70   426.6    6.0      32.541
2013    2        7    20  22    3.70   426.5    6.0      32.510
2013    2        7    20  28    3.70   426.3    6.0      32.479
2013    2        7    20  35    3.70   426.2    6.0      32.448
2013    2        7    20  41    3.70   426.1    6.0      32.417
2013    2        7    20  48    3.70   426.0    6.0      32.385
2013    2        7    20  54    3.69   425.9    6.0      32.354
2013    2        7    21   1    3.69   425.7    6.0      32.323
2013    2        7    21   8    3.69   425.6    6.0      32.292
2013    2        7    21  14    3.69   425.5    6.0      32.260
2013    2        7    21  21    3.69   425.3    6.0      32.229
2013    2        7    21  27    3.69   425.2    6.0      32.198
2013    2        7    21  34    3.69   425.1    6.0      32.167
2013    2        7    21  40    3.69   425.0    6.0      32.136
2013    2        7    21  47    3.69   424.8    6.0      32.105
2013    2        7    21  54    3.69   424.7    6.0      32.074
2013    2        7    22   0    3.69   424.6    6.0      32.043
2013    2        7    22   7    3.68   424.4    6.0      32.012
2013    2        7    22  13    3.68   424.3    6.0      31.982
2013    2        7    22  20    3.68   424.2    6.0      31.951
2013    2        7    22  26    3.68   424.0    6.0      31.921
2013    2        7    22  33    3.68   423.9    6.0      31.891
2013    2        7    22  40    3.68   423.8    6.0      31.861
2013    2        7    22  46    3.68   423.6    6.0      31.831
2013    2        7    22  53    3.68   423.5    6.0      31.801
2013    2        7    22  59    3.68   423.4    6.0      31.772
2013    2        7    23   6    3.68   423.2    6.1      31.742
2013    2        7    23  12    3.68   423.1    6.1      31.713
2013    2        7    23  19    3.68   422.9    6.1      31.684
2013    2        7    23  26    3.68   422.8    6.1      31.655
2013    2        7    23  32    3.67   422.7    6.1      31.627
2013    2        7    23  39    3.67   422.5    6.1      31.598
2013    2        7    23  45    3.67   422.4    6.1      31.570
2013    2        7    23  52    3.67   422.3    6.1      31.541
2013    2        7    23  58    3.67   422.1    6.1      31.513
2013    2        8     0   5    3.67   422.0    6.1      31.485
2013    2        8     0  12    3.67   421.8    6.1      31.458
2013    2        8     0  18    3.67   421.7    6.1      31.430
2013    2        8     0  25    3.67   421.6    6.1      31.403
2013    2        8     0  31    3.67   421.4    6.1      31.376
2013    2        8     0  38    3.67   421.3    6.1      31.349
2013    2        8     0  44    3.67   421.1    6.1      31.323
2013    2        8     0  51    3.67   421.0    6.1      31.296
2013    2        8     0  58    3.67   420.9    6.1      31.270
2013    2        8     1   4    3.67   420.7    6.1      31.244
2013    2        8     1  11    3.67   420.6    6.1      31.218
2013    2        8     1  17    3.67   420.4    6.1      31.193
2013    2        8     1  24    3.67   420.3    6.1      31.168
2013    2        8     1  30    3.67   420.2    6.1      31.143
2013    2        8     1  37    3.67   420.0    6.1      31.118
2013    2        8     1  43    3.67   419.9    6.1      31.093
2013    2        8     1  50    3.66   419.7    6.1      31.069
2013    2        8     1  57    3.66   419.6    6.1      31.044
2013    2        8     2   3    3.66   419.5    6.1      31.020
2013    2        8     2  10    3.66   419.3    6.1      30.997
2013    2        8     2  16    3.66   419.2    6.1      30.973
2013    2        8     2  23    3.66   419.1    6.1      30.949
2013    2        8     2  29    3.66   418.9    6.1      30.926
2013    2        8     2  36    3.66   418.8    6.1      30.903
2013    2        8     2  43    3.66   418.7    6.1      30.880
2013    2        8     2  49    3.66   418.5    6.1      30.858
2013    2        8     2  56    3.66   418.4    6.1      30.835
2013    2        8     3   2    3.66   418.3    6.1      30.813
2013    2        8     3   9    3.66   418.1    6.1      30.791
2013    2        8     3  15    3.66   418.0    6.1      30.769
2013    2        8     3  22    3.66   417.9    6.1      30.747
2013    2        8     3  29    3.66   417.7    6.1      30.726
2013    2        8     3  35    3.66   417.6    6.1      30.704
2013    2        8     3  42    3.66   417.5    6.1      30.683
2013    2        8     3  48    3.66   417.3    6.1      30.663
2013    2        8     3  55    3.67   417.2    6.1      30.642
2013    2        8     4   1    3.67   417.1    6.1      30.622
2013    2        8     4   8    3.67   416.9    6.1      30.602
2013    2        8     4  15    3.67   416.8    6.1      30.582
2013    2        8     4  21    3.67   416.7    6.1      30.562
2013    2        8     4  28    3.67   416.5    6.1      30.543
2013    2        8     4  34    3.67   416.4    6.1      30.524
2013    2        8     4  41    3.67   416.3    6.1      30.506
2013    2        8     4  47    3.67   416.1    6.1      30.487
2013    2        8     4  54    3.67   416.0    6.1      30.470
2013    2        8     5   1    3.67   415.9    6.2      30.452
2013    2        8     5   7    3.67   415.7    6.2      30.435
2013    2        8     5  14    3.67   415.6    6.2      30.418
2013    2        8     5  20    3.67   415.5    6.2      30.402
2013    2        8     5  27    3.67   415.3    6.2      30.386
2013    2        8     5  33    3.67   415.2    6.2      30.370
2013    2        8     5  40    3.67   415.1    6.2      30.355
2013    2        8     5  47    3.67   414.9    6.2      30.340
2013    2        8     5  53    3.67   414.8    6.2      30.326
2013    2        8     6   0    3.67   414.7    6.2      30.312
2013    2        8     6   6    3.68   414.5    6.2      30.299
2013    2        8     6  13    3.68   414.4    6.2      30.286
2013    2        8     6  19    3.68   414.3    6.2      30.273
2013    2        8     6  26    3.68   414.1    6.2      30.261
2013    2        8     6  33    3.68   414.0    6.2      30.250
2013    2        8     6  39    3.68   413.9    6.2      30.240
2013    2        8     6  46    3.68   413.7    6.2      30.230
2013    2        8     6  52    3.68   413.6    6.2      30.222
2013    2        8     6  59    3.68   413.5    6.3      30.215
2013    2        8     7   5    3.69   413.4    6.3      30.209
2013    2        8     7  12    3.69   413.2    6.3      30.203
2013    2        8     7  19    3.69   413.1    6.3      30.198
2013    2        8     7  25    3.69   413.0    6.3      30.193
2013    2        8     7  32    3.69   412.8    6.3      30.189
2013    2        8     7  38    3.69   412.7    6.3      30.185
2013    2        8     7  45    3.69   412.6    6.3      30.181
2013    2        8     7  51    3.70   412.5    6.3      30.178
2013    2        8     7  58    3.70   412.4    6.3      30.175
2013    2        8     8   4    3.70   412.2    6.3      30.172
2013    2        8     8  11    3.70   412.1    6.3      30.168
2013    2        8     8  18    3.70   412.0    6.3      30.164
2013    2        8     8  24    3.70   411.9    6.3      30.160
2013    2        8     8  31    3.71   411.8    6.3      30.155
2013    2        8     8  37    3.71   411.6    6.3      30.150
2013    2        8     8  44    3.71   411.5    6.3      30.145
2013    2        8     8  50    3.71   411.4    6.3      30.140
2013    2        8     8  57    3.71   411.3    6.4      30.134
2013    2        8     9   4    3.71   411.2    6.4      30.128
2013    2        8     9  10    3.71   411.1    6.4      30.122
2013    2        8     9  17    3.72   410.9    6.4      30.116
2013    2        8     9  23    3.72   410.8    6.4      30.110
2013    2        8     9  30    3.72   410.7    6.4      30.103
2013    2        8     9  36    3.72   410.6    6.4      30.097
2013    2        8     9  43    3.72   410.5    6.4      30.091
2013    2        8     9  50    3.72   410.4    6.4      30.085
2013    2        8     9  56    3.73   410.3    6.4      30.078
2013    2        8    10   3    3.73   410.2    6.4      30.073
2013    2        8    10   9    3.73   410.1    6.4      30.067
2013    2        8    10  16    3.73   410.0    6.4      30.062
2013    2        8    10  22    3.73   409.9    6.4      30.057
2013    2        8    10  29    3.73   409.8    6.4      30.052
2013    2        8    10  35    3.74   409.7    6.4      30.048
2013    2        8    10  42    3.74   409.6    6.4      30.044
2013    2        8    10  49    3.74   409.5    6.4      30.040
2013    2        8    10  55    3.74   409.4    6.4      30.037
2013    2        8    11   2    3.74   409.3    6.4      30.034
2013    2        8    11   8    3.75   409.2    6.5      30.031
2013    2        8    11  15    3.75   409.1    6.5      30.029
2013    2        8    11  21    3.75   409.0    6.5      30.028
2013    2        8    11  28    3.75   409.0    6.5      30.027
2013    2        8    11  35    3.75   408.9    6.5      30.026
2013    2        8    11  41    3.76   408.8    6.5      30.026
2013    2        8    11  48    3.76   408.7    6.5      30.026
2013    2        8    11  54    3.76   408.6    6.5      30.027
2013    2        8    12   1    3.76   408.6    6.5      30.029
2013    2        8    12   7    3.76   408.5    6.5      30.032
2013    2        8    12  14    3.77   408.4    6.5      30.035
2013    2        8    12  21    3.77   408.3    6.5      30.040
2013    2        8    12  27    3.77   408.3    6.5      30.045
2013    2        8    12  34    3.77   408.2    6.5      30.052
2013    2        8    12  40    3.78   408.1    6.6      30.060
2013    2        8    12  47    3.78   408.1    6.6      30.069
2013    2        8    12  53    3.78   408.0    6.6      30.080
2013    2        8    13   0    3.79   407.9    6.6      30.093
2013    2        8    13   7    3.79   407.9    6.6      30.107
2013    2        8    13  13    3.79   407.8    6.6      30.124
2013    2        8    13  20    3.79   407.8    6.6      30.142
2013    2        8    13  26    3.80   407.7    6.6      30.163
2013    2        8    13  33    3.80   407.7    6.6      30.186
2013    2        8    13  39    3.81   407.6    6.7      30.212
2013    2        8    13  46    3.81   407.6    6.7      30.242
2013    2        8    13  53    3.81   407.5    6.7      30.274
2013    2        8    13  59    3.82   407.5    6.7      30.311
2013    2        8    14   6    3.82   407.5    6.7      30.352
2013    2        8    14  12    3.83   407.5    6.7      30.399
2013    2        8    14  19    3.84   407.5    6.7      30.450
2013    2        8    14  25    3.84   407.4    6.8      30.508
2013    2        8    14  32    3.85   407.5    6.8      30.573
2013    2        8    14  39    3.86   407.5    6.8      30.646
2013    2        8    14  45    3.86   407.5    6.8      30.728
2013    2        8    14  52    3.87   407.5    6.9      30.820
2013    2        8    14  58    3.88   407.6    6.9      30.924
2013    2        8    15   5    3.89   407.6    6.9      31.040
2013    2        8    15  11    3.90   407.7    6.9      31.172
2013    2        8    15  18    3.91   407.8    7.0      31.319
2013    2        8    15  24    3.93   407.9    7.0      31.485
2013    2        8    15  31    3.94   408.0    7.0      31.672
2013    2        8    15  38    3.96   408.2    7.1      31.882
2013    2        8    15  44    3.98   408.3    7.1      32.118
2013    2        8    15  51    4.00   408.5    7.2      32.383
2013    2        8    15  57    4.02   408.8    7.2      32.681
2013    2        8    16   4    4.04   409.1    7.3      33.019
2013    2        8    16  10    4.07   409.4    7.3      33.397
2013    2        8    16  17    4.10   409.8    7.4      33.824
2013    2        8    16  24    4.13   410.2    7.5      34.298
2013    2        8    16  30    4.17   410.7    7.5      34.824
2013    2        8    16  37    4.21   411.2    7.6      35.403
2013    2        8    16  43    4.25   411.8    7.7      36.044
2013    2        8    16  50    4.30   412.5    7.8      36.743
2013    2        8    16  56    4.35   413.2    7.9      37.507
2013    2        8    17   3    4.41   414.0    8.0      38.333
2013    2        8    17  10    4.47   414.9    8.2      39.225
2013    2        8    17  16    4.54   415.8    8.3      40.179
2013    2        8    17  23    4.61   416.8    8.4      41.201
2013    2        8    17  29    4.69   417.9    8.6      42.291
2013    2        8    17  36    4.78   419.0    8.8      43.440
2013    2        8    17  42    4.87   420.2    9.0      44.635
2013    2        8    17  49    4.97   421.6    9.2      45.888
2013    2        8    17  55    5.07   423.0    9.4      47.240
2013    2        8    18   2    5.18   424.4    9.6      48.673
2013    2        8    18   9    5.28   426.0    9.8      50.159
2013    2        8    18  15    5.40   427.5   10.0      51.680
2013    2        8    18  22    5.51   429.0   10.3      53.210
2013    2        8    18  28    5.63   430.5   10.5      54.727
2013    2        8    18  35    5.74   432.0   10.7      56.209
2013    2        8    18  41    5.85   433.5   10.9      57.649
2013    2        8    18  48    5.97   434.9   11.2      59.046
2013    2        8    18  55    6.08   436.2   11.4      60.394
2013    2        8    19   1    6.19   437.4   11.6      61.660
2013    2        8    19   8    6.30   438.6   11.8      62.830
2013    2        8    19  14    6.40   439.7   12.0      63.907
2013    2        8    19  21    6.50   440.7   12.2      64.909
2013    2        8    19  27    6.60   441.7   12.3      65.851
2013    2        8    19  34    6.70   442.7   12.5      66.738
2013    2        8    19  41    6.79   443.6   12.7      67.567
2013    2        8    19  47    6.88   444.4   12.9      68.342
2013    2        8    19  54    6.96   445.2   13.0      69.066
2013    2        8    20   0    7.04   445.9   13.2      69.743
2013    2        8    20   7    7.12   446.6   13.3      70.373
2013    2        8    20  13    7.19   447.3   13.4      70.964
2013    2        8    20  20    7.25   447.9   13.5      71.520
2013    2        8    20  27    7.31   448.5   13.6      72.040
2013    2        8    20  33    7.37   449.0   13.7      72.514
2013    2        8    20  40    7.42   449.5   13.8      72.941
2013    2        8    20  46    7.46   449.9   13.9      73.324
2013    2        8    20  53    7.50   450.3   14.0      73.668
2013    2        8    20  59    7.54   450.6   14.0      73.976
2013    2        8    21   6    7.58   450.9   14.1      74.250
2013    2        8    21  13    7.61   451.2   14.1      74.491
2013    2        8    21  19    7.63   451.4   14.2      74.702
2013    2        8    21  26    7.66   451.6   14.2      74.882
2013    2        8    21  32    7.68   451.8   14.2      75.035
2013    2        8    21  39    7.69   452.0   14.2      75.161
2013    2        8    21  45    7.70   452.1   14.2      75.264
2013    2        8    21  52    7.71   452.3   14.3      75.345
2013    2        8    21  59    7.72   452.4   14.3      75.402
2013    2        8    22   5    7.72   452.4   14.2      75.437
2013    2        8    22  12    7.72   452.5   14.2      75.449
2013    2        8    22  18    7.71   452.5   14.2      75.437
2013    2        8    22  25    7.70   452.5   14.2      75.400
2013    2        8    22  31    7.69   452.5   14.1      75.337
2013    2        8    22  38    7.67   452.5   14.1      75.247
2013    2        8    22  44    7.66   452.4   14.0      75.132
2013    2        8    22  51    7.63   452.4   14.0      74.993
2013    2        8    22  58    7.61   452.2   13.9      74.827
2013    2        8    23   4    7.58   452.1   13.8      74.640
2013    2        8    23  11    7.55   452.0   13.8      74.426
2013    2        8    23  17    7.52   451.8   13.7      74.189
2013    2        8    23  24    7.48   451.6   13.6      73.930
2013    2        8    23  30    7.44   451.4   13.5      73.653
2013    2        8    23  37    7.40   451.2   13.4      73.360
2013    2        8    23  44    7.36   450.9   13.3      73.052
2013    2        8    23  50    7.31   450.7   13.2      72.736
2013    2        8    23  57    7.26   450.4   13.2      72.409
2013    2        9     0   3    7.21   450.2   13.1      72.076
2013    2        9     0  10    7.16   449.9   13.0      71.735
2013    2        9     0  16    7.11   449.6   12.9      71.387
2013    2        9     0  23    7.05   449.3   12.8      71.035
2013    2        9     0  29    6.99   449.0   12.7      70.681
2013    2        9     0  36    6.93   448.7   12.6      70.323
2013    2        9     0  43    6.88   448.4   12.5      69.961
2013    2        9     0  49    6.81   448.1   12.4      69.595
2013    2        9     0  56    6.75   447.8   12.3      69.224
2013    2        9     1   2    6.69   447.5   12.2      68.849
2013    2        9     1   9    6.63   447.2   12.1      68.468
2013    2        9     1  15    6.56   446.9   12.0      68.083
2013    2        9     1  22    6.50   446.5   11.9      67.695
2013    2        9     1  29    6.43   446.2   11.7      67.300
2013    2        9     1  35    6.37   445.9   11.6      66.899
2013    2        9     1  42    6.30   445.5   11.5      66.493
2013    2        9     1  48    6.24   445.2   11.4      66.083
2013    2        9     1  55    6.17   444.9   11.3      65.669
2013    2        9     2   1    6.11   444.5   11.2      65.254
2013    2        9     2   8    6.04   444.2   11.1      64.836
2013    2        9     2  15    5.98   443.9   11.0      64.418
2013    2        9     2  21    5.91   443.6   10.9      63.999
2013    2        9     2  28    5.85   443.3   10.8      63.582
2013    2        9     2  34    5.78   443.0   10.7      63.163
2013    2        9     2  41    5.72   442.7   10.6      62.747
2013    2        9     2  47    5.66   442.4   10.5      62.333
2013    2        9     2  54    5.59   442.2   10.4      61.923
2013    2        9     3   1    5.53   441.9   10.3      61.515
2013    2        9     3   7    5.47   441.6   10.2      61.110
2013    2        9     3  14    5.41   441.4   10.2      60.708
2013    2        9     3  20    5.36   441.1   10.1      60.310
2013    2        9     3  27    5.30   440.9   10.0      59.914
2013    2        9     3  33    5.24   440.6    9.9      59.523
2013    2        9     3  40    5.19   440.4    9.8      59.135
2013    2        9     3  47    5.13   440.1    9.7      58.752
2013    2        9     3  53    5.08   439.9    9.6      58.373
2013    2        9     4   0    5.03   439.6    9.6      57.999
2013    2        9     4   6    4.98   439.4    9.5      57.630
2013    2        9     4  13    4.93   439.2    9.4      57.266
2013    2        9     4  19    4.88   438.9    9.3      56.907
2013    2        9     4  26    4.83   438.7    9.2      56.555
2013    2        9     4  32    4.79   438.5    9.1      56.207
2013    2        9     4  39    4.74   438.3    9.1      55.866
2013    2        9     4  46    4.70   438.1    9.0      55.530
2013    2        9     4  52    4.66   437.9    8.9      55.200
2013    2        9     4  59    4.62   437.7    8.8      54.876
2013    2        9     5   5    4.58   437.5    8.8      54.558
2013    2        9     5  12    4.55   437.4    8.7      54.246
2013    2        9     5  18    4.51   437.2    8.6      53.940
2013    2        9     5  25    4.48   437.0    8.5      53.639
2013    2        9     5  32    4.45   436.9    8.5      53.344
2013    2        9     5  38    4.42   436.7    8.4      53.055
2013    2        9     5  45    4.39   436.6    8.3      52.772
2013    2        9     5  51    4.36   436.4    8.3      52.495
2013    2        9     5  58    4.34   436.3    8.2      52.223
2013    2        9     6   4    4.31   436.1    8.2      51.957
2013    2        9     6  11    4.29   436.0    8.1      51.696
2013    2        9     6  17    4.27   435.9    8.1      51.440
2013    2        9     6  24    4.25   435.8    8.0      51.189
2013    2        9     6  31    4.23   435.7    7.9      50.943
2013    2        9     6  37    4.21   435.5    7.9      50.702
2013    2        9     6  44    4.19   435.5    7.8      50.464
2013    2        9     6  50    4.18   435.4    7.8      50.230
2013    2        9     6  57    4.16   435.3    7.8      50.000
2013    2        9     7   3    4.15   435.2    7.7      49.773
2013    2        9     7  10    4.14   435.1    7.7      49.549
2013    2        9     7  17    4.13   435.1    7.6      49.328
2013    2        9     7  23    4.12   435.0    7.6      49.110
2013    2        9     7  30    4.11   435.0    7.6      48.893
2013    2        9     7  36    4.10   435.0    7.5      48.678
2013    2        9     7  43    4.10   434.9    7.5      48.466
2013    2        9     7  49    4.09   434.9    7.5      48.255
2013    2        9     7  56    4.08   434.9    7.5      48.046
2013    2        9     8   3    4.08   434.9    7.4      47.839
2013    2        9     8   9    4.08   434.9    7.4      47.633
2013    2        9     8  16    4.07   434.9    7.4      47.430
2013    2        9     8  22    4.07   434.9    7.3      47.228
2013    2        9     8  29    4.07   435.0    7.3      47.029
2013    2        9     8  35    4.07   435.0    7.3      46.832
2013    2        9     8  42    4.07   435.0    7.3      46.637
2013    2        9     8  48    4.07   435.1    7.3      46.446
2013    2        9     8  55    4.07   435.1    7.2      46.258
2013    2        9     9   2    4.08   435.2    7.2      46.075
2013    2        9     9   8    4.08   435.2    7.2      45.895
2013    2        9     9  15    4.09   435.3    7.2      45.720
2013    2        9     9  21    4.09   435.3    7.2      45.549
2013    2        9     9  28    4.10   435.4    7.1      45.383
2013    2        9     9  34    4.11   435.4    7.1      45.221
2013    2        9     9  41    4.12   435.5    7.1      45.063
2013    2        9     9  48    4.13   435.5    7.1      44.910
2013    2        9     9  54    4.14   435.6    7.1      44.760
2013    2        9    10   1    4.15   435.6    7.1      44.612
2013    2        9    10   7    4.16   435.7    7.0      44.468
2013    2        9    10  14    4.18   435.8    7.0      44.325
2013    2        9    10  20    4.19   435.8    7.0      44.183
2013    2        9    10  27    4.21   435.9    7.0      44.042
2013    2        9    10  34    4.22   436.0    7.0      43.900
2013    2        9    10  40    4.24   436.0    7.0      43.756
2013    2        9    10  47    4.26   436.1    7.0      43.611
2013    2        9    10  53    4.28   436.2    6.9      43.463
2013    2        9    11   0    4.30   436.3    6.9      43.314
2013    2        9    11   6    4.32   436.3    6.9      43.162
2013    2        9    11  13    4.33   436.4    6.9      43.010
2013    2        9    11  20    4.36   436.5    6.9      42.856
2013    2        9    11  26    4.38   436.6    6.9      42.701
2013    2        9    11  33    4.40   436.7    6.9      42.545
2013    2        9    11  39    4.42   436.8    6.8      42.389
2013    2        9    11  46    4.44   436.9    6.8      42.232
2013    2        9    11  52    4.46   437.0    6.8      42.075
2013    2        9    11  59    4.48   437.1    6.8      41.918
2013    2        9    12   6    4.50   437.2    6.8      41.759
2013    2        9    12  12    4.52   437.3    6.8      41.599
2013    2        9    12  19    4.55   437.4    6.7      41.438
2013    2        9    12  25    4.57   437.5    6.7      41.273
2013    2        9    12  32    4.59   437.6    6.7      41.106
2013    2        9    12  38    4.61   437.6    6.7      40.935
2013    2        9    12  45    4.63   437.7    6.6      40.761
2013    2        9    12  51    4.65   437.7    6.6      40.582
2013    2        9    12  58    4.67   437.8    6.6      40.398
2013    2        9    13   5    4.69   437.8    6.5      40.210
2013    2        9    13  11    4.71   437.9    6.5      40.018
2013    2        9    13  18    4.73   437.9    6.5      39.823
2013    2        9    13  24    4.74   437.9    6.4      39.626
2013    2        9    13  31    4.76   438.0    6.4      39.430
2013    2        9    13  37    4.78   438.0    6.4      39.233
2013    2        9    13  44    4.79   438.0    6.3      39.037
2013    2        9    13  50    4.81   438.0    6.3      38.842
2013    2        9    13  57    4.82   438.0    6.3      38.647
2013    2        9    14   4    4.83   438.0    6.2      38.452
2013    2        9    14  10    4.85   438.0    6.2      38.257
2013    2        9    14  17    4.86   438.0    6.1      38.065
2013    2        9    14  23    4.87   438.0    6.1      37.872
2013    2        9    14  30    4.88   438.0    6.1      37.681
2013    2        9    14  36    4.89   438.0    6.0      37.489
2013    2        9    14  43    4.90   438.0    6.0      37.298
2013    2        9    14  50    4.91   438.0    6.0      37.105
2013    2        9    14  56    4.92   438.0    5.9      36.911
2013    2        9    15   3    4.92   438.0    5.9      36.715
2013    2        9    15   9    4.93   438.0    5.8      36.518
2013    2        9    15  16    4.94   438.0    5.8      36.320
2013    2        9    15  22    4.94   438.0    5.8      36.121
2013    2        9    15  29    4.95   437.9    5.7      35.920
2013    2        9    15  35    4.95   437.9    5.7      35.718
2013    2        9    15  42    4.95   437.9    5.6      35.514
2013    2        9    15  49    4.96   437.8    5.6      35.310
2013    2        9    15  55    4.96   437.8    5.6      35.105
2013    2        9    16   2    4.96   437.8    5.5      34.900
2013    2        9    16   8    4.96   437.7    5.5      34.695
2013    2        9    16  15    4.96   437.7    5.5      34.492
2013    2        9    16  21    4.96   437.6    5.4      34.290
2013    2        9    16  28    4.96   437.6    5.4      34.090
2013    2        9    16  35    4.95   437.5    5.3      33.892
2013    2        9    16  41    4.95   437.5    5.3      33.697
2013    2        9    16  48    4.95   437.4    5.3      33.504
2013    2        9    16  54    4.94   437.3    5.2      33.313
2013    2        9    17   1    4.94   437.3    5.2      33.125
2013    2        9    17   7    4.93   437.2    5.2      32.940
2013    2        9    17  14    4.93   437.2    5.1      32.757
2013    2        9    17  21    4.92   437.1    5.1      32.576
2013    2        9    17  27    4.92   437.1    5.1      32.397
2013    2        9    17  34    4.91   437.0    5.1      32.221
2013    2        9    17  40    4.91   437.0    5.0      32.045
2013    2        9    17  47    4.90   436.9    5.0      31.871
2013    2        9    17  53    4.89   436.8    5.0      31.699
2013    2        9    18   0    4.89   436.8    4.9      31.527
2013    2        9    18   7    4.88   436.7    4.9      31.357
2013    2        9    18  13    4.87   436.7    4.9      31.188
2013    2        9    18  20    4.87   436.6    4.9      31.020
2013    2        9    18  26    4.86   436.6    4.8      30.853
2013    2        9    18  33    4.85   436.5    4.8      30.686
2013    2        9    18  39    4.85   436.4    4.8      30.520
2013    2        9    18  46    4.84   436.4    4.8      30.355
2013    2        9    18  53    4.83   436.3    4.7      30.190
2013    2        9    18  59    4.82   436.2    4.7      30.026
2013    2        9    19   6    4.81   436.2    4.7      29.863
2013    2        9    19  12    4.81   436.1    4.7      29.701
2013    2        9    19  19    4.80   436.0    4.6      29.541
2013    2        9    19  25    4.79   436.0    4.6      29.381
2013    2        9    19  32    4.78   435.9    4.6      29.223
2013    2        9    19  38    4.77   435.8    4.6      29.067
2013    2        9    19  45    4.76   435.7    4.6      28.912
2013    2        9    19  52    4.76   435.7    4.5      28.758
2013    2        9    19  58    4.75   435.6    4.5      28.607
2013    2        9    20   5    4.74   435.5    4.5      28.458
2013    2        9    20  11    4.73   435.5    4.5      28.310
2013    2        9    20  18    4.72   435.4    4.5      28.165
2013    2        9    20  24    4.71   435.3    4.5      28.021
2013    2        9    20  31    4.70   435.3    4.4      27.880
2013    2        9    20  37    4.69   435.2    4.4      27.741
2013    2        9    20  44    4.68   435.1    4.4      27.603
2013    2        9    20  51    4.67   435.0    4.4      27.468
2013    2        9    20  57    4.67   434.9    4.4      27.335
2013    2        9    21   4    4.66   434.9    4.4      27.204
2013    2        9    21  10    4.65   434.8    4.4      27.074
2013    2        9    21  17    4.64   434.7    4.3      26.947
2013    2        9    21  23    4.63   434.6    4.3      26.822
2013    2        9    21  30    4.62   434.5    4.3      26.699
2013    2        9    21  37    4.61   434.4    4.3      26.577
2013    2        9    21  43    4.60   434.3    4.3      26.458
2013    2        9    21  50    4.59   434.1    4.3      26.339
2013    2        9    21  56    4.58   434.0    4.3      26.223
2013    2        9    22   3    4.57   433.9    4.3      26.107
2013    2        9    22   9    4.56   433.8    4.3      25.993
2013    2        9    22  16    4.55   433.7    4.2      25.880
2013    2        9    22  22    4.54   433.5    4.2      25.767
2013    2        9    22  29    4.53   433.4    4.2      25.655
2013    2        9    22  36    4.52   433.3    4.2      25.545
2013    2        9    22  42    4.50   433.2    4.2      25.435
2013    2        9    22  49    4.49   433.0    4.2      25.326
2013    2        9    22  55    4.48   432.9    4.2      25.218
2013    2        9    23   2    4.47   432.8    4.2      25.111
2013    2        9    23   8    4.46   432.6    4.2      25.005
2013    2        9    23  15    4.45   432.5    4.2      24.901
2013    2        9    23  22    4.44   432.4    4.2      24.798
2013    2        9    23  28    4.43   432.2    4.2      24.697
2013    2        9    23  35    4.42   432.1    4.2      24.598
2013    2        9    23  41    4.41   432.0    4.2      24.501
2013    2        9    23  48    4.40   431.8    4.2      24.407
2013    2        9    23  54    4.39   431.7    4.1      24.314
2013    2       10     0   1    4.38   431.5    4.1      24.225
2013    2       10     0   8    4.37   431.4    4.1      24.137
2013    2       10     0  14    4.36   431.2    4.1      24.052
2013    2       10     0  21    4.35   431.1    4.1      23.970
2013    2       10     0  27    4.34   430.9    4.1      23.890
2013    2       10     0  34    4.33   430.7    4.1      23.813
2013    2       10     0  40    4.32   430.6    4.1      23.738
2013    2       10     0  47    4.31   430.4    4.1      23.666
2013    2       10     0  54    4.30   430.3    4.1      23.595
2013    2       10     1   0    4.29   430.1    4.1      23.527
2013    2       10     1   7    4.28   429.9    4.1      23.460
2013    2       10     1  13    4.27   429.7    4.2      23.396
2013    2       10     1  20    4.26   429.6    4.2      23.333
2013    2       10     1  26    4.25   429.4    4.2      23.271
2013    2       10     1  33    4.24   429.2    4.2      23.211
2013    2       10     1  40    4.23   429.0    4.2      23.152
2013    2       10     1  46    4.22   428.8    4.2      23.094
2013    2       10     1  53    4.21   428.7    4.2      23.037
2013    2       10     1  59    4.20   428.5    4.2      22.982
2013    2       10     2   6    4.19   428.3    4.2      22.929
2013    2       10     2  12    4.18   428.1    4.2      22.876
2013    2       10     2  19    4.17   427.9    4.2      22.826
2013    2       10     2  25    4.16   427.7    4.2      22.777
2013    2       10     2  32    4.15   427.5    4.2      22.730
2013    2       10     2  39    4.15   427.3    4.2      22.684
2013    2       10     2  45    4.14   427.1    4.2      22.641
2013    2       10     2  52    4.13   426.9    4.2      22.600
2013    2       10     2  58    4.12   426.7    4.3      22.562
2013    2       10     3   5    4.11   426.5    4.3      22.527
2013    2       10     3  11    4.10   426.3    4.3      22.494
2013    2       10     3  18    4.09   426.1    4.3      22.465
2013    2       10     3  24    4.08   425.9    4.3      22.439
2013    2       10     3  31    4.07   425.6    4.3      22.416
2013    2       10     3  38    4.06   425.4    4.3      22.397
2013    2       10     3  44    4.06   425.2    4.3      22.382
2013    2       10     3  51    4.05   425.0    4.4      22.370
2013    2       10     3  57    4.04   424.8    4.4      22.363
2013    2       10     4   4    4.03   424.6    4.4      22.360
2013    2       10     4  10    4.02   424.4    4.4      22.361
2013    2       10     4  17    4.01   424.2    4.4      22.367
2013    2       10     4  23    4.00   424.0    4.4      22.376
2013    2       10     4  30    4.00   423.8    4.4      22.391
2013    2       10     4  37    3.99   423.6    4.5      22.409
2013    2       10     4  43    3.98   423.4    4.5      22.432
2013    2       10     4  50    3.97   423.2    4.5      22.460
2013    2       10     4  56    3.96   423.0    4.5      22.491
2013    2       10     5   3    3.95   422.8    4.5      22.527
2013    2       10     5   9    3.95   422.6    4.6      22.567
2013    2       10     5  16    3.94   422.4    4.6      22.610
2013    2       10     5  23    3.93   422.2    4.6      22.658
2013    2       10     5  29    3.92   422.0    4.6      22.709
2013    2       10     5  36    3.91   421.8    4.6      22.764
2013    2       10     5  42    3.91   421.7    4.6      22.822
2013    2       10     5  49    3.90   421.5    4.7      22.883
2013    2       10     5  55    3.89   421.3    4.7      22.948
2013    2       10     6   2    3.88   421.1    4.7      23.015
2013    2       10     6   8    3.88   420.9    4.7      23.085
2013    2       10     6  15    3.87   420.7    4.7      23.158
2013    2       10     6  22    3.86   420.6    4.8      23.233
2013    2       10     6  28    3.85   420.4    4.8      23.310
2013    2       10     6  35    3.85   420.2    4.8      23.389
2013    2       10     6  41    3.84   420.0    4.8      23.470
2013    2       10     6  48    3.83   419.8    4.8      23.552
2013    2       10     6  54    3.83   419.6    4.9      23.635
2013    2       10     7   1    3.82   419.5    4.9      23.720
2013    2       10     7   8    3.81   419.3    4.9      23.805
2013    2       10     7  14    3.81   419.1    4.9      23.891
2013    2       10     7  21    3.80   418.9    4.9      23.977
2013    2       10     7  27    3.79   418.7    5.0      24.064
2013    2       10     7  34    3.78   418.6    5.0      24.150
2013    2       10     7  40    3.78   418.4    5.0      24.237
2013    2       10     7  47    3.77   418.2    5.0      24.324
2013    2       10     7  54    3.77   418.0    5.0      24.411
2013    2       10     8   0    3.76   417.8    5.1      24.498
2013    2       10     8   7    3.75   417.7    5.1      24.584
2013    2       10     8  13    3.75   417.5    5.1      24.670
2013    2       10     8  20    3.74   417.3    5.1      24.756
2013    2       10     8  26    3.73   417.1    5.1      24.841
2013    2       10     8  33    3.73   417.0    5.2      24.925
2013    2       10     8  40    3.72   416.8    5.2      25.009
2013    2       10     8  46    3.72   416.6    5.2      25.093
2013    2       10     8  53    3.71   416.5    5.2      25.176
2013    2       10     8  59    3.70   416.3    5.2      25.258
2013    2       10     9   6    3.70   416.1    5.3      25.339
2013    2       10     9  12    3.69   416.0    5.3      25.420
2013    2       10     9  19    3.69   415.8    5.3      25.500
2013    2       10     9  26    3.68   415.6    5.3      25.579
2013    2       10     9  32    3.68   415.4    5.3      25.657
2013    2       10     9  39    3.67   415.3    5.3      25.735
2013    2       10     9  45    3.66   415.1    5.4      25.812
2013    2       10     9  52    3.66   414.9    5.4      25.889
2013    2       10     9  58    3.65   414.8    5.4      25.964
2013    2       10    10   5    3.65   414.6    5.4      26.038
2013    2       10    10  11    3.64   414.4    5.4      26.111
2013    2       10    10  18    3.64   414.3    5.5      26.184
2013    2       10    10  25    3.63   414.1    5.5      26.254
2013    2       10    10  31    3.63   413.9    5.5      26.323
2013    2       10    10  38    3.62   413.7    5.5      26.390
2013    2       10    10  44    3.62   413.6    5.5      26.456
2013    2       10    10  51    3.62   413.4    5.6      26.520
2013    2       10    10  57    3.61   413.2    5.6      26.581
2013    2       10    11   4    3.61   413.0    5.6      26.641
2013    2       10    11  10    3.60   412.8    5.6      26.698
2013    2       10    11  17    3.60   412.7    5.6      26.752
2013    2       10    11  24    3.60   412.5    5.7      26.804
2013    2       10    11  30    3.59   412.3    5.7      26.854
2013    2       10    11  37    3.59   412.1    5.7      26.902
2013    2       10    11  43    3.58   412.0    5.7      26.946
2013    2       10    11  50    3.58   411.8    5.7      26.988
2013    2       10    11  56    3.58   411.6    5.7      27.027
2013    2       10    12   3    3.58   411.5    5.8      27.064
2013    2       10    12   9    3.57   411.3    5.8      27.098
2013    2       10    12  16    3.57   411.2    5.8      27.130
2013    2       10    12  23    3.57   411.0    5.8      27.159
2013    2       10    12  29    3.57   410.9    5.8      27.185
2013    2       10    12  36    3.57   410.7    5.8      27.208
2013    2       10    12  42    3.56   410.6    5.8      27.229
2013    2       10    12  49    3.56   410.4    5.9      27.247
2013    2       10    12  55    3.56   410.3    5.9      27.262
2013    2       10    13   2    3.56   410.2    5.9      27.275
2013    2       10    13   9    3.56   410.0    5.9      27.285
2013    2       10    13  15    3.56   409.9    5.9      27.293
2013    2       10    13  22    3.56   409.8    5.9      27.298
2013    2       10    13  28    3.56   409.6    5.9      27.300
2013    2       10    13  35    3.56   409.5    5.9      27.300
2013    2       10    13  41    3.56   409.4    5.9      27.298
2013    2       10    13  48    3.56   409.2    5.9      27.293
2013    2       10    13  54    3.56   409.1    5.9      27.286
2013    2       10    14   1    3.56   409.0    5.9      27.277
2013    2       10    14   8    3.56   408.9    5.9      27.265
2013    2       10    14  14    3.56   408.7    5.9      27.251
2013    2       10    14  21    3.56   408.6    5.9      27.235
2013    2       10    14  27    3.56   408.5    5.9      27.217
2013    2       10    14  34    3.56   408.4    5.9      27.197
2013    2       10    14  40    3.56   408.2    5.9      27.175
2013    2       10    14  47    3.56   408.1    5.9      27.152
2013    2       10    14  54    3.57   408.0    5.9      27.126
2013    2       10    15   0    3.57   407.9    5.9      27.099
2013    2       10    15   7    3.57   407.7    5.9      27.069
2013    2       10    15  13    3.57   407.6    5.9      27.039
2013    2       10    15  20    3.57   407.5    5.9      27.006
2013    2       10    15  26    3.57   407.4    5.9      26.972
2013    2       10    15  33    3.57   407.3    5.9      26.936
2013    2       10    15  40    3.57   407.2    5.9      26.900
2013    2       10    15  46    3.57   407.0    5.9      26.861
2013    2       10    15  53    3.57   406.9    5.9      26.822
2013    2       10    15  59    3.57   406.8    5.9      26.781
2013    2       10    16   6    3.57   406.7    5.9      26.739
2013    2       10    16  12    3.58   406.6    5.9      26.695
2013    2       10    16  19    3.58   406.4    5.9      26.651
2013    2       10    16  26    3.58   406.3    5.9      26.606
2013    2       10    16  32    3.58   406.2    5.9      26.560
2013    2       10    16  39    3.58   406.1    5.9      26.512
2013    2       10    16  45    3.58   406.0    5.9      26.465
2013    2       10    16  52    3.58   405.8    5.9      26.416
2013    2       10    16  58    3.58   405.7    5.9      26.366
2013    2       10    17   5    3.58   405.6    5.9      26.316
2013    2       10    17  11    3.58   405.5    5.9      26.265
2013    2       10    17  18    3.58   405.4    5.9      26.214
2013    2       10    17  25    3.58   405.2    5.9      26.162
2013    2       10    17  31    3.59   405.1    5.9      26.109
2013    2       10    17  38    3.59   405.0    5.8      26.056
2013    2       10    17  44    3.59   404.9    5.8      26.003
2013    2       10    17  51    3.59   404.7    5.8      25.949
2013    2       10    17  57    3.59   404.6    5.8      25.895
2013    2       10    18   4    3.59   404.5    5.8      25.841
2013    2       10    18  10    3.59   404.4    5.8      25.786
2013    2       10    18  17    3.59   404.2    5.8      25.732
2013    2       10    18  24    3.59   404.1    5.8      25.677
2013    2       10    18  30    3.59   404.0    5.8      25.622
2013    2       10    18  37    3.59   403.9    5.8      25.566
2013    2       10    18  43    3.60   403.7    5.8      25.511
2013    2       10    18  50    3.60   403.6    5.8      25.456
2013    2       10    18  56    3.60   403.5    5.8      25.400
2013    2       10    19   3    3.60   403.3    5.8      25.344
2013    2       10    19   9    3.60   403.2    5.7      25.289
2013    2       10    19  16    3.60   403.1    5.7      25.233
2013    2       10    19  23    3.60   402.9    5.7      25.178
2013    2       10    19  29    3.60   402.8    5.7      25.122
2013    2       10    19  36    3.60   402.7    5.7      25.066
2013    2       10    19  42    3.60   402.6    5.7      25.011
2013    2       10    19  49    3.60   402.4    5.7      24.955
2013    2       10    19  55    3.60   402.3    5.7      24.900
2013    2       10    20   2    3.60   402.2    5.7      24.845
2013    2       10    20   8    3.60   402.0    5.7      24.790
2013    2       10    20  15    3.61   401.9    5.7      24.735
2013    2       10    20  22    3.61   401.8    5.7      24.680
2013    2       10    20  28    3.61   401.6    5.7      24.625
2013    2       10    20  35    3.61   401.5    5.7      24.570
2013    2       10    20  41    3.61   401.4    5.6      24.516
2013    2       10    20  48    3.61   401.3    5.6      24.462
2013    2       10    20  54    3.61   401.1    5.6      24.408
2013    2       10    21   1    3.61   401.0    5.6      24.354
2013    2       10    21   8    3.61   400.9    5.6      24.300
2013    2       10    21  14    3.61   400.7    5.6      24.247
2013    2       10    21  21    3.61   400.6    5.6      24.193
2013    2       10    21  27    3.61   400.5    5.6      24.140
2013    2       10    21  34    3.61   400.3    5.6      24.087
2013    2       10    21  40    3.61   400.2    5.6      24.034
2013    2       10    21  47    3.61   400.1    5.6      23.982
2013    2       10    21  54    3.61   399.9    5.6      23.929
2013    2       10    22   0    3.61   399.8    5.6      23.877
2013    2       10    22   7    3.61   399.7    5.6      23.825
2013    2       10    22  13    3.61   399.5    5.5      23.773
2013    2       10    22  20    3.61   399.4    5.5      23.722
2013    2       10    22  26    3.61   399.3    5.5      23.671
2013    2       10    22  33    3.61   399.1    5.5      23.620
2013    2       10    22  40    3.61   399.0    5.5      23.569
2013    2       10    22  46    3.61   398.8    5.5      23.519
2013    2       10    22  53    3.61   398.7    5.5      23.470
2013    2       10    22  59    3.61   398.6    5.5      23.420
2013    2       10    23   6    3.61   398.4    5.5      23.372
2013    2       10    23  12    3.61   398.3    5.5      23.324
2013    2       10    23  19    3.61   398.2    5.5      23.276
2013    2       10    23  26    3.61   398.0    5.5      23.229
2013    2       10    23  32    3.61   397.9    5.5      23.183
2013    2       10    23  39    3.61   397.7    5.5      23.138
2013    2       10    23  45    3.61   397.6    5.5      23.093
2013    2       10    23  52    3.62   397.5    5.5      23.049
2013    2       10    23  58    3.62   397.3    5.5      23.007
2013    2       11     0   5    3.62   397.2    5.5      22.965
2013    2       11     0  11    3.62   397.0    5.5      22.924
2013    2       11     0  18    3.62   396.9    5.5      22.884
2013    2       11     0  25    3.62   396.8    5.4      22.845
2013    2       11     0  31    3.62   396.6    5.4      22.807
2013    2       11     0  38    3.62   396.5    5.4      22.770
2013    2       11     0  44    3.62   396.4    5.4      22.734
2013    2       11     0  51    3.62   396.2    5.4      22.700
2013    2       11     0  57    3.62   396.1    5.4      22.667
2013    2       11     1   4    3.62   395.9    5.4      22.635
2013    2       11     1  10    3.62   395.8    5.4      22.604
2013    2       11     1  17    3.62   395.7    5.4      22.574
2013    2       11     1  24    3.61   395.5    5.4      22.546
2013    2       11     1  30    3.61   395.4    5.4      22.518
2013    2       11     1  37    3.61   395.3    5.4      22.492
2013    2       11     1  43    3.61   395.2    5.4      22.467
2013    2       11     1  50    3.61   395.0    5.4      22.443
2013    2       11     1  56    3.61   394.9    5.4      22.421
2013    2       11     2   3    3.61   394.8    5.4      22.399
2013    2       11     2   9    3.61   394.6    5.4      22.379
2013    2       11     2  16    3.61   394.5    5.4      22.359
2013    2       11     2  23    3.61   394.4    5.5      22.341
2013    2       11     2  29    3.61   394.2    5.5      22.323
2013    2       11     2  36    3.61   394.1    5.5      22.307
2013    2       11     2  42    3.61   394.0    5.5      22.292
2013    2       11     2  49    3.61   393.9    5.5      22.277
2013    2       11     2  55    3.61   393.7    5.5      22.264
2013    2       11     3   2    3.61   393.6    5.5      22.251
2013    2       11     3   8    3.61   393.5    5.5      22.239
2013    2       11     3  15    3.61   393.3    5.5      22.228
2013    2       11     3  22    3.61   393.2    5.5      22.217
2013    2       11     3  28    3.61   393.1    5.5      22.208
2013    2       11     3  35    3.60   392.9    5.5      22.199
2013    2       11     3  41    3.60   392.8    5.5      22.191
2013    2       11     3  48    3.60   392.6    5.5      22.183
2013    2       11     3  54    3.60   392.5    5.5      22.177
2013    2       11     4   1    3.60   392.4    5.5      22.170
2013    2       11     4   7    3.60   392.2    5.5      22.165
2013    2       11     4  14    3.60   392.1    5.5      22.160
2013    2       11     4  21    3.60   391.9    5.5      22.156
2013    2       11     4  27    3.60   391.8    5.5      22.152
2013    2       11     4  34    3.60   391.6    5.5      22.149
2013    2       11     4  40    3.60   391.5    5.5      22.147
2013    2       11     4  47    3.60   391.3    5.5      22.145
2013    2       11     4  53    3.60   391.2    5.6      22.144
2013    2       11     5   0    3.59   391.0    5.6      22.143
2013    2       11     5   7    3.59   390.9    5.6      22.143
2013    2       11     5  13    3.59   390.7    5.6      22.144
2013    2       11     5  20    3.59   390.6    5.6      22.145
2013    2       11     5  26    3.59   390.4    5.6      22.147
2013    2       11     5  33    3.59   390.3    5.6      22.149
2013    2       11     5  39    3.59   390.1    5.6      22.152
2013    2       11     5  46    3.59   390.0    5.6      22.156
2013    2       11     5  53    3.59   389.8    5.6      22.159
2013    2       11     5  59    3.59   389.6    5.6      22.164
2013    2       11     6   6    3.59   389.5    5.6      22.169
2013    2       11     6  12    3.59   389.3    5.6      22.175
2013    2       11     6  19    3.59   389.2    5.6      22.181
2013    2       11     6  25    3.59   389.0    5.6      22.187
2013    2       11     6  32    3.59   388.8    5.6      22.194
2013    2       11     6  39    3.59   388.7    5.7      22.202
2013    2       11     6  45    3.59   388.5    5.7      22.210
2013    2       11     6  52    3.58   388.4    5.7      22.218
2013    2       11     6  58    3.58   388.2    5.7      22.227
2013    2       11     7   5    3.58   388.0    5.7      22.236
2013    2       11     7  11    3.58   387.9    5.7      22.246
2013    2       11     7  18    3.58   387.7    5.7      22.256
2013    2       11     7  24    3.58   387.6    5.7      22.266
2013    2       11     7  31    3.58   387.4    5.7      22.276
2013    2       11     7  38    3.58   387.2    5.7      22.287
2013    2       11     7  44    3.58   387.1    5.7      22.298
2013    2       11     7  51    3.58   386.9    5.7      22.309
2013    2       11     7  57    3.58   386.8    5.7      22.320
2013    2       11     8   4    3.58   386.6    5.8      22.331
2013    2       11     8  10    3.59   386.5    5.8      22.343
2013    2       11     8  17    3.59   386.3    5.8      22.354
2013    2       11     8  23    3.59   386.1    5.8      22.365
2013    2       11     8  30    3.59   386.0    5.8      22.377
2013    2       11     8  37    3.59   385.8    5.8      22.388
2013    2       11     8  43    3.59   385.7    5.8      22.399
2013    2       11     8  50    3.59   385.5    5.8      22.410
2013    2       11     8  56    3.59   385.4    5.8      22.421
2013    2       11     9   3    3.59   385.2    5.8      22.431
2013    2       11     9   9    3.59   385.0    5.8      22.442
2013    2       11     9  16    3.59   384.9    5.8      22.452
2013    2       11     9  22    3.59   384.7    5.9      22.462
2013    2       11     9  29    3.59   384.6    5.9      22.472
2013    2       11     9  36    3.59   384.4    5.9      22.481
2013    2       11     9  42    3.59   384.3    5.9      22.490
2013    2       11     9  49    3.59   384.1    5.9      22.499
2013    2       11     9  55    3.59   383.9    5.9      22.507
2013    2       11    10   2    3.59   383.8    5.9      22.515
2013    2       11    10   8    3.60   383.6    5.9      22.522
2013    2       11    10  15    3.60   383.5    5.9      22.529
2013    2       11    10  21    3.60   383.3    5.9      22.536
2013    2       11    10  28    3.60   383.2    5.9      22.542
2013    2       11    10  35    3.60   383.0    5.9      22.548
2013    2       11    10  41    3.60   382.9    6.0      22.554
2013    2       11    10  48    3.60   382.7    6.0      22.559
2013    2       11    10  54    3.60   382.6    6.0      22.563
2013    2       11    11   1    3.60   382.4    6.0      22.568
2013    2       11    11   7    3.60   382.3    6.0      22.572
2013    2       11    11  14    3.60   382.1    6.0      22.575
2013    2       11    11  21    3.61   382.0    6.0      22.579
2013    2       11    11  27    3.61   381.8    6.0      22.581
2013    2       11    11  34    3.61   381.7    6.0      22.584
2013    2       11    11  40    3.61   381.5    6.0      22.586
2013    2       11    11  47    3.61   381.4    6.0      22.588
2013    2       11    11  53    3.61   381.2    6.0      22.589
2013    2       11    12   0    3.61   381.1    6.0      22.591
2013    2       11    12   7    3.61   381.0    6.0      22.592
2013    2       11    12  13    3.61   380.8    6.0      22.592
2013    2       11    12  20    3.61   380.7    6.1      22.592
2013    2       11    12  26    3.62   380.5    6.1      22.592
2013    2       11    12  33    3.62   380.4    6.1      22.592
2013    2       11    12  39    3.62   380.2    6.1      22.591
2013    2       11    12  46    3.62   380.1    6.1      22.590
2013    2       11    12  53    3.62   380.0    6.1      22.589
2013    2       11    12  59    3.62   379.8    6.1      22.587
2013    2       11    13   6    3.62   379.7    6.1      22.586
2013    2       11    13  12    3.62   379.5    6.1      22.584
2013    2       11    13  19    3.62   379.4    6.1      22.581
2013    2       11    13  25    3.62   379.3    6.1      22.579
2013    2       11    13  32    3.63   379.1    6.1      22.576
2013    2       11    13  38    3.63   379.0    6.1      22.573
2013    2       11    13  45    3.63   378.8    6.1      22.570
2013    2       11    13  52    3.63   378.7    6.1      22.567
2013    2       11    13  58    3.63   378.6    6.1      22.563
2013    2       11    14   5    3.63   378.4    6.1      22.560
2013    2       11    14  11    3.63   378.3    6.1      22.556
2013    2       11    14  18    3.63   378.1    6.1      22.551
2013    2       11    14  24    3.63   378.0    6.1      22.547
2013    2       11    14  31    3.64   377.9    6.1      22.543
2013    2       11    14  38    3.64   377.7    6.2      22.538
2013    2       11    14  44    3.64   377.6    6.2      22.533
2013    2       11    14  51    3.64   377.5    6.2      22.528
2013    2       11    14  57    3.64   377.3    6.2      22.523
2013    2       11    15   4    3.64   377.2    6.2      22.517
2013    2       11    15  10    3.64   377.0    6.2      22.512
2013    2       11    15  17    3.64   376.9    6.2      22.506
2013    2       11    15  23    3.64   376.8    6.2      22.500
2013    2       11    15  30    3.64   376.6    6.2      22.494
2013    2       11    15  37    3.65   376.5    6.2      22.488
2013    2       11    15  43    3.65   376.3    6.2      22.482
2013    2       11    15  50    3.65   376.2    6.2      22.475
2013    2       11    15  56    3.65   376.1    6.2      22.469
2013    2       11    16   3    3.65   375.9    6.2      22.462
2013    2       11    16   9    3.65   375.8    6.2      22.455
2013    2       11    16  16    3.65   375.7    6.2      22.448
2013    2       11    16  22    3.65   375.5    6.2      22.441
2013    2       11    16  29    3.66   375.4    6.2      22.433
2013    2       11    16  36    3.66   375.3    6.2      22.426
2013    2       11    16  42    3.66   375.1    6.2      22.418
2013    2       11    16  49    3.66   375.0    6.2      22.410
2013    2       11    16  55    3.66   374.8    6.2      22.402
2013    2       11    17   2    3.66   374.7    6.2      22.394
2013    2       11    17   8    3.66   374.6    6.2      22.386
2013    2       11    17  15    3.67   374.4    6.2      22.378
2013    2       11    17  21    3.67   374.3    6.2      22.370
2013    2       11    17  28    3.67   374.2    6.2      22.361
2013    2       11    17  35    3.67   374.0    6.2      22.353
2013    2       11    17  41    3.67   373.9    6.3      22.344
2013    2       11    17  48    3.67   373.7    6.3      22.335
2013    2       11    17  54    3.67   373.6    6.3      22.327
2013    2       11    18   1    3.68   373.5    6.3      22.318
2013    2       11    18   7    3.68   373.3    6.3      22.310
2013    2       11    18  14    3.68   373.2    6.3      22.301
2013    2       11    18  20    3.68   373.1    6.3      22.292
2013    2       11    18  27    3.68   372.9    6.3      22.284
2013    2       11    18  34    3.68   372.8    6.3      22.276
2013    2       11    18  40    3.69   372.6    6.3      22.267
2013    2       11    18  47    3.69   372.5    6.3      22.259
2013    2       11    18  53    3.69   372.4    6.3      22.251
2013    2       11    19   0    3.69   372.2    6.3      22.244
2013    2       11    19   6    3.69   372.1    6.3      22.236
2013    2       11    19  13    3.69   372.0    6.3      22.229
2013    2       11    19  20    3.70   371.8    6.3      22.222
2013    2       11    19  26    3.70   371.7    6.3      22.216
2013    2       11    19  33    3.70   371.5    6.3      22.210
2013    2       11    19  39    3.70   371.4    6.3      22.204
2013    2       11    19  46    3.71   371.3    6.3      22.199
2013    2       11    19  52    3.71   371.1    6.3      22.194
2013    2       11    19  59    3.71   371.0    6.4      22.189
2013    2       11    20   6    3.71   370.9    6.4      22.185
2013    2       11    20  12    3.71   370.7    6.4      22.182
2013    2       11    20  19    3.72   370.6    6.4      22.179
2013    2       11    20  25    3.72   370.5    6.4      22.176
2013    2       11    20  32    3.72   370.4    6.4      22.174
2013    2       11    20  38    3.72   370.2    6.4      22.172
2013    2       11    20  45    3.73   370.1    6.4      22.171
2013    2       11    20  52    3.73   370.0    6.4      22.170
2013    2       11    20  58    3.73   369.9    6.4      22.170
2013    2       11    21   5    3.73   369.7    6.4      22.170
2013    2       11    21  11    3.74   369.6    6.4      22.170
2013    2       11    21  18    3.74   369.5    6.5      22.171
2013    2       11    21  24    3.74   369.4    6.5      22.172
2013    2       11    21  31    3.74   369.2    6.5      22.173
2013    2       11    21  37    3.75   369.1    6.5      22.175
2013    2       11    21  44    3.75   369.0    6.5      22.177
2013    2       11    21  51    3.75   368.9    6.5      22.180
2013    2       11    21  57    3.76   368.8    6.5      22.183
2013    2       11    22   4    3.76   368.7    6.5      22.187
2013    2       11    22  10    3.76   368.6    6.5      22.191
2013    2       11    22  17    3.76   368.4    6.6      22.196
2013    2       11    22  23    3.77   368.3    6.6      22.201
2013    2       11    22  30    3.77   368.2    6.6      22.207
2013    2       11    22  36    3.77   368.1    6.6      22.213
2013    2       11    22  43    3.77   368.0    6.6      22.219
2013    2       11    22  50    3.78   367.9    6.6      22.226
2013    2       11    22  56    3.78   367.8    6.6      22.233
2013    2       11    23   3    3.78   367.7    6.6      22.240
2013    2       11    23   9    3.79   367.6    6.6      22.247
2013    2       11    23  16    3.79   367.5    6.6      22.255
2013    2       11    23  22    3.79   367.4    6.7      22.262
2013    2       11    23  29    3.79   367.3    6.7      22.270
2013    2       11    23  35    3.80   367.2    6.7      22.278
2013    2       11    23  42    3.80   367.0    6.7      22.285
2013    2       11    23  49    3.80   366.9    6.7      22.293
2013    2       11    23  55    3.81   366.8    6.7      22.300
2013    2       12     0   2    3.81   366.7    6.7      22.307
2013    2       12     0   8    3.81   366.6    6.7      22.315
2013    2       12     0  15    3.81   366.5    6.7      22.322
2013    2       12     0  21    3.82   366.4    6.7      22.329
2013    2       12     0  28    3.82   366.3    6.7      22.336
2013    2       12     0  34    3.82   366.2    6.8      22.343
2013    2       12     0  41    3.83   366.1    6.8      22.350
2013    2       12     0  48    3.83   366.0    6.8      22.358
2013    2       12     0  54    3.83   365.9    6.8      22.365
2013    2       12     1   1    3.84   365.8    6.8      22.372
2013    2       12     1   7    3.84   365.7    6.8      22.379
2013    2       12     1  14    3.84   365.6    6.8      22.387
2013    2       12     1  20    3.85   365.5    6.8      22.394
2013    2       12     1  27    3.85   365.4    6.8      22.402
2013    2       12     1  34    3.85   365.3    6.8      22.409
2013    2       12     1  40    3.86   365.2    6.9      22.417
2013    2       12     1  47    3.86   365.1    6.9      22.425
2013    2       12     1  53    3.86   365.0    6.9      22.433
2013    2       12     2   0    3.87   364.9    6.9      22.441
2013    2       12     2   6    3.87   364.8    6.9      22.449
2013    2       12     2  13    3.87   364.7    6.9      22.458
2013    2       12     2  19    3.88   364.6    6.9      22.466
2013    2       12     2  26    3.88   364.5    6.9      22.475
2013    2       12     2  33    3.88   364.4    6.9      22.483
2013    2       12     2  39    3.89   364.3    7.0      22.492
2013    2       12     2  46    3.89   364.2    7.0      22.501
2013    2       12     2  52    3.90   364.1    7.0      22.510
2013    2       12     2  59    3.90   364.1    7.0      22.520
2013    2       12     3   5    3.90   364.0    7.0      22.529
2013    2       12     3  12    3.91   363.9    7.0      22.538
2013    2       12     3  19    3.91   363.8    7.0      22.548
2013    2       12     3  25    3.91   363.7    7.0      22.558
2013    2       12     3  32    3.92   363.6    7.1      22.568
2013    2       12     3  38    3.92   363.5    7.1      22.578
2013    2       12     3  45    3.93   363.4    7.1      22.588
2013    2       12     3  51    3.93   363.4    7.1      22.598
2013    2       12     3  58    3.93   363.3    7.1      22.609
2013    2       12     4   5    3.94   363.2    7.1      22.620
2013    2       12     4  11    3.94   363.1    7.1      22.631
2013    2       12     4  18    3.95   363.0    7.1      22.642
2013    2       12     4  24    3.95   363.0    7.1      22.654
2013    2       12     4  31    3.95   362.9    7.2      22.665
2013    2       12     4  37    3.96   362.8    7.2      22.677
2013    2       12     4  44    3.96   362.7    7.2      22.689
2013    2       12     4  51    3.97   362.7    7.2      22.702
2013    2       12     4  57    3.97   362.6    7.2      22.714
2013    2       12     5   4    3.98   362.5    7.2      22.727
2013    2       12     5  10    3.98   362.4    7.2      22.740
2013    2       12     5  17    3.98   362.4    7.2      22.753
2013    2       12     5  23    3.99   362.3    7.3      22.766
2013    2       12     5  30    3.99   362.2    7.3      22.780
2013    2       12     5  36    4.00   362.1    7.3      22.793
2013    2       12     5  43    4.00   362.1    7.3      22.806
2013    2       12     5  50    4.01   362.0    7.3      22.820
2013    2       12     5  56    4.01   361.9    7.3      22.833
2013    2       12     6   3    4.01   361.9    7.3      22.847
2013    2       12     6   9    4.02   361.8    7.3      22.860
2013    2       12     6  16    4.02   361.7    7.3      22.873
2013    2       12     6  22    4.03   361.7    7.4      22.887
2013    2       12     6  29    4.03   361.6    7.4      22.900
2013    2       12     6  35    4.04   361.5    7.4      22.913
2013    2       12     6  42    4.04   361.5    7.4      22.926
2013    2       12     6  49    4.04   361.4    7.4      22.940
2013    2       12     6  55    4.05   361.3    7.4      22.953
2013    2       12     7   2    4.05   361.3    7.4      22.966
2013    2       12     7   8    4.06   361.2    7.4      22.979
2013    2       12     7  15    4.06   361.1    7.4      22.993
2013    2       12     7  21    4.07   361.1    7.5      23.006
2013    2       12     7  28    4.07   361.0    7.5      23.020
2013    2       12     7  34    4.07   360.9    7.5      23.033
2013    2       12     7  41    4.08   360.9    7.5      23.047
2013    2       12     7  48    4.08   360.8    7.5      23.061
2013    2       12     7  54    4.09   360.8    7.5      23.075
2013    2       12     8   1    4.09   360.7    7.5      23.089
2013    2       12     8   7    4.09   360.6    7.5      23.103
2013    2       12     8  14    4.10   360.6    7.5      23.118
2013    2       12     8  20    4.10   360.5    7.6      23.132
2013    2       12     8  27    4.11   360.5    7.6      23.147
2013    2       12     8  33    4.11   360.4    7.6      23.162
2013    2       12     8  40    4.12   360.4    7.6      23.177
2013    2       12     8  47    4.12   360.3    7.6      23.192
2013    2       12     8  53    4.12   360.2    7.6      23.208
2013    2       12     9   0    4.13   360.2    7.6      23.224
2013    2       12     9   6    4.13   360.1    7.6      23.240
2013    2       12     9  13    4.14   360.1    7.7      23.257
2013    2       12     9  19    4.14   360.0    7.7      23.273
2013    2       12     9  26    4.15   360.0    7.7      23.290
2013    2       12     9  33    4.15   359.9    7.7      23.308
2013    2       12     9  39    4.15   359.9    7.7      23.325
2013    2       12     9  46    4.16   359.8    7.7      23.343
2013    2       12     9  52    4.16   359.8    7.7      23.362
2013    2       12     9  59    4.17   359.7    7.7      23.380
2013    2       12    10   5    4.17   359.7    7.7      23.399
2013    2       12    10  12    4.18   359.6    7.8      23.417
2013    2       12    10  19    4.18   359.6    7.8      23.436
2013    2       12    10  25    4.18   359.5    7.8      23.455
2013    2       12    10  32    4.19   359.5    7.8      23.475
2013    2       12    10  38    4.19   359.4    7.8      23.494
2013    2       12    10  45    4.20   359.4    7.8      23.513
2013    2       12    10  51    4.20   359.4    7.8      23.532
2013    2       12    10  58    4.20   359.3    7.8      23.551
2013    2       12    11   4    4.21   359.3    7.8      23.570
2013    2       12    11  11    4.21   359.2    7.8      23.589
2013    2       12    11  18    4.22   359.2    7.9      23.607
2013    2       12    11  24    4.22   359.1    7.9      23.626
2013    2       12    11  31    4.22   359.1    7.9      23.644
2013    2       12    11  37    4.23   359.0    7.9      23.662
2013    2       12    11  44    4.23   359.0    7.9      23.680
2013    2       12    11  50    4.24   359.0    7.9      23.698
2013    2       12    11  57    4.24   358.9    7.9      23.716
2013    2       12    12   4    4.24   358.9    7.9      23.733
2013    2       12    12  10    4.25   358.8    7.9      23.750
2013    2       12    12  17    4.25   358.8    7.9      23.767
2013    2       12    12  23    4.26   358.7    7.9      23.784
2013    2       12    12  30    4.26   358.7    8.0      23.800
2013    2       12    12  36    4.26   358.7    8.0      23.817
2013    2       12    12  43    4.27   358.6    8.0      23.833
2013    2       12    12  49    4.27   358.6    8.0      23.848
2013    2       12    12  56    4.28   358.5    8.0      23.864
2013    2       12    13   3    4.28   358.5    8.0      23.880
2013    2       12    13   9    4.28   358.4    8.0      23.895
2013    2       12    13  16    4.29   358.4    8.0      23.910
2013    2       12    13  22    4.29   358.4    8.0      23.925
2013    2       12    13  29    4.29   358.3    8.0      23.940
2013    2       12    13  35    4.30   358.3    8.0      23.954
2013    2       12    13  42    4.30   358.2    8.1      23.969
2013    2       12    13  48    4.31   358.2    8.1      23.983
2013    2       12    13  55    4.31   358.2    8.1      23.997
2013    2       12    14   2    4.31   358.1    8.1      24.011
2013    2       12    14   8    4.32   358.1    8.1      24.025
2013    2       12    14  15    4.32   358.1    8.1      24.039
2013    2       12    14  21    4.33   358.0    8.1      24.053
2013    2       12    14  28    4.33   358.0    8.1      24.067
2013    2       12    14  34    4.33   357.9    8.1      24.081
2013    2       12    14  41    4.34   357.9    8.1      24.095
2013    2       12    14  47    4.34   357.9    8.1      24.108
2013    2       12    14  54    4.35   357.8    8.2      24.122
2013    2       12    15   1    4.35   357.8    8.2      24.136
2013    2       12    15   7    4.35   357.8    8.2      24.150
2013    2       12    15  14    4.36   357.7    8.2      24.164
2013    2       12    15  20    4.36   357.7    8.2      24.178
2013    2       12    15  27    4.37   357.7    8.2      24.193
2013    2       12    15  33    4.37   357.6    8.2      24.207
2013    2       12    15  40    4.37   357.6    8.2      24.222
2013    2       12    15  46    4.38   357.6    8.2      24.237
2013    2       12    15  53    4.38   357.5    8.2      24.252
2013    2       12    16   0    4.39   357.5    8.3      24.267
2013    2       12    16   6    4.39   357.5    8.3      24.283
2013    2       12    16  13    4.39   357.5    8.3      24.300
2013    2       12    16  19    4.40   357.4    8.3      24.316
2013    2       12    16  26    4.40   357.4    8.3      24.333
2013    2       12    16  32    4.40   357.4    8.3      24.350
2013    2       12    16  39    4.41   357.4    8.3      24.368
2013    2       12    16  46    4.41   357.3    8.3      24.386
2013    2       12    16  52    4.42   357.3    8.3      24.405
2013    2       12    16  59    4.42   357.3    8.3      24.423
2013    2       12    17   5    4.42   357.3    8.3      24.442
2013    2       12    17  12    4.43   357.3    8.4      24.462
2013    2       12    17  18    4.43   357.2    8.4      24.481
2013    2       12    17  25    4.44   357.2    8.4      24.501
2013    2       12    17  32    4.44   357.2    8.4      24.520
2013    2       12    17  38    4.44   357.2    8.4      24.540
2013    2       12    17  45    4.45   357.2    8.4      24.560
2013    2       12    17  51    4.45   357.2    8.4      24.580
2013    2       12    17  58    4.45   357.1    8.4      24.600
2013    2       12    18   4    4.46   357.1    8.4      24.620
2013    2       12    18  11    4.46   357.1    8.4      24.640
2013    2       12    18  18    4.46   357.1    8.5      24.660
2013    2       12    18  24    4.47   357.1    8.5      24.679
2013    2       12    18  31    4.47   357.1    8.5      24.699
2013    2       12    18  37    4.47   357.1    8.5      24.719
2013    2       12    18  44    4.48   357.0    8.5      24.738
2013    2       12    18  50    4.48   357.0    8.5      24.757
2013    2       12    18  57    4.49   357.0    8.5      24.777
2013    2       12    19   3    4.49   357.0    8.5      24.796
2013    2       12    19  10    4.49   357.0    8.5      24.815
2013    2       12    19  17    4.50   357.0    8.5      24.834
2013    2       12    19  23    4.50   357.0    8.5      24.853
2013    2       12    19  30    4.50   357.0    8.5      24.872
2013    2       12    19  36    4.51   357.0    8.6      24.890
2013    2       12    19  43    4.51   356.9    8.6      24.909
2013    2       12    19  49    4.51   356.9    8.6      24.927
2013    2       12    19  56    4.52   356.9    8.6      24.946
2013    2       12    20   3    4.52   356.9    8.6      24.964
2013    2       12    20   9    4.52   356.9    8.6      24.982
2013    2       12    20  16    4.53   356.9    8.6      25.000
2013    2       12    20  22    4.53   356.9    8.6      25.018
2013    2       12    20  29    4.53   356.9    8.6      25.036
2013    2       12    20  35    4.54   356.9    8.6      25.054
2013    2       12    20  42    4.54   356.9    8.6      25.071
2013    2       12    20  48    4.54   356.8    8.6      25.089
2013    2       12    20  55    4.55   356.8    8.6      25.106
2013    2       12    21   2    4.55   356.8    8.6      25.124
2013    2       12    21   8    4.55   356.8    8.7      25.141
2013    2       12    21  15    4.56   356.8    8.7      25.159
2013    2       12    21  21    4.56   356.8    8.7      25.176
2013    2       12    21  28    4.56   356.8    8.7      25.193
2013    2       12    21  34    4.57   356.8    8.7      25.210
2013    2       12    21  41    4.57   356.8    8.7      25.227
2013    2       12    21  47    4.57   356.8    8.7      25.245
2013    2       12    21  54    4.58   356.8    8.7      25.262
2013    2       12    22   1    4.58   356.8    8.7      25.279
2013    2       12    22   7    4.58   356.8    8.7      25.296
2013    2       12    22  14    4.59   356.8    8.7      25.313
2013    2       12    22  20    4.59   356.8    8.7      25.330
2013    2       12    22  27    4.59   356.7    8.7      25.347
2013    2       12    22  33    4.60   356.7    8.8      25.364
2013    2       12    22  40    4.60   356.7    8.8      25.381
2013    2       12    22  46    4.60   356.7    8.8      25.399
2013    2       12    22  53    4.61   356.7    8.8      25.416
2013    2       12    23   0    4.61   356.7    8.8      25.433
2013    2       12    23   6    4.61   356.7    8.8      25.450
2013    2       12    23  13    4.62   356.7    8.8      25.467
2013    2       12    23  19    4.62   356.7    8.8      25.485
2013    2       12    23  26    4.62   356.7    8.8      25.502
2013    2       12    23  32    4.63   356.7    8.8      25.520
2013    2       12    23  39    4.63   356.7    8.8      25.538
2013    2       12    23  45    4.64   356.7    8.8      25.557
2013    2       12    23  52    4.64   356.7    8.8      25.575
2013    2       12    23  59    4.64   356.7    8.9      25.594
2013    2       13     0   5    4.65   356.7    8.9      25.613
2013    2       13     0  12    4.65   356.7    8.9      25.633
2013    2       13     0  18    4.65   356.7    8.9      25.652
2013    2       13     0  25    4.66   356.7    8.9      25.672
2013    2       13     0  31    4.66   356.7    8.9      25.691
2013    2       13     0  38    4.66   356.7    8.9      25.711
2013    2       13     0  45    4.67   356.7    8.9      25.731
2013    2       13     0  51    4.67   356.8    8.9      25.751
2013    2       13     0  58    4.67   356.8    8.9      25.771
2013    2       13     1   4    4.67   356.8    8.9      25.791
2013    2       13     1  11    4.68   356.8    8.9      25.810
2013    2       13     1  17    4.68   356.8    8.9      25.830
2013    2       13     1  24    4.68   356.8    8.9      25.850
2013    2       13     1  31    4.69   356.8    9.0      25.869
2013    2       13     1  37    4.69   356.8    9.0      25.889
2013    2       13     1  44    4.69   356.8    9.0      25.908
2013    2       13     1  50    4.70   356.8    9.0      25.927
2013    2       13     1  57    4.70   356.8    9.0      25.946
2013    2       13     2   3    4.70   356.8    9.0      25.965
2013    2       13     2  10    4.71   356.8    9.0      25.983
2013    2       13     2  17    4.71   356.8    9.0      26.002
2013    2       13     2  23    4.71   356.9    9.0      26.021
2013    2       13     2  30    4.72   356.9    9.0      26.039
2013    2       13     2  36    4.72   356.9    9.0      26.057
2013    2       13     2  43    4.72   356.9    9.0      26.075
2013    2       13     2  49    4.72   356.9    9.0      26.093
2013    2       13     2  56    4.73   356.9    9.0      26.111
2013    2       13     3   2    4.73   356.9    9.0      26.129
2013    2       13     3   9    4.73   356.9    9.0      26.147
2013    2       13     3  16    4.74   356.9    9.0      26.164
2013    2       13     3  22    4.74   356.9    9.1      26.182
2013    2       13     3  29    4.74   357.0    9.1      26.199
2013    2       13     3  35    4.75   357.0    9.1      26.216
2013    2       13     3  42    4.75   357.0    9.1      26.234
2013    2       13     3  48    4.75   357.0    9.1      26.251
2013    2       13     3  55    4.75   357.0    9.1      26.268
2013    2       13     4   1    4.76   357.0    9.1      26.285
2013    2       13     4   8    4.76   357.0    9.1      26.302
2013    2       13     4  15    4.76   357.0    9.1      26.319
2013    2       13     4  21    4.77   357.1    9.1      26.336
2013    2       13     4  28    4.77   357.1    9.1      26.353
2013    2       13     4  34    4.77   357.1    9.1      26.370
2013    2       13     4  41    4.78   357.1    9.1      26.386
2013    2       13     4  47    4.78   357.1    9.1      26.403
2013    2       13     4  54    4.78   357.1    9.1      26.420
2013    2       13     5   0    4.78   357.1    9.1      26.437
2013    2       13     5   7    4.79   357.1    9.1      26.454
2013    2       13     5  14    4.79   357.2    9.1      26.471
2013    2       13     5  20    4.79   357.2    9.1      26.488
2013    2       13     5  27    4.80   357.2    9.2      26.506
2013    2       13     5  33    4.80   357.2    9.2      26.523
2013    2       13     5  40    4.80   357.2    9.2      26.540
2013    2       13     5  46    4.81   357.2    9.2      26.558
2013    2       13     5  53    4.81   357.3    9.2      26.575
2013    2       13     5  59    4.81   357.3    9.2      26.592
2013    2       13     6   6    4.82   357.3    9.2      26.610
2013    2       13     6  13    4.82   357.3    9.2      26.628
2013    2       13     6  19    4.82   357.3    9.2      26.645
2013    2       13     6  26    4.83   357.4    9.2      26.663
2013    2       13     6  32    4.83   357.4    9.2      26.681
2013    2       13     6  39    4.83   357.4    9.2      26.700
2013    2       13     6  45    4.84   357.4    9.2      26.718
2013    2       13     6  52    4.84   357.4    9.2      26.737
2013    2       13     6  59    4.84   357.5    9.2      26.756
2013    2       13     7   5    4.84   357.5    9.3      26.776
2013    2       13     7  12    4.85   357.5    9.3      26.795
2013    2       13     7  18    4.85   357.5    9.3      26.816
2013    2       13     7  25    4.85   357.6    9.3      26.836
2013    2       13     7  31    4.86   357.6    9.3      26.857
2013    2       13     7  38    4.86   357.6    9.3      26.878
2013    2       13     7  45    4.86   357.7    9.3      26.900
2013    2       13     7  51    4.87   357.7    9.3      26.922
2013    2       13     7  58    4.87   357.7    9.3      26.943
2013    2       13     8   4    4.87   357.7    9.3      26.965
2013    2       13     8  11    4.87   357.8    9.3      26.987
2013    2       13     8  17    4.88   357.8    9.3      27.008
2013    2       13     8  24    4.88   357.8    9.3      27.030
2013    2       13     8  30    4.88   357.9    9.3      27.052
2013    2       13     8  37    4.89   357.9    9.3      27.073
2013    2       13     8  44    4.89   357.9    9.3      27.094
2013    2       13     8  50    4.89   358.0    9.3      27.115
2013    2       13     8  57    4.89   358.0    9.4      27.136
2013    2       13     9   3    4.90   358.0    9.4      27.157
2013    2       13     9  10    4.90   358.0    9.4      27.177
2013    2       13     9  16    4.90   358.1    9.4      27.197
2013    2       13     9  23    4.90   358.1    9.4      27.217
2013    2       13     9  30    4.91   358.1    9.4      27.237
2013    2       13     9  36    4.91   358.2    9.4      27.257
2013    2       13     9  43    4.91   358.2    9.4      27.276
2013    2       13     9  49    4.91   358.2    9.4      27.295
2013    2       13     9  56    4.92   358.3    9.4      27.314
2013    2       13    10   2    4.92   358.3    9.4      27.333
2013    2       13    10   9    4.92   358.3    9.4      27.352
2013    2       13    10  15    4.92   358.3    9.4      27.370
2013    2       13    10  22    4.93   358.4    9.4      27.389
2013    2       13    10  29    4.93   358.4    9.4      27.407
2013    2       13    10  35    4.93   358.4    9.4      27.425
2013    2       13    10  42    4.93   358.5    9.4      27.443
2013    2       13    10  48    4.94   358.5    9.4      27.460
2013    2       13    10  55    4.94   358.5    9.4      27.478
2013    2       13    11   1    4.94   358.6    9.4      27.495
2013    2       13    11   8    4.94   358.6    9.4      27.512
2013    2       13    11  15    4.95   358.6    9.4      27.529
2013    2       13    11  21    4.95   358.6    9.4      27.546
2013    2       13    11  28    4.95   358.7    9.4      27.563
2013    2       13    11  34    4.95   358.7    9.4      27.580
2013    2       13    11  41    4.96   358.7    9.4      27.596
2013    2       13    11  47    4.96   358.8    9.4      27.613
2013    2       13    11  54    4.96   358.8    9.5      27.629
2013    2       13    12   0    4.96   358.8    9.5      27.645
2013    2       13    12   7    4.96   358.9    9.5      27.661
2013    2       13    12  13    4.97   358.9    9.5      27.677
2013    2       13    12  20    4.97   358.9    9.5      27.693
2013    2       13    12  27    4.97   359.0    9.5      27.709
2013    2       13    12  33    4.97   359.0    9.5      27.725
2013    2       13    12  40    4.98   359.0    9.5      27.741
2013    2       13    12  46    4.98   359.1    9.5      27.757
2013    2       13    12  53    4.98   359.1    9.5      27.772
2013    2       13    12  59    4.98   359.1    9.5      27.788
2013    2       13    13   6    4.99   359.2    9.5      27.804
2013    2       13    13  12    4.99   359.2    9.5      27.820
2013    2       13    13  19    4.99   359.2    9.5      27.836
2013    2       13    13  26    4.99   359.3    9.5      27.853
2013    2       13    13  32    5.00   359.3    9.5      27.869
2013    2       13    13  39    5.00   359.3    9.5      27.885
2013    2       13    13  45    5.00   359.4    9.5      27.902
2013    2       13    13  52    5.00   359.4    9.5      27.918
2013    2       13    13  58    5.01   359.4    9.5      27.935
2013    2       13    14   5    5.01   359.5    9.5      27.952
2013    2       13    14  12    5.01   359.5    9.5      27.969
2013    2       13    14  18    5.01   359.6    9.5      27.987
2013    2       13    14  25    5.02   359.6    9.5      28.005
2013    2       13    14  31    5.02   359.6    9.5      28.023
2013    2       13    14  38    5.02   359.7    9.5      28.042
2013    2       13    14  44    5.02   359.7    9.5      28.061
2013    2       13    14  51    5.03   359.8    9.5      28.080
2013    2       13    14  58    5.03   359.8    9.6      28.099
2013    2       13    15   4    5.03   359.9    9.6      28.119
2013    2       13    15  11    5.03   359.9    9.6      28.139
2013    2       13    15  17    5.04   360.0    9.6      28.158
2013    2       13    15  24    5.04   360.0    9.6      28.179
2013    2       13    15  30    5.04   360.0    9.6      28.199
2013    2       13    15  37    5.04   360.1    9.6      28.219
2013    2       13    15  44    5.05   360.1    9.6      28.239
2013    2       13    15  50    5.05   360.2    9.6      28.259
2013    2       13    15  57    5.05   360.2    9.6      28.279
2013    2       13    16   3    5.05   360.3    9.6      28.299
2013    2       13    16  10    5.06   360.3    9.6      28.320
2013    2       13    16  16    5.06   360.4    9.6      28.341
2013    2       13    16  23    5.06   360.4    9.6      28.361
2013    2       13    16  29    5.06   360.5    9.6      28.382
2013    2       13    16  36    5.06   360.5    9.6      28.403
2013    2       13    16  43    5.07   360.6    9.6      28.424
2013    2       13    16  49    5.07   360.6    9.6      28.445
2013    2       13    16  56    5.07   360.7    9.6      28.465
2013    2       13    17   2    5.07   360.7    9.6      28.485
2013    2       13    17   9    5.08   360.8    9.6      28.506
2013    2       13    17  15    5.08   360.8    9.6      28.526
2013    2       13    17  22    5.08   360.9    9.6      28.546
2013    2       13    17  29    5.08   360.9    9.6      28.566
2013    2       13    17  35    5.08   361.0    9.6      28.585
2013    2       13    17  42    5.09   361.0    9.6      28.604
2013    2       13    17  48    5.09   361.1    9.7      28.622
2013    2       13    17  55    5.09   361.1    9.7      28.641
2013    2       13    18   1    5.09   361.1    9.7      28.659
2013    2       13    18   8    5.09   361.2    9.7      28.676
2013    2       13    18  14    5.09   361.2    9.7      28.693
2013    2       13    18  21    5.10   361.3    9.7      28.710
2013    2       13    18  28    5.10   361.3    9.7      28.727
2013    2       13    18  34    5.10   361.4    9.7      28.743
2013    2       13    18  41    5.10   361.4    9.7      28.760
2013    2       13    18  47    5.10   361.5    9.7      28.775
2013    2       13    18  54    5.11   361.5    9.7      28.791
2013    2       13    19   0    5.11   361.5    9.7      28.807
2013    2       13    19   7    5.11   361.6    9.7      28.822
2013    2       13    19  13    5.11   361.6    9.7      28.837
2013    2       13    19  20    5.11   361.7    9.7      28.851
2013    2       13    19  27    5.11   361.7    9.7      28.866
2013    2       13    19  33    5.12   361.7    9.7      28.880
2013    2       13    19  40    5.12   361.8    9.7      28.895
2013    2       13    19  46    5.12   361.8    9.7      28.909
2013    2       13    19  53    5.12   361.9    9.7      28.923
2013    2       13    19  59    5.12   361.9    9.7      28.937
2013    2       13    20   6    5.12   361.9    9.7      28.951
2013    2       13    20  12    5.13   362.0    9.7      28.965
2013    2       13    20  19    5.13   362.0    9.7      28.978
2013    2       13    20  26    5.13   362.1    9.7      28.992
2013    2       13    20  32    5.13   362.1    9.7      29.006
2013    2       13    20  39    5.13   362.1    9.7      29.020
2013    2       13    20  45    5.14   362.2    9.7      29.034
2013    2       13    20  52    5.14   362.2    9.7      29.048
2013    2       13    20  58    5.14   362.3    9.7      29.062
2013    2       13    21   5    5.14   362.3    9.7      29.076
2013    2       13    21  11    5.14   362.3    9.7      29.090
2013    2       13    21  18    5.15   362.4    9.7      29.104
2013    2       13    21  25    5.15   362.4    9.7      29.119
2013    2       13    21  31    5.15   362.5    9.7      29.133
2013    2       13    21  38    5.15   362.5    9.7      29.148
2013    2       13    21  44    5.15   362.6    9.7      29.163
2013    2       13    21  51    5.16   362.6    9.7      29.179
2013    2       13    21  57    5.16   362.7    9.7      29.194
2013    2       13    22   4    5.16   362.7    9.7      29.210
2013    2       13    22  11    5.16   362.7    9.7      29.226
2013    2       13    22  17    5.16   362.8    9.7      29.242
2013    2       13    22  24    5.17   362.8    9.7      29.258
2013    2       13    22  30    5.17   362.9    9.7      29.275
2013    2       13    22  37    5.17   362.9    9.7      29.292
2013    2       13    22  43    5.17   363.0    9.7      29.309
2013    2       13    22  50    5.18   363.0    9.7      29.327
2013    2       13    22  57    5.18   363.1    9.7      29.345
2013    2       13    23   3    5.18   363.2    9.7      29.363
2013    2       13    23  10    5.18   363.2    9.7      29.382
2013    2       13    23  16    5.18   363.3    9.7      29.401
2013    2       13    23  23    5.19   363.3    9.7      29.421
2013    2       13    23  29    5.19   363.4    9.7      29.441
2013    2       13    23  36    5.19   363.4    9.7      29.462
2013    2       13    23  43    5.19   363.5    9.7      29.483
2013    2       13    23  49    5.20   363.6    9.8      29.504
2013    2       13    23  56    5.20   363.6    9.8      29.526
2013    2       14     0   2    5.20   363.7    9.8      29.548
2013    2       14     0   9    5.20   363.7    9.8      29.570
2013    2       14     0  15    5.20   363.8    9.8      29.592
2013    2       14     0  22    5.21   363.9    9.8      29.615
2013    2       14     0  28    5.21   363.9    9.8      29.637
2013    2       14     0  35    5.21   364.0    9.8      29.660
2013    2       14     0  42    5.21   364.0    9.8      29.683
2013    2       14     0  48    5.22   364.1    9.8      29.705
2013    2       14     0  55    5.22   364.2    9.8      29.728
2013    2       14     1   1    5.22   364.2    9.8      29.752
2013    2       14     1   8    5.22   364.3    9.8      29.775
2013    2       14     1  14    5.22   364.4    9.8      29.798
2013    2       14     1  21    5.23   364.5    9.8      29.822
2013    2       14     1  27    5.23   364.5    9.8      29.845
2013    2       14     1  34    5.23   364.6    9.8      29.868
2013    2       14     1  41    5.23   364.7    9.8      29.891
2013    2       14     1  47    5.23   364.7    9.8      29.914
2013    2       14     1  54    5.23   364.8    9.8      29.937
2013    2       14     2   0    5.24   364.9    9.8      29.959
2013    2       14     2   7    5.24   364.9    9.8      29.981
2013    2       14     2  13    5.24   365.0    9.8      30.003
2013    2       14     2  20    5.24   365.1    9.8      30.024
2013    2       14     2  26    5.24   365.1    9.8      30.045
2013    2       14     2  33    5.24   365.2    9.8      30.065
2013    2       14     2  40    5.25   365.2    9.8      30.084
2013    2       14     2  46    5.25   365.3    9.8      30.103
2013    2       14     2  53    5.25   365.4    9.8      30.122
2013    2       14     2  59    5.25   365.4    9.8      30.140
2013    2       14     3   6    5.25   365.5    9.8      30.158
2013    2       14     3  12    5.25   365.6    9.8      30.175
2013    2       14     3  19    5.26   365.6    9.8      30.192
2013    2       14     3  25    5.26   365.7    9.8      30.208
2013    2       14     3  32    5.26   365.7    9.8      30.225
2013    2       14     3  39    5.26   365.8    9.8      30.240
2013    2       14     3  45    5.26   365.9    9.8      30.256
2013    2       14     3  52    5.26   365.9    9.8      30.271
2013    2       14     3  58    5.27   366.0    9.8      30.285
2013    2       14     4   5    5.27   366.0    9.8      30.300
2013    2       14     4  11    5.27   366.1    9.8      30.314
2013    2       14     4  18    5.27   366.2    9.8      30.327
2013    2       14     4  25    5.27   366.2    9.8      30.341
2013    2       14     4  31    5.27   366.3    9.8      30.354
2013    2       14     4  38    5.27   366.3    9.8      30.367
2013    2       14     4  44    5.28   366.4    9.8      30.380
2013    2       14     4  51    5.28   366.4    9.8      30.392
2013    2       14     4  57    5.28   366.5    9.8      30.404
2013    2       14     5   4    5.28   366.6    9.8      30.416
2013    2       14     5  10    5.28   366.6    9.8      30.428
2013    2       14     5  17    5.28   366.7    9.8      30.440
2013    2       14     5  24    5.28   366.7    9.8      30.452
2013    2       14     5  30    5.29   366.8    9.8      30.464
2013    2       14     5  37    5.29   366.8    9.8      30.475
2013    2       14     5  43    5.29   366.9    9.8      30.487
2013    2       14     5  50    5.29   367.0    9.8      30.498
2013    2       14     5  56    5.29   367.0    9.8      30.510
2013    2       14     6   3    5.29   367.1    9.8      30.521
2013    2       14     6  10    5.30   367.1    9.8      30.533
2013    2       14     6  16    5.30   367.2    9.8      30.545
2013    2       14     6  23    5.30   367.2    9.8      30.556
2013    2       14     6  29    5.30   367.3    9.8      30.568
2013    2       14     6  36    5.30   367.4    9.8      30.580
2013    2       14     6  42    5.30   367.4    9.8      30.592
2013    2       14     6  49    5.30   367.5    9.8      30.604
2013    2       14     6  56    5.31   367.5    9.8      30.616
2013    2       14     7   2    5.31   367.6    9.8      30.628
2013    2       14     7   9    5.31   367.6    9.8      30.641
2013    2       14     7  15    5.31   367.7    9.8      30.653
2013    2       14     7  22    5.31   367.8    9.8      30.666
2013    2       14     7  28    5.31   367.8    9.8      30.679
2013    2       14     7  35    5.32   367.9    9.8      30.692
2013    2       14     7  41    5.32   367.9    9.8      30.706
2013    2       14     7  48    5.32   368.0    9.8      30.720
2013    2       14     7  55    5.32   368.0    9.8      30.734
2013    2       14     8   1    5.32   368.1    9.8      30.749
2013    2       14     8   8    5.32   368.2    9.8      30.764
2013    2       14     8  14    5.33   368.2    9.8      30.780
2013    2       14     8  21    5.33   368.3    9.8      30.796
2013    2       14     8  27    5.33   368.4    9.8      30.814
2013    2       14     8  34    5.33   368.4    9.8      30.832
2013    2       14     8  41    5.33   368.5    9.8      30.850
2013    2       14     8  47    5.34   368.6    9.8      30.870
2013    2       14     8  54    5.34   368.6    9.8      30.890
2013    2       14     9   0    5.34   368.7    9.8      30.911
2013    2       14     9   7    5.34   368.8    9.9      30.932
2013    2       14     9  13    5.34   368.8    9.9      30.953
2013    2       14     9  20    5.35   368.9    9.9      30.975
2013    2       14     9  26    5.35   369.0    9.9      30.996
2013    2       14     9  33    5.35   369.0    9.9      31.018
2013    2       14     9  40    5.35   369.1    9.9      31.040
2013    2       14     9  46    5.35   369.2    9.9      31.063
2013    2       14     9  53    5.35   369.3    9.9      31.085
2013    2       14     9  59    5.36   369.3    9.9      31.107
2013    2       14    10   6    5.36   369.4    9.9      31.129
2013    2       14    10  12    5.36   369.5    9.9      31.151
2013    2       14    10  19    5.36   369.6    9.9      31.174
2013    2       14    10  25    5.36   369.6    9.9      31.197
2013    2       14    10  32    5.36   369.7    9.9      31.220
2013    2       14    10  38    5.37   369.8    9.9      31.244
2013    2       14    10  45    5.37   369.9    9.9      31.268
2013    2       14    10  52    5.37   370.0    9.9      31.292
2013    2       14    10  58    5.37   370.0    9.9      31.317
2013    2       14    11   5    5.37   370.1    9.9      31.341
2013    2       14    11  11    5.38   370.2    9.9      31.366
2013    2       14    11  18    5.38   370.3    9.9      31.390
2013    2       14    11  24    5.38   370.4    9.9      31.414
2013    2       14    11  31    5.38   370.5    9.9      31.438
2013    2       14    11  38    5.38   370.6    9.9      31.462
2013    2       14    11  44    5.38   370.7    9.9      31.485
2013    2       14    11  51    5.38   370.7    9.9      31.508
2013    2       14    11  57    5.39   370.8    9.9      31.531
2013    2       14    12   4    5.39   370.9    9.9      31.552
2013    2       14    12  10    5.39   371.0    9.9      31.573
2013    2       14    12  17    5.39   371.1    9.9      31.593
2013    2       14    12  24    5.39   371.2    9.9      31.613
2013    2       14    12  30    5.39   371.3    9.9      31.632
2013    2       14    12  37    5.39   371.3    9.9      31.650
2013    2       14    12  43    5.39   371.4    9.9      31.668
2013    2       14    12  50    5.40   371.5    9.9      31.685
2013    2       14    12  56    5.40   371.6    9.9      31.702
2013    2       14    13   3    5.40   371.7    9.9      31.718
2013    2       14    13   9    5.40   371.8    9.9      31.734
2013    2       14    13  16    5.40   371.9    9.9      31.749
2013    2       14    13  23    5.40   371.9    9.9      31.765
2013    2       14    13  29    5.40   372.0    9.9      31.779
2013    2       14    13  36    5.40   372.1    9.9      31.793
2013    2       14    13  42    5.40   372.2    9.9      31.807
2013    2       14    13  49    5.41   372.3    9.9      31.821
2013    2       14    13  55    5.41   372.4    9.9      31.834
2013    2       14    14   2    5.41   372.4    9.9      31.847
2013    2       14    14   9    5.41   372.5    9.9      31.859
2013    2       14    14  15    5.41   372.6    9.9      31.872
2013    2       14    14  22    5.41   372.7    9.9      31.884
2013    2       14    14  28    5.41   372.8    9.9      31.896
2013    2       14    14  35    5.41   372.8    9.9      31.907
2013    2       14    14  41    5.41   372.9    9.9      31.919
2013    2       14    14  48    5.41   373.0    9.9      31.930
2013    2       14    14  55    5.42   373.1    9.8      31.941
2013    2       14    15   1    5.42   373.1    9.8      31.952
2013    2       14    15   8    5.42   373.2    9.8      31.963
2013    2       14    15  14    5.42   373.3    9.8      31.973
2013    2       14    15  21    5.42   373.4    9.8      31.984
2013    2       14    15  27    5.42   373.5    9.8      31.995
2013    2       14    15  34    5.42   373.5    9.8      32.005
2013    2       14    15  40    5.42   373.6    9.8      32.016
2013    2       14    15  47    5.42   373.7    9.8      32.027
2013    2       14    15  54    5.42   373.8    9.8      32.038
2013    2       14    16   0    5.43   373.8    9.8      32.050
2013    2       14    16   7    5.43   373.9    9.8      32.061
2013    2       14    16  13    5.43   374.0    9.8      32.073
2013    2       14    16  20    5.43   374.1    9.8      32.084
2013    2       14    16  26    5.43   374.2    9.8      32.096
2013    2       14    16  33    5.43   374.2    9.8      32.108
2013    2       14    16  39    5.43   374.3    9.8      32.120
2013    2       14    16  46    5.43   374.4    9.8      32.132
2013    2       14    16  53    5.43   374.5    9.8      32.144
2013    2       14    16  59    5.43   374.5    9.8      32.156
2013    2       14    17   6    5.44   374.6    9.8      32.169
2013    2       14    17  12    5.44   374.7    9.8      32.182
2013    2       14    17  19    5.44   374.8    9.8      32.195
2013    2       14    17  25    5.44   374.8    9.8      32.208
2013    2       14    17  32    5.44   374.9    9.8      32.221
2013    2       14    17  38    5.44   375.0    9.8      32.235
2013    2       14    17  45    5.44   375.1    9.8      32.249
2013    2       14    17  52    5.44   375.1    9.8      32.263
2013    2       14    17  58    5.45   375.2    9.8      32.279
2013    2       14    18   5    5.45   375.3    9.8      32.296
2013    2       14    18  11    5.45   375.4    9.8      32.313
2013    2       14    18  18    5.45   375.5    9.8      32.331
2013    2       14    18  24    5.45   375.6    9.8      32.350
2013    2       14    18  31    5.45   375.7    9.8      32.370
2013    2       14    18  37    5.45   375.7    9.8      32.390
2013    2       14    18  44    5.45   375.8    9.8      32.411
2013    2       14    18  51    5.46   375.9    9.8      32.431
2013    2       14    18  57    5.46   376.0    9.8      32.453
2013    2       14    19   4    5.46   376.1    9.8      32.474
2013    2       14    19  10    5.46   376.2    9.8      32.496
2013    2       14    19  17    5.46   376.3    9.8      32.518
2013    2       14    19  23    5.46   376.4    9.8      32.540
2013    2       14    19  30    5.46   376.5    9.8      32.561
2013    2       14    19  37    5.46   376.6    9.8      32.583
2013    2       14    19  43    5.46   376.7    9.8      32.604
2013    2       14    19  50    5.46   376.8    9.8      32.625
2013    2       14    19  56    5.47   376.9    9.8      32.645
2013    2       14    20   3    5.47   377.0    9.8      32.665
2013    2       14    20   9    5.47   377.1    9.8      32.685
2013    2       14    20  16    5.47   377.2    9.8      32.705
2013    2       14    20  23    5.47   377.3    9.8      32.725
2013    2       14    20  29    5.47   377.4    9.8      32.744
2013    2       14    20  36    5.47   377.5    9.8      32.763
2013    2       14    20  42    5.47   377.6    9.8      32.783
2013    2       14    20  49    5.47   377.7    9.8      32.802
2013    2       14    20  55    5.47   377.8    9.8      32.822
2013    2       14    21   2    5.47   377.9    9.8      32.841
2013    2       14    21   8    5.47   378.0    9.8      32.860
2013    2       14    21  15    5.47   378.1    9.8      32.879
2013    2       14    21  22    5.47   378.2    9.8      32.897
2013    2       14    21  28    5.47   378.3    9.8      32.916
2013    2       14    21  35    5.48   378.4    9.8      32.934
2013    2       14    21  41    5.48   378.5    9.8      32.952
2013    2       14    21  48    5.48   378.6    9.8      32.970
2013    2       14    21  54    5.48   378.7    9.8      32.987
2013    2       14    22   1    5.48   378.8    9.8      33.004
2013    2       14    22   8    5.48   378.9    9.8      33.021
2013    2       14    22  14    5.48   379.0    9.8      33.037
2013    2       14    22  21    5.48   379.1    9.7      33.053
2013    2       14    22  27    5.48   379.2    9.7      33.068
2013    2       14    22  34    5.48   379.3    9.7      33.083
2013    2       14    22  40    5.48   379.4    9.7      33.098
2013    2       14    22  47    5.48   379.5    9.7      33.112
2013    2       14    22  53    5.48   379.6    9.7      33.126
2013    2       14    23   0    5.48   379.7    9.7      33.140
2013    2       14    23   7    5.48   379.8    9.7      33.153
2013    2       14    23  13    5.48   379.9    9.7      33.166
2013    2       14    23  20    5.48   380.0    9.7      33.179
2013    2       14    23  26    5.48   380.1    9.7      33.191
2013    2       14    23  33    5.48   380.1    9.7      33.204
2013    2       14    23  39    5.48   380.2    9.7      33.216
2013    2       14    23  46    5.48   380.3    9.7      33.227
2013    2       14    23  52    5.48   380.4    9.7      33.239
2013    2       14    23  59    5.48   380.5    9.7      33.250
2013    2       15     0   6    5.48   380.6    9.7      33.261
