year    month   day   hour  minute  B_enl V_enl   n_enl       T_enl
[year] [month] [day] [hour][minute] [nT]  [km/s]  [cm-3]      [kK]
2013    8        9     0   4    2.81   354.3    6.9      22.116
2013    8        9     0  12    2.81   354.2    6.9      22.113
2013    8        9     0  19    2.81   354.2    6.9      22.110
2013    8        9     0  26    2.81   354.1    6.9      22.107
2013    8        9     0  33    2.81   354.0    6.9      22.104
2013    8        9     0  40    2.81   353.9    6.9      22.101
2013    8        9     0  48    2.81   353.8    6.9      22.098
2013    8        9     0  55    2.81   353.7    6.9      22.095
2013    8        9     1   2    2.81   353.6    6.9      22.092
2013    8        9     1   9    2.81   353.6    6.9      22.089
2013    8        9     1  16    2.81   353.5    6.9      22.086
2013    8        9     1  23    2.81   353.4    6.9      22.083
2013    8        9     1  31    2.81   353.3    6.9      22.080
2013    8        9     1  38    2.81   353.2    6.9      22.077
2013    8        9     1  45    2.81   353.1    6.9      22.073
2013    8        9     1  52    2.81   353.1    6.9      22.070
2013    8        9     1  59    2.81   353.0    6.9      22.067
2013    8        9     2   6    2.82   352.9    6.9      22.064
2013    8        9     2  13    2.82   352.8    6.9      22.061
2013    8        9     2  21    2.82   352.7    6.9      22.057
2013    8        9     2  28    2.82   352.6    7.0      22.054
2013    8        9     2  35    2.82   352.5    7.0      22.051
2013    8        9     2  42    2.82   352.5    7.0      22.048
2013    8        9     2  49    2.82   352.4    7.0      22.044
2013    8        9     2  56    2.82   352.3    7.0      22.041
2013    8        9     3   4    2.82   352.2    7.0      22.038
2013    8        9     3  11    2.82   352.1    7.0      22.034
2013    8        9     3  18    2.82   352.0    7.0      22.031
2013    8        9     3  25    2.82   352.0    7.0      22.028
2013    8        9     3  32    2.82   351.9    7.0      22.024
2013    8        9     3  39    2.82   351.8    7.0      22.021
2013    8        9     3  46    2.82   351.7    7.0      22.018
2013    8        9     3  54    2.82   351.6    7.0      22.014
2013    8        9     4   1    2.82   351.5    7.0      22.011
2013    8        9     4   8    2.82   351.5    7.0      22.008
2013    8        9     4  15    2.82   351.4    7.0      22.004
2013    8        9     4  22    2.82   351.3    7.0      22.001
2013    8        9     4  29    2.82   351.2    7.0      21.997
2013    8        9     4  36    2.82   351.1    7.0      21.994
2013    8        9     4  44    2.82   351.0    7.0      21.991
2013    8        9     4  51    2.82   350.9    7.0      21.987
2013    8        9     4  58    2.82   350.9    7.0      21.984
2013    8        9     5   5    2.82   350.8    7.0      21.981
2013    8        9     5  12    2.82   350.7    7.0      21.977
2013    8        9     5  19    2.83   350.6    7.0      21.974
2013    8        9     5  27    2.83   350.5    7.0      21.971
2013    8        9     5  34    2.83   350.4    7.0      21.967
2013    8        9     5  41    2.83   350.4    7.0      21.964
2013    8        9     5  48    2.83   350.3    7.1      21.961
2013    8        9     5  55    2.83   350.2    7.1      21.957
2013    8        9     6   2    2.83   350.1    7.1      21.954
2013    8        9     6  10    2.83   350.0    7.1      21.951
2013    8        9     6  17    2.83   349.9    7.1      21.948
2013    8        9     6  24    2.83   349.8    7.1      21.944
2013    8        9     6  31    2.83   349.8    7.1      21.941
2013    8        9     6  38    2.83   349.7    7.1      21.937
2013    8        9     6  45    2.83   349.6    7.1      21.934
2013    8        9     6  53    2.83   349.5    7.1      21.931
2013    8        9     7   0    2.83   349.4    7.1      21.927
2013    8        9     7   7    2.83   349.3    7.1      21.924
2013    8        9     7  14    2.83   349.3    7.1      21.921
2013    8        9     7  21    2.83   349.2    7.1      21.917
2013    8        9     7  29    2.83   349.1    7.1      21.914
2013    8        9     7  36    2.83   349.0    7.1      21.910
2013    8        9     7  43    2.83   348.9    7.1      21.907
2013    8        9     7  50    2.83   348.8    7.1      21.903
2013    8        9     7  57    2.83   348.7    7.1      21.900
2013    8        9     8   4    2.83   348.7    7.1      21.896
2013    8        9     8  12    2.83   348.6    7.1      21.893
2013    8        9     8  19    2.83   348.5    7.1      21.889
2013    8        9     8  26    2.84   348.4    7.1      21.885
2013    8        9     8  33    2.84   348.3    7.1      21.882
2013    8        9     8  40    2.84   348.2    7.1      21.878
2013    8        9     8  47    2.84   348.1    7.2      21.874
2013    8        9     8  55    2.84   348.1    7.2      21.871
2013    8        9     9   2    2.84   348.0    7.2      21.867
2013    8        9     9   9    2.84   347.9    7.2      21.863
2013    8        9     9  16    2.84   347.8    7.2      21.859
2013    8        9     9  23    2.84   347.7    7.2      21.855
2013    8        9     9  30    2.84   347.6    7.2      21.851
2013    8        9     9  38    2.84   347.5    7.2      21.848
2013    8        9     9  45    2.84   347.4    7.2      21.844
2013    8        9     9  52    2.84   347.4    7.2      21.840
2013    8        9     9  59    2.84   347.3    7.2      21.836
2013    8        9    10   6    2.84   347.2    7.2      21.832
2013    8        9    10  13    2.84   347.1    7.2      21.828
2013    8        9    10  20    2.84   347.0    7.2      21.824
2013    8        9    10  28    2.84   346.9    7.2      21.820
2013    8        9    10  35    2.84   346.8    7.2      21.816
2013    8        9    10  42    2.84   346.8    7.2      21.812
2013    8        9    10  49    2.84   346.7    7.2      21.808
2013    8        9    10  56    2.84   346.6    7.2      21.804
2013    8        9    11   3    2.84   346.5    7.2      21.800
2013    8        9    11  10    2.84   346.4    7.2      21.795
2013    8        9    11  18    2.84   346.3    7.2      21.791
2013    8        9    11  25    2.84   346.2    7.2      21.787
2013    8        9    11  32    2.84   346.1    7.2      21.783
2013    8        9    11  39    2.84   346.0    7.3      21.779
2013    8        9    11  46    2.85   346.0    7.3      21.775
2013    8        9    11  53    2.85   345.9    7.3      21.771
2013    8        9    12   0    2.85   345.8    7.3      21.767
2013    8        9    12   8    2.85   345.7    7.3      21.763
2013    8        9    12  15    2.85   345.6    7.3      21.759
2013    8        9    12  22    2.85   345.5    7.3      21.754
2013    8        9    12  29    2.85   345.4    7.3      21.750
2013    8        9    12  36    2.85   345.3    7.3      21.746
2013    8        9    12  43    2.85   345.3    7.3      21.742
2013    8        9    12  51    2.85   345.2    7.3      21.738
2013    8        9    12  58    2.85   345.1    7.3      21.734
2013    8        9    13   5    2.85   345.0    7.3      21.730
2013    8        9    13  12    2.85   344.9    7.3      21.726
2013    8        9    13  19    2.85   344.8    7.3      21.722
2013    8        9    13  26    2.85   344.7    7.3      21.718
2013    8        9    13  34    2.85   344.6    7.3      21.714
2013    8        9    13  41    2.85   344.5    7.3      21.710
2013    8        9    13  48    2.85   344.4    7.3      21.706
2013    8        9    13  55    2.85   344.3    7.3      21.702
2013    8        9    14   2    2.85   344.3    7.3      21.698
2013    8        9    14   9    2.85   344.2    7.3      21.694
2013    8        9    14  17    2.85   344.1    7.3      21.690
2013    8        9    14  24    2.85   344.0    7.3      21.687
2013    8        9    14  31    2.86   343.9    7.4      21.683
2013    8        9    14  38    2.86   343.8    7.4      21.679
2013    8        9    14  45    2.86   343.7    7.4      21.675
2013    8        9    14  53    2.86   343.6    7.4      21.671
2013    8        9    15   0    2.86   343.5    7.4      21.667
2013    8        9    15   7    2.86   343.4    7.4      21.663
2013    8        9    15  14    2.86   343.3    7.4      21.660
2013    8        9    15  21    2.86   343.3    7.4      21.656
2013    8        9    15  28    2.86   343.2    7.4      21.652
2013    8        9    15  36    2.86   343.1    7.4      21.648
2013    8        9    15  43    2.86   343.0    7.4      21.645
2013    8        9    15  50    2.86   342.9    7.4      21.641
2013    8        9    15  57    2.86   342.8    7.4      21.637
2013    8        9    16   4    2.86   342.7    7.4      21.634
2013    8        9    16  11    2.86   342.6    7.4      21.630
2013    8        9    16  19    2.86   342.5    7.4      21.626
2013    8        9    16  26    2.86   342.4    7.4      21.623
2013    8        9    16  33    2.86   342.3    7.4      21.619
2013    8        9    16  40    2.86   342.2    7.4      21.615
2013    8        9    16  47    2.87   342.1    7.4      21.612
2013    8        9    16  54    2.87   342.0    7.4      21.608
2013    8        9    17   2    2.87   341.9    7.5      21.605
2013    8        9    17   9    2.87   341.9    7.5      21.601
2013    8        9    17  16    2.87   341.8    7.5      21.597
2013    8        9    17  23    2.87   341.7    7.5      21.594
2013    8        9    17  30    2.87   341.6    7.5      21.590
2013    8        9    17  37    2.87   341.5    7.5      21.587
2013    8        9    17  44    2.87   341.4    7.5      21.583
2013    8        9    17  52    2.87   341.3    7.5      21.580
2013    8        9    17  59    2.87   341.2    7.5      21.576
2013    8        9    18   6    2.87   341.1    7.5      21.573
2013    8        9    18  13    2.87   341.0    7.5      21.570
2013    8        9    18  20    2.87   340.9    7.5      21.566
2013    8        9    18  27    2.87   340.8    7.5      21.563
2013    8        9    18  35    2.88   340.7    7.5      21.559
2013    8        9    18  42    2.88   340.6    7.5      21.556
2013    8        9    18  49    2.88   340.5    7.5      21.553
2013    8        9    18  56    2.88   340.4    7.5      21.549
2013    8        9    19   3    2.88   340.3    7.5      21.546
2013    8        9    19  10    2.88   340.2    7.6      21.543
2013    8        9    19  17    2.88   340.1    7.6      21.540
2013    8        9    19  25    2.88   340.1    7.6      21.536
2013    8        9    19  32    2.88   340.0    7.6      21.533
2013    8        9    19  39    2.88   339.9    7.6      21.530
2013    8        9    19  46    2.88   339.8    7.6      21.527
2013    8        9    19  53    2.88   339.7    7.6      21.524
2013    8        9    20   0    2.88   339.6    7.6      21.521
2013    8        9    20   7    2.89   339.5    7.6      21.518
2013    8        9    20  15    2.89   339.4    7.6      21.515
2013    8        9    20  22    2.89   339.3    7.6      21.512
2013    8        9    20  29    2.89   339.2    7.6      21.510
2013    8        9    20  36    2.89   339.1    7.6      21.507
2013    8        9    20  43    2.89   339.0    7.6      21.504
2013    8        9    20  50    2.89   338.9    7.6      21.502
2013    8        9    20  58    2.89   338.8    7.6      21.499
2013    8        9    21   5    2.89   338.7    7.7      21.496
2013    8        9    21  12    2.89   338.6    7.7      21.494
2013    8        9    21  19    2.90   338.5    7.7      21.492
2013    8        9    21  26    2.90   338.4    7.7      21.489
2013    8        9    21  34    2.90   338.3    7.7      21.487
2013    8        9    21  41    2.90   338.2    7.7      21.485
2013    8        9    21  48    2.90   338.1    7.7      21.483
2013    8        9    21  55    2.90   338.0    7.7      21.481
2013    8        9    22   2    2.90   337.9    7.7      21.479
2013    8        9    22  10    2.90   337.8    7.7      21.478
2013    8        9    22  17    2.90   337.7    7.7      21.476
2013    8        9    22  24    2.91   337.6    7.7      21.474
2013    8        9    22  31    2.91   337.5    7.7      21.473
2013    8        9    22  38    2.91   337.4    7.7      21.472
2013    8        9    22  45    2.91   337.3    7.8      21.471
2013    8        9    22  53    2.91   337.2    7.8      21.469
2013    8        9    23   0    2.91   337.1    7.8      21.468
2013    8        9    23   7    2.91   337.0    7.8      21.468
2013    8        9    23  14    2.91   336.9    7.8      21.467
2013    8        9    23  21    2.92   336.8    7.8      21.466
2013    8        9    23  28    2.92   336.7    7.8      21.466
2013    8        9    23  36    2.92   336.6    7.8      21.465
2013    8        9    23  43    2.92   336.5    7.8      21.465
2013    8        9    23  50    2.92   336.4    7.8      21.465
2013    8        9    23  57    2.92   336.3    7.8      21.465
2013    8       10     0   4    2.92   336.2    7.8      21.465
2013    8       10     0  11    2.93   336.1    7.8      21.465
2013    8       10     0  18    2.93   336.0    7.9      21.465
2013    8       10     0  26    2.93   335.9    7.9      21.466
2013    8       10     0  33    2.93   335.8    7.9      21.466
2013    8       10     0  40    2.93   335.7    7.9      21.467
2013    8       10     0  47    2.93   335.6    7.9      21.467
2013    8       10     0  54    2.94   335.5    7.9      21.468
2013    8       10     1   1    2.94   335.4    7.9      21.469
2013    8       10     1   9    2.94   335.3    7.9      21.470
2013    8       10     1  16    2.94   335.2    7.9      21.471
2013    8       10     1  23    2.94   335.1    7.9      21.472
2013    8       10     1  30    2.94   335.0    8.0      21.473
2013    8       10     1  37    2.95   334.9    8.0      21.475
2013    8       10     1  44    2.95   334.8    8.0      21.476
2013    8       10     1  51    2.95   334.7    8.0      21.478
2013    8       10     1  59    2.95   334.6    8.0      21.479
2013    8       10     2   6    2.95   334.5    8.0      21.481
2013    8       10     2  13    2.96   334.4    8.0      21.483
2013    8       10     2  20    2.96   334.3    8.0      21.485
2013    8       10     2  27    2.96   334.2    8.0      21.487
2013    8       10     2  34    2.96   334.1    8.0      21.489
2013    8       10     2  42    2.96   334.0    8.1      21.491
2013    8       10     2  49    2.97   333.9    8.1      21.493
2013    8       10     2  56    2.97   333.8    8.1      21.496
2013    8       10     3   3    2.97   333.7    8.1      21.498
2013    8       10     3  10    2.97   333.7    8.1      21.501
2013    8       10     3  17    2.97   333.6    8.1      21.504
2013    8       10     3  24    2.98   333.5    8.1      21.506
2013    8       10     3  32    2.98   333.4    8.1      21.509
2013    8       10     3  39    2.98   333.3    8.1      21.512
2013    8       10     3  46    2.98   333.2    8.2      21.515
2013    8       10     3  53    2.99   333.1    8.2      21.519
2013    8       10     4   0    2.99   333.0    8.2      21.522
2013    8       10     4   7    2.99   332.9    8.2      21.526
2013    8       10     4  15    2.99   332.8    8.2      21.529
2013    8       10     4  22    3.00   332.7    8.2      21.533
2013    8       10     4  29    3.00   332.6    8.2      21.537
2013    8       10     4  36    3.00   332.5    8.2      21.541
2013    8       10     4  43    3.00   332.4    8.2      21.545
2013    8       10     4  51    3.01   332.3    8.3      21.549
2013    8       10     4  58    3.01   332.2    8.3      21.553
2013    8       10     5   5    3.01   332.1    8.3      21.558
2013    8       10     5  12    3.01   332.0    8.3      21.563
2013    8       10     5  19    3.02   331.9    8.3      21.567
2013    8       10     5  26    3.02   331.8    8.3      21.572
2013    8       10     5  34    3.02   331.7    8.3      21.578
2013    8       10     5  41    3.03   331.6    8.3      21.583
2013    8       10     5  48    3.03   331.5    8.4      21.588
2013    8       10     5  55    3.03   331.4    8.4      21.594
2013    8       10     6   2    3.04   331.3    8.4      21.600
2013    8       10     6   9    3.04   331.2    8.4      21.606
2013    8       10     6  17    3.04   331.1    8.4      21.612
2013    8       10     6  24    3.04   331.0    8.4      21.618
2013    8       10     6  31    3.05   330.9    8.4      21.625
2013    8       10     6  38    3.05   330.8    8.5      21.632
2013    8       10     6  45    3.05   330.8    8.5      21.639
2013    8       10     6  52    3.06   330.7    8.5      21.646
2013    8       10     7   0    3.06   330.6    8.5      21.653
2013    8       10     7   7    3.06   330.5    8.5      21.661
2013    8       10     7  14    3.07   330.4    8.5      21.669
2013    8       10     7  21    3.07   330.3    8.5      21.677
2013    8       10     7  28    3.07   330.2    8.6      21.685
2013    8       10     7  35    3.08   330.1    8.6      21.693
2013    8       10     7  43    3.08   330.0    8.6      21.702
2013    8       10     7  50    3.09   329.9    8.6      21.711
2013    8       10     7  57    3.09   329.8    8.6      21.720
2013    8       10     8   4    3.09   329.8    8.6      21.729
2013    8       10     8  11    3.10   329.7    8.7      21.739
2013    8       10     8  18    3.10   329.6    8.7      21.748
2013    8       10     8  26    3.10   329.5    8.7      21.759
2013    8       10     8  33    3.11   329.4    8.7      21.769
2013    8       10     8  40    3.11   329.3    8.7      21.779
2013    8       10     8  47    3.12   329.2    8.7      21.790
2013    8       10     8  54    3.12   329.2    8.8      21.801
2013    8       10     9   1    3.12   329.1    8.8      21.812
2013    8       10     9   8    3.13   329.0    8.8      21.824
2013    8       10     9  16    3.13   328.9    8.8      21.836
2013    8       10     9  23    3.14   328.8    8.8      21.848
2013    8       10     9  30    3.14   328.7    8.8      21.860
2013    8       10     9  37    3.15   328.7    8.9      21.873
2013    8       10     9  44    3.15   328.6    8.9      21.886
2013    8       10     9  51    3.15   328.5    8.9      21.899
2013    8       10     9  58    3.16   328.4    8.9      21.913
2013    8       10    10   6    3.16   328.3    8.9      21.927
2013    8       10    10  13    3.17   328.3    9.0      21.941
2013    8       10    10  20    3.17   328.2    9.0      21.955
2013    8       10    10  27    3.18   328.1    9.0      21.970
2013    8       10    10  34    3.18   328.0    9.0      21.985
2013    8       10    10  41    3.19   328.0    9.0      22.001
2013    8       10    10  49    3.19   327.9    9.1      22.017
2013    8       10    10  56    3.20   327.8    9.1      22.033
2013    8       10    11   3    3.20   327.7    9.1      22.050
2013    8       10    11  10    3.21   327.7    9.1      22.067
2013    8       10    11  17    3.21   327.6    9.1      22.084
2013    8       10    11  24    3.22   327.5    9.2      22.102
2013    8       10    11  32    3.22   327.5    9.2      22.120
2013    8       10    11  39    3.23   327.4    9.2      22.139
2013    8       10    11  46    3.23   327.3    9.2      22.158
2013    8       10    11  53    3.24   327.3    9.3      22.178
2013    8       10    12   0    3.24   327.2    9.3      22.198
2013    8       10    12   8    3.25   327.1    9.3      22.218
2013    8       10    12  15    3.26   327.1    9.3      22.239
2013    8       10    12  22    3.26   327.0    9.4      22.261
2013    8       10    12  29    3.27   326.9    9.4      22.283
2013    8       10    12  36    3.27   326.9    9.4      22.306
2013    8       10    12  43    3.28   326.8    9.4      22.329
2013    8       10    12  51    3.29   326.8    9.5      22.353
2013    8       10    12  58    3.29   326.7    9.5      22.377
2013    8       10    13   5    3.30   326.7    9.5      22.402
2013    8       10    13  12    3.30   326.6    9.5      22.427
2013    8       10    13  19    3.31   326.5    9.6      22.453
2013    8       10    13  26    3.32   326.5    9.6      22.479
2013    8       10    13  34    3.32   326.4    9.6      22.506
2013    8       10    13  41    3.33   326.4    9.6      22.534
2013    8       10    13  48    3.34   326.3    9.7      22.562
2013    8       10    13  55    3.34   326.3    9.7      22.591
2013    8       10    14   2    3.35   326.3    9.7      22.621
2013    8       10    14   9    3.35   326.2    9.8      22.651
2013    8       10    14  17    3.36   326.2    9.8      22.682
2013    8       10    14  24    3.37   326.1    9.8      22.714
2013    8       10    14  31    3.37   326.1    9.8      22.746
2013    8       10    14  38    3.38   326.0    9.9      22.778
2013    8       10    14  45    3.39   326.0    9.9      22.810
2013    8       10    14  52    3.39   326.0    9.9      22.843
2013    8       10    15   0    3.40   325.9    9.9      22.876
2013    8       10    15   7    3.41   325.9   10.0      22.909
2013    8       10    15  14    3.41   325.9   10.0      22.942
2013    8       10    15  21    3.42   325.8   10.0      22.976
2013    8       10    15  28    3.43   325.8   10.1      23.009
2013    8       10    15  35    3.43   325.8   10.1      23.042
2013    8       10    15  42    3.44   325.7   10.1      23.075
2013    8       10    15  50    3.45   325.7   10.1      23.109
2013    8       10    15  57    3.45   325.7   10.2      23.142
2013    8       10    16   4    3.46   325.6   10.2      23.176
2013    8       10    16  11    3.47   325.6   10.2      23.209
2013    8       10    16  18    3.47   325.6   10.2      23.243
2013    8       10    16  25    3.48   325.5   10.3      23.276
2013    8       10    16  33    3.49   325.5   10.3      23.310
2013    8       10    16  40    3.50   325.5   10.3      23.344
2013    8       10    16  47    3.50   325.5   10.4      23.378
2013    8       10    16  54    3.51   325.4   10.4      23.412
2013    8       10    17   1    3.52   325.4   10.4      23.446
2013    8       10    17   8    3.52   325.4   10.4      23.480
2013    8       10    17  16    3.53   325.4   10.5      23.515
2013    8       10    17  23    3.54   325.4   10.5      23.550
2013    8       10    17  30    3.55   325.3   10.5      23.585
2013    8       10    17  37    3.56   325.3   10.6      23.620
2013    8       10    17  44    3.56   325.3   10.6      23.656
2013    8       10    17  51    3.57   325.3   10.6      23.692
2013    8       10    17  58    3.58   325.3   10.7      23.729
2013    8       10    18   6    3.59   325.3   10.7      23.766
2013    8       10    18  13    3.60   325.3   10.7      23.804
2013    8       10    18  20    3.61   325.3   10.8      23.842
2013    8       10    18  27    3.61   325.3   10.8      23.882
2013    8       10    18  34    3.62   325.3   10.9      23.922
2013    8       10    18  41    3.63   325.2   10.9      23.963
2013    8       10    18  49    3.64   325.3   10.9      24.004
2013    8       10    18  56    3.65   325.3   11.0      24.047
2013    8       10    19   3    3.66   325.3   11.0      24.091
2013    8       10    19  10    3.67   325.3   11.1      24.136
2013    8       10    19  17    3.68   325.3   11.1      24.183
2013    8       10    19  25    3.69   325.3   11.1      24.233
2013    8       10    19  32    3.70   325.4   11.2      24.286
2013    8       10    19  39    3.71   325.4   11.2      24.340
2013    8       10    19  46    3.72   325.4   11.3      24.396
2013    8       10    19  53    3.73   325.5   11.3      24.454
2013    8       10    20   0    3.74   325.5   11.3      24.512
2013    8       10    20   7    3.75   325.5   11.4      24.571
2013    8       10    20  15    3.76   325.6   11.4      24.629
2013    8       10    20  22    3.77   325.6   11.5      24.687
2013    8       10    20  29    3.78   325.6   11.5      24.744
2013    8       10    20  36    3.79   325.7   11.5      24.802
2013    8       10    20  43    3.80   325.7   11.6      24.858
2013    8       10    20  50    3.81   325.7   11.6      24.915
2013    8       10    20  57    3.82   325.8   11.6      24.972
2013    8       10    21   4    3.83   325.8   11.7      25.028
2013    8       10    21  12    3.84   325.8   11.7      25.084
2013    8       10    21  19    3.85   325.9   11.7      25.140
2013    8       10    21  26    3.86   325.9   11.8      25.195
2013    8       10    21  33    3.87   325.9   11.8      25.251
2013    8       10    21  40    3.88   326.0   11.8      25.306
2013    8       10    21  47    3.89   326.0   11.9      25.361
2013    8       10    21  54    3.90   326.1   11.9      25.415
2013    8       10    22   1    3.91   326.1   11.9      25.470
2013    8       10    22   8    3.92   326.1   12.0      25.524
2013    8       10    22  15    3.93   326.2   12.0      25.577
2013    8       10    22  23    3.94   326.2   12.0      25.630
2013    8       10    22  30    3.95   326.2   12.1      25.683
2013    8       10    22  37    3.96   326.3   12.1      25.736
2013    8       10    22  44    3.97   326.3   12.1      25.788
2013    8       10    22  51    3.98   326.3   12.2      25.839
2013    8       10    22  58    3.99   326.4   12.2      25.891
2013    8       10    23   5    4.00   326.4   12.2      25.941
2013    8       10    23  12    4.01   326.4   12.3      25.992
2013    8       10    23  19    4.02   326.5   12.3      26.042
2013    8       10    23  26    4.03   326.5   12.3      26.093
2013    8       10    23  33    4.04   326.6   12.4      26.143
2013    8       10    23  40    4.05   326.6   12.4      26.193
2013    8       10    23  47    4.06   326.6   12.4      26.243
2013    8       10    23  55    4.07   326.7   12.5      26.293
2013    8       11     0   2    4.08   326.7   12.5      26.343
2013    8       11     0   9    4.09   326.8   12.5      26.393
2013    8       11     0  16    4.11   326.8   12.6      26.444
2013    8       11     0  23    4.12   326.9   12.6      26.495
2013    8       11     0  30    4.13   326.9   12.6      26.546
2013    8       11     0  37    4.14   327.0   12.7      26.598
2013    8       11     0  44    4.15   327.0   12.7      26.650
2013    8       11     0  51    4.17   327.1   12.7      26.703
2013    8       11     0  58    4.18   327.2   12.8      26.757
2013    8       11     1   5    4.19   327.2   12.8      26.811
2013    8       11     1  12    4.21   327.3   12.9      26.866
2013    8       11     1  20    4.22   327.4   12.9      26.923
2013    8       11     1  27    4.23   327.4   13.0      26.981
2013    8       11     1  34    4.25   327.5   13.0      27.040
2013    8       11     1  41    4.26   327.6   13.1      27.102
2013    8       11     1  48    4.28   327.7   13.1      27.164
2013    8       11     1  55    4.29   327.8   13.2      27.226
2013    8       11     2   3    4.31   327.8   13.2      27.290
2013    8       11     2  10    4.33   327.9   13.3      27.356
2013    8       11     2  17    4.34   328.0   13.3      27.424
2013    8       11     2  24    4.36   328.2   13.4      27.496
2013    8       11     2  31    4.38   328.3   13.4      27.573
2013    8       11     2  38    4.39   328.4   13.5      27.655
2013    8       11     2  46    4.41   328.6   13.5      27.742
2013    8       11     2  53    4.43   328.7   13.6      27.833
2013    8       11     3   0    4.44   328.8   13.6      27.928
2013    8       11     3   7    4.46   329.0   13.7      28.024
2013    8       11     3  14    4.48   329.1   13.7      28.122
2013    8       11     3  21    4.49   329.3   13.8      28.218
2013    8       11     3  29    4.51   329.4   13.8      28.314
2013    8       11     3  36    4.52   329.6   13.9      28.408
2013    8       11     3  43    4.54   329.7   13.9      28.502
2013    8       11     3  50    4.55   329.9   14.0      28.595
2013    8       11     3  57    4.57   330.0   14.0      28.686
2013    8       11     4   4    4.58   330.2   14.0      28.777
2013    8       11     4  11    4.60   330.3   14.1      28.867
2013    8       11     4  18    4.61   330.5   14.1      28.954
2013    8       11     4  26    4.63   330.6   14.2      29.042
2013    8       11     4  33    4.64   330.7   14.2      29.127
2013    8       11     4  40    4.66   330.9   14.2      29.212
2013    8       11     4  47    4.67   331.1   14.3      29.296
2013    8       11     4  54    4.69   331.2   14.3      29.379
2013    8       11     5   1    4.70   331.4   14.3      29.461
2013    8       11     5   8    4.71   331.5   14.4      29.543
2013    8       11     5  15    4.73   331.7   14.4      29.623
2013    8       11     5  23    4.74   331.8   14.4      29.703
2013    8       11     5  30    4.76   332.0   14.4      29.782
2013    8       11     5  37    4.77   332.1   14.5      29.862
2013    8       11     5  44    4.79   332.3   14.5      29.940
2013    8       11     5  51    4.80   332.4   14.5      30.018
2013    8       11     5  58    4.81   332.6   14.6      30.095
2013    8       11     6   6    4.83   332.8   14.6      30.173
2013    8       11     6  13    4.84   332.9   14.6      30.249
2013    8       11     6  20    4.86   333.1   14.7      30.326
2013    8       11     6  27    4.87   333.2   14.7      30.402
2013    8       11     6  34    4.89   333.4   14.7      30.478
2013    8       11     6  41    4.90   333.6   14.7      30.554
2013    8       11     6  49    4.92   333.7   14.8      30.631
2013    8       11     6  56    4.93   333.9   14.8      30.707
2013    8       11     7   3    4.95   334.1   14.8      30.784
2013    8       11     7  10    4.96   334.2   14.9      30.861
2013    8       11     7  17    4.98   334.4   14.9      30.940
2013    8       11     7  25    4.99   334.6   14.9      31.018
2013    8       11     7  32    5.01   334.8   15.0      31.099
2013    8       11     7  39    5.02   334.9   15.0      31.180
2013    8       11     7  46    5.04   335.1   15.0      31.263
2013    8       11     7  53    5.06   335.3   15.1      31.348
2013    8       11     8   1    5.07   335.5   15.1      31.435
2013    8       11     8   8    5.09   335.7   15.2      31.523
2013    8       11     8  15    5.11   335.9   15.2      31.614
2013    8       11     8  22    5.13   336.1   15.3      31.706
2013    8       11     8  30    5.15   336.4   15.3      31.802
2013    8       11     8  37    5.17   336.6   15.4      31.901
2013    8       11     8  44    5.19   336.8   15.4      32.003
2013    8       11     8  51    5.21   337.0   15.5      32.107
2013    8       11     8  58    5.23   337.3   15.5      32.214
2013    8       11     9   6    5.25   337.5   15.6      32.325
2013    8       11     9  13    5.27   337.8   15.7      32.444
2013    8       11     9  20    5.30   338.1   15.7      32.570
2013    8       11     9  27    5.32   338.3   15.8      32.703
2013    8       11     9  34    5.34   338.6   15.9      32.843
2013    8       11     9  42    5.36   338.9   15.9      32.992
2013    8       11     9  49    5.39   339.2   16.0      33.146
2013    8       11     9  56    5.41   339.6   16.1      33.304
2013    8       11    10   3    5.43   339.9   16.1      33.462
2013    8       11    10  10    5.45   340.2   16.2      33.621
2013    8       11    10  17    5.47   340.5   16.2      33.778
2013    8       11    10  25    5.49   340.8   16.3      33.935
2013    8       11    10  32    5.51   341.1   16.3      34.088
2013    8       11    10  39    5.53   341.4   16.4      34.240
2013    8       11    10  46    5.55   341.6   16.4      34.388
2013    8       11    10  53    5.57   341.9   16.5      34.534
2013    8       11    11   0    5.59   342.2   16.5      34.675
2013    8       11    11   7    5.60   342.5   16.5      34.815
2013    8       11    11  15    5.62   342.8   16.6      34.951
2013    8       11    11  22    5.64   343.1   16.6      35.085
2013    8       11    11  29    5.65   343.4   16.6      35.215
2013    8       11    11  36    5.67   343.7   16.6      35.343
2013    8       11    11  43    5.69   343.9   16.7      35.468
2013    8       11    11  50    5.70   344.2   16.7      35.591
2013    8       11    11  57    5.72   344.5   16.7      35.711
2013    8       11    12   4    5.73   344.8   16.7      35.829
2013    8       11    12  11    5.75   345.1   16.7      35.945
2013    8       11    12  19    5.76   345.4   16.8      36.060
2013    8       11    12  26    5.78   345.7   16.8      36.172
2013    8       11    12  33    5.79   346.0   16.8      36.283
2013    8       11    12  40    5.81   346.3   16.8      36.392
2013    8       11    12  47    5.82   346.6   16.8      36.500
2013    8       11    12  54    5.83   346.9   16.8      36.607
2013    8       11    13   1    5.85   347.2   16.8      36.712
2013    8       11    13   9    5.86   347.5   16.8      36.816
2013    8       11    13  16    5.88   347.8   16.8      36.920
2013    8       11    13  23    5.89   348.1   16.8      37.022
2013    8       11    13  30    5.90   348.4   16.9      37.124
2013    8       11    13  37    5.92   348.7   16.9      37.224
2013    8       11    13  44    5.93   349.0   16.9      37.324
2013    8       11    13  52    5.94   349.3   16.9      37.424
2013    8       11    13  59    5.96   349.6   16.9      37.524
2013    8       11    14   6    5.97   349.9   16.9      37.623
2013    8       11    14  13    5.99   350.2   16.9      37.723
2013    8       11    14  20    6.00   350.5   16.9      37.822
2013    8       11    14  27    6.01   350.8   16.9      37.923
2013    8       11    14  35    6.03   351.1   16.9      38.023
2013    8       11    14  42    6.04   351.4   16.9      38.125
2013    8       11    14  49    6.05   351.8   16.9      38.227
2013    8       11    14  56    6.07   352.1   17.0      38.330
2013    8       11    15   3    6.08   352.4   17.0      38.434
2013    8       11    15  11    6.10   352.7   17.0      38.539
2013    8       11    15  18    6.11   353.1   17.0      38.646
2013    8       11    15  25    6.13   353.4   17.0      38.756
2013    8       11    15  32    6.14   353.7   17.0      38.867
2013    8       11    15  40    6.16   354.1   17.1      38.981
2013    8       11    15  47    6.17   354.4   17.1      39.096
2013    8       11    15  54    6.19   354.7   17.1      39.217
2013    8       11    16   1    6.21   355.1   17.2      39.339
2013    8       11    16   8    6.23   355.4   17.2      39.466
2013    8       11    16  16    6.24   355.8   17.2      39.595
2013    8       11    16  23    6.26   356.1   17.3      39.729
2013    8       11    16  30    6.28   356.5   17.3      39.875
2013    8       11    16  37    6.30   356.9   17.4      40.037
2013    8       11    16  44    6.32   357.4   17.4      40.211
2013    8       11    16  52    6.34   357.8   17.5      40.398
2013    8       11    16  59    6.36   358.3   17.6      40.595
2013    8       11    17   6    6.38   358.8   17.6      40.803
2013    8       11    17  13    6.39   359.3   17.6      41.015
2013    8       11    17  20    6.41   359.8   17.7      41.226
2013    8       11    17  27    6.43   360.3   17.7      41.432
2013    8       11    17  35    6.44   360.7   17.8      41.635
2013    8       11    17  42    6.46   361.2   17.8      41.833
2013    8       11    17  49    6.47   361.7   17.8      42.029
2013    8       11    17  56    6.49   362.2   17.8      42.221
2013    8       11    18   3    6.50   362.7   17.8      42.408
2013    8       11    18  10    6.51   363.1   17.9      42.588
2013    8       11    18  17    6.53   363.6   17.9      42.764
2013    8       11    18  25    6.54   364.0   17.9      42.935
2013    8       11    18  32    6.55   364.5   17.9      43.104
2013    8       11    18  39    6.56   364.9   17.9      43.267
2013    8       11    18  46    6.57   365.3   17.9      43.427
2013    8       11    18  53    6.58   365.8   17.9      43.584
2013    8       11    19   0    6.59   366.2   17.8      43.739
2013    8       11    19   7    6.60   366.6   17.8      43.890
2013    8       11    19  14    6.61   367.0   17.8      44.041
2013    8       11    19  21    6.62   367.5   17.8      44.189
2013    8       11    19  29    6.63   367.9   17.8      44.336
2013    8       11    19  36    6.64   368.3   17.8      44.481
2013    8       11    19  43    6.65   368.7   17.8      44.626
2013    8       11    19  50    6.66   369.2   17.8      44.768
2013    8       11    19  57    6.67   369.6   17.7      44.909
2013    8       11    20   4    6.68   370.1   17.7      45.049
2013    8       11    20  11    6.68   370.5   17.7      45.188
2013    8       11    20  19    6.69   370.9   17.7      45.324
2013    8       11    20  26    6.70   371.4   17.7      45.460
2013    8       11    20  33    6.71   371.9   17.6      45.593
2013    8       11    20  40    6.72   372.3   17.6      45.726
2013    8       11    20  47    6.73   372.8   17.6      45.856
2013    8       11    20  54    6.74   373.2   17.6      45.985
2013    8       11    21   1    6.75   373.7   17.5      46.111
2013    8       11    21   9    6.75   374.2   17.5      46.237
2013    8       11    21  16    6.76   374.6   17.5      46.360
2013    8       11    21  23    6.77   375.1   17.5      46.483
2013    8       11    21  30    6.78   375.6   17.4      46.604
2013    8       11    21  37    6.79   376.1   17.4      46.723
2013    8       11    21  44    6.79   376.5   17.4      46.839
2013    8       11    21  52    6.80   377.0   17.3      46.955
2013    8       11    21  59    6.81   377.5   17.3      47.069
2013    8       11    22   6    6.82   378.0   17.3      47.182
2013    8       11    22  13    6.83   378.6   17.3      47.295
2013    8       11    22  20    6.83   379.1   17.2      47.410
2013    8       11    22  28    6.84   379.7   17.2      47.528
2013    8       11    22  35    6.85   380.3   17.2      47.646
2013    8       11    22  42    6.85   380.9   17.1      47.763
2013    8       11    22  49    6.86   381.4   17.1      47.880
2013    8       11    22  56    6.86   382.0   17.1      47.993
2013    8       11    23   4    6.86   382.5   17.0      48.104
2013    8       11    23  11    6.87   383.0   17.0      48.209
2013    8       11    23  18    6.87   383.5   17.0      48.313
2013    8       11    23  25    6.88   384.0   16.9      48.415
2013    8       11    23  32    6.88   384.4   16.9      48.513
2013    8       11    23  40    6.89   384.8   16.9      48.609
2013    8       11    23  47    6.90   385.3   16.9      48.715
2013    8       11    23  54    6.90   385.7   16.9      48.833
2013    8       12     0   1    6.91   386.1   16.9      48.963
2013    8       12     0   8    6.92   386.5   16.9      49.104
2013    8       12     0  16    6.92   387.0   16.9      49.261
2013    8       12     0  23    6.93   387.4   16.9      49.433
2013    8       12     0  30    6.94   388.0   16.9      49.629
2013    8       12     0  37    6.94   388.5   16.9      49.838
2013    8       12     0  44    6.95   389.1   16.9      50.058
2013    8       12     0  51    6.96   389.7   16.9      50.284
2013    8       12     0  59    6.96   390.4   16.9      50.517
2013    8       12     1   6    6.97   391.0   16.9      50.751
2013    8       12     1  13    6.97   391.7   16.9      50.988
2013    8       12     1  20    6.98   392.3   16.8      51.214
2013    8       12     1  27    6.98   392.9   16.8      51.431
2013    8       12     1  34    6.98   393.5   16.8      51.637
2013    8       12     1  41    6.99   394.0   16.8      51.837
2013    8       12     1  49    6.99   394.6   16.8      52.029
2013    8       12     1  56    6.99   395.1   16.7      52.216
2013    8       12     2   3    7.00   395.7   16.7      52.397
2013    8       12     2  10    7.00   396.2   16.7      52.573
2013    8       12     2  17    7.00   396.8   16.7      52.743
2013    8       12     2  24    7.00   397.4   16.6      52.911
2013    8       12     2  31    7.01   397.9   16.6      53.075
2013    8       12     2  38    7.01   398.5   16.6      53.237
2013    8       12     2  46    7.01   399.1   16.5      53.395
2013    8       12     2  53    7.01   399.6   16.5      53.548
2013    8       12     3   0    7.02   400.2   16.5      53.698
2013    8       12     3   7    7.02   400.8   16.4      53.846
2013    8       12     3  14    7.02   401.4   16.4      53.990
2013    8       12     3  21    7.02   402.0   16.4      54.132
2013    8       12     3  28    7.03   402.6   16.3      54.270
2013    8       12     3  35    7.03   403.3   16.3      54.411
2013    8       12     3  43    7.03   404.0   16.2      54.551
2013    8       12     3  50    7.03   404.7   16.2      54.693
2013    8       12     3  57    7.03   405.3   16.1      54.834
2013    8       12     4   4    7.03   406.1   16.1      54.977
2013    8       12     4  11    7.03   406.8   16.0      55.119
2013    8       12     4  18    7.03   407.5   16.0      55.256
2013    8       12     4  25    7.03   408.3   15.9      55.384
2013    8       12     4  33    7.03   409.0   15.8      55.502
2013    8       12     4  40    7.02   409.7   15.8      55.606
2013    8       12     4  47    7.02   410.5   15.7      55.706
2013    8       12     4  54    7.01   411.3   15.6      55.784
2013    8       12     5   1    7.00   412.0   15.5      55.829
2013    8       12     5   8    6.99   412.7   15.4      55.849
2013    8       12     5  16    6.98   413.4   15.3      55.846
2013    8       12     5  23    6.97   414.0   15.1      55.824
2013    8       12     5  30    6.95   414.6   15.0      55.787
2013    8       12     5  37    6.94   415.3   14.9      55.735
2013    8       12     5  44    6.93   415.9   14.8      55.686
2013    8       12     5  51    6.91   416.6   14.7      55.645
2013    8       12     5  59    6.90   417.3   14.6      55.606
2013    8       12     6   6    6.89   417.9   14.5      55.572
2013    8       12     6  13    6.87   418.6   14.4      55.538
2013    8       12     6  20    6.86   419.2   14.3      55.500
2013    8       12     6  27    6.84   419.7   14.2      55.458
2013    8       12     6  35    6.83   420.3   14.1      55.421
2013    8       12     6  42    6.82   420.8   14.0      55.382
2013    8       12     6  49    6.80   421.3   13.9      55.345
2013    8       12     6  56    6.79   421.8   13.8      55.311
2013    8       12     7   3    6.78   422.2   13.8      55.283
2013    8       12     7  11    6.77   422.7   13.7      55.263
2013    8       12     7  18    6.76   423.1   13.6      55.252
2013    8       12     7  25    6.74   423.4   13.6      55.250
2013    8       12     7  32    6.73   423.8   13.5      55.260
2013    8       12     7  39    6.72   424.3   13.4      55.288
2013    8       12     7  47    6.71   424.7   13.4      55.340
2013    8       12     7  54    6.70   425.3   13.3      55.412
2013    8       12     8   1    6.69   425.8   13.3      55.498
2013    8       12     8   8    6.68   426.3   13.2      55.595
2013    8       12     8  15    6.67   426.9   13.2      55.699
2013    8       12     8  22    6.66   427.5   13.1      55.810
2013    8       12     8  29    6.65   428.0   13.1      55.922
2013    8       12     8  37    6.63   428.6   13.0      56.024
2013    8       12     8  44    6.62   429.1   13.0      56.117
2013    8       12     8  51    6.61   429.6   12.9      56.204
2013    8       12     8  58    6.60   430.0   12.9      56.284
2013    8       12     9   5    6.59   430.5   12.8      56.359
2013    8       12     9  12    6.58   431.0   12.8      56.430
2013    8       12     9  19    6.56   431.5   12.7      56.497
2013    8       12     9  27    6.55   432.0   12.7      56.558
2013    8       12     9  34    6.54   432.5   12.6      56.615
2013    8       12     9  41    6.53   433.0   12.6      56.669
2013    8       12     9  48    6.51   433.5   12.5      56.719
2013    8       12     9  55    6.50   434.0   12.5      56.766
2013    8       12    10   2    6.49   434.5   12.4      56.806
2013    8       12    10   9    6.48   435.1   12.4      56.841
2013    8       12    10  16    6.46   435.6   12.3      56.873
2013    8       12    10  23    6.45   436.1   12.3      56.901
2013    8       12    10  31    6.44   436.6   12.2      56.926
2013    8       12    10  38    6.43   437.2   12.2      56.948
2013    8       12    10  45    6.41   437.8   12.1      56.967
2013    8       12    10  52    6.40   438.4   12.1      56.990
2013    8       12    10  59    6.38   439.0   12.0      57.015
2013    8       12    11   6    6.37   439.7   11.9      57.043
2013    8       12    11  13    6.36   440.4   11.9      57.070
2013    8       12    11  20    6.34   441.1   11.8      57.101
2013    8       12    11  28    6.33   441.8   11.8      57.131
2013    8       12    11  35    6.31   442.5   11.7      57.155
2013    8       12    11  42    6.29   443.3   11.6      57.167
2013    8       12    11  49    6.28   444.0   11.5      57.165
2013    8       12    11  56    6.26   444.8   11.5      57.151
2013    8       12    12   3    6.24   445.7   11.4      57.130
2013    8       12    12  11    6.22   446.4   11.3      57.070
2013    8       12    12  18    6.19   447.2   11.2      56.971
2013    8       12    12  25    6.17   447.9   11.1      56.839
2013    8       12    12  32    6.15   448.6   11.0      56.679
2013    8       12    12  39    6.12   449.2   10.8      56.494
2013    8       12    12  46    6.10   449.7   10.7      56.281
2013    8       12    12  54    6.07   450.2   10.6      56.046
2013    8       12    13   1    6.05   450.7   10.5      55.819
2013    8       12    13   8    6.03   451.2   10.5      55.596
2013    8       12    13  15    6.01   451.7   10.4      55.382
2013    8       12    13  22    5.98   452.2   10.3      55.173
2013    8       12    13  29    5.96   452.6   10.2      54.971
2013    8       12    13  37    5.94   453.1   10.1      54.771
2013    8       12    13  44    5.92   453.5   10.0      54.581
2013    8       12    13  51    5.90   453.9   10.0      54.398
2013    8       12    13  58    5.89   454.3    9.9      54.226
2013    8       12    14   5    5.87   454.8    9.8      54.061
2013    8       12    14  13    5.85   455.2    9.8      53.904
2013    8       12    14  20    5.83   455.6    9.7      53.752
2013    8       12    14  27    5.81   456.0    9.7      53.607
2013    8       12    14  34    5.80   456.3    9.6      53.465
2013    8       12    14  41    5.78   456.7    9.5      53.330
2013    8       12    14  49    5.76   457.1    9.5      53.197
2013    8       12    14  56    5.74   457.5    9.4      53.068
2013    8       12    15   3    5.73   457.8    9.4      52.940
2013    8       12    15  10    5.71   458.2    9.3      52.816
2013    8       12    15  17    5.69   458.6    9.3      52.692
2013    8       12    15  24    5.68   458.9    9.2      52.570
2013    8       12    15  32    5.66   459.3    9.2      52.449
2013    8       12    15  39    5.64   459.6    9.1      52.329
2013    8       12    15  46    5.62   460.0    9.1      52.208
2013    8       12    15  53    5.61   460.3    9.0      52.090
2013    8       12    16   0    5.59   460.6    9.0      51.970
2013    8       12    16   7    5.57   461.0    8.9      51.852
2013    8       12    16  14    5.56   461.3    8.9      51.731
2013    8       12    16  22    5.54   461.6    8.9      51.612
2013    8       12    16  29    5.52   462.0    8.8      51.489
2013    8       12    16  36    5.51   462.3    8.8      51.367
2013    8       12    16  43    5.49   462.6    8.7      51.243
2013    8       12    16  50    5.47   463.0    8.7      51.118
2013    8       12    16  57    5.45   463.3    8.6      50.991
2013    8       12    17   4    5.44   463.6    8.6      50.864
2013    8       12    17  11    5.42   463.9    8.5      50.735
2013    8       12    17  18    5.40   464.1    8.5      50.607
2013    8       12    17  26    5.39   464.4    8.5      50.477
2013    8       12    17  33    5.37   464.7    8.4      50.348
2013    8       12    17  40    5.35   464.9    8.4      50.217
2013    8       12    17  47    5.34   465.2    8.3      50.088
2013    8       12    17  54    5.32   465.4    8.3      49.959
2013    8       12    18   1    5.30   465.7    8.3      49.831
2013    8       12    18   8    5.29   465.9    8.2      49.701
2013    8       12    18  15    5.27   466.1    8.2      49.574
2013    8       12    18  23    5.25   466.3    8.2      49.447
2013    8       12    18  30    5.24   466.5    8.1      49.321
2013    8       12    18  37    5.22   466.7    8.1      49.195
2013    8       12    18  44    5.21   466.8    8.1      49.071
2013    8       12    18  51    5.19   467.0    8.0      48.947
2013    8       12    18  58    5.18   467.2    8.0      48.826
2013    8       12    19   5    5.16   467.3    8.0      48.703
2013    8       12    19  12    5.15   467.5    7.9      48.583
2013    8       12    19  20    5.13   467.6    7.9      48.462
2013    8       12    19  27    5.12   467.8    7.9      48.343
2013    8       12    19  34    5.11   467.9    7.8      48.225
2013    8       12    19  41    5.09   468.1    7.8      48.109
2013    8       12    19  48    5.08   468.3    7.8      47.993
2013    8       12    19  55    5.07   468.4    7.8      47.882
2013    8       12    20   3    5.06   468.5    7.8      47.772
2013    8       12    20  10    5.04   468.7    7.7      47.664
2013    8       12    20  17    5.03   468.8    7.7      47.557
2013    8       12    20  24    5.02   468.9    7.7      47.453
2013    8       12    20  31    5.01   469.0    7.7      47.350
2013    8       12    20  38    5.00   469.1    7.6      47.250
2013    8       12    20  46    4.99   469.2    7.6      47.151
2013    8       12    20  53    4.98   469.3    7.6      47.057
2013    8       12    21   0    4.97   469.4    7.6      46.967
2013    8       12    21   7    4.96   469.5    7.6      46.880
2013    8       12    21  14    4.95   469.6    7.6      46.796
2013    8       12    21  22    4.94   469.6    7.5      46.716
2013    8       12    21  29    4.93   469.7    7.5      46.639
2013    8       12    21  36    4.92   469.8    7.5      46.565
2013    8       12    21  43    4.91   469.9    7.5      46.494
2013    8       12    21  50    4.90   470.0    7.5      46.425
2013    8       12    21  58    4.90   470.1    7.5      46.358
2013    8       12    22   5    4.89   470.2    7.4      46.294
2013    8       12    22  12    4.88   470.3    7.4      46.230
2013    8       12    22  19    4.87   470.4    7.4      46.169
2013    8       12    22  26    4.86   470.6    7.4      46.108
2013    8       12    22  33    4.86   470.7    7.4      46.050
2013    8       12    22  41    4.85   470.8    7.4      45.992
2013    8       12    22  48    4.84   470.9    7.4      45.935
2013    8       12    22  55    4.83   471.0    7.3      45.878
2013    8       12    23   2    4.83   471.2    7.3      45.824
2013    8       12    23   9    4.82   471.3    7.3      45.770
2013    8       12    23  16    4.81   471.4    7.3      45.717
2013    8       12    23  23    4.80   471.5    7.3      45.665
2013    8       12    23  30    4.80   471.7    7.3      45.614
2013    8       12    23  38    4.79   471.8    7.3      45.562
2013    8       12    23  45    4.78   471.9    7.2      45.510
2013    8       12    23  52    4.78   472.1    7.2      45.458
2013    8       12    23  59    4.77   472.2    7.2      45.406
2013    8       13     0   6    4.76   472.4    7.2      45.353
2013    8       13     0  13    4.75   472.5    7.2      45.300
2013    8       13     0  20    4.75   472.6    7.2      45.248
2013    8       13     0  27    4.74   472.7    7.2      45.196
2013    8       13     0  35    4.73   472.9    7.1      45.144
2013    8       13     0  42    4.73   473.0    7.1      45.093
2013    8       13     0  49    4.72   473.1    7.1      45.043
2013    8       13     0  56    4.71   473.2    7.1      44.993
2013    8       13     1   3    4.71   473.3    7.1      44.946
2013    8       13     1  10    4.70   473.4    7.1      44.900
2013    8       13     1  17    4.70   473.5    7.1      44.854
2013    8       13     1  24    4.69   473.6    7.1      44.811
2013    8       13     1  32    4.69   473.7    7.0      44.769
2013    8       13     1  39    4.68   473.7    7.0      44.730
2013    8       13     1  46    4.68   473.8    7.0      44.691
2013    8       13     1  53    4.67   473.9    7.0      44.654
2013    8       13     2   0    4.67   473.9    7.0      44.618
2013    8       13     2   7    4.66   474.0    7.0      44.583
2013    8       13     2  14    4.66   474.1    7.0      44.550
2013    8       13     2  21    4.65   474.2    7.0      44.517
2013    8       13     2  28    4.65   474.3    7.0      44.483
2013    8       13     2  36    4.64   474.3    6.9      44.450
2013    8       13     2  43    4.64   474.5    6.9      44.418
2013    8       13     2  50    4.64   474.6    6.9      44.386
2013    8       13     2  57    4.63   474.7    6.9      44.353
2013    8       13     3   4    4.63   474.8    6.9      44.322
2013    8       13     3  11    4.62   475.0    6.9      44.290
2013    8       13     3  18    4.62   475.1    6.9      44.260
2013    8       13     3  26    4.62   475.2    6.9      44.229
2013    8       13     3  33    4.61   475.3    6.9      44.197
2013    8       13     3  40    4.61   475.4    6.9      44.164
2013    8       13     3  47    4.61   475.5    6.9      44.131
2013    8       13     3  54    4.60   475.7    6.8      44.098
2013    8       13     4   1    4.60   475.8    6.8      44.066
2013    8       13     4   9    4.60   475.9    6.8      44.035
2013    8       13     4  16    4.59   476.0    6.8      44.006
2013    8       13     4  23    4.59   476.1    6.8      43.979
2013    8       13     4  30    4.59   476.2    6.8      43.955
2013    8       13     4  37    4.58   476.3    6.8      43.933
2013    8       13     4  45    4.58   476.4    6.8      43.915
2013    8       13     4  52    4.58   476.5    6.8      43.897
2013    8       13     4  59    4.57   476.6    6.8      43.882
2013    8       13     5   6    4.57   476.8    6.8      43.867
2013    8       13     5  13    4.57   476.9    6.8      43.852
2013    8       13     5  21    4.57   477.0    6.7      43.838
2013    8       13     5  28    4.56   477.1    6.7      43.824
2013    8       13     5  35    4.56   477.2    6.7      43.809
2013    8       13     5  42    4.56   477.3    6.7      43.796
2013    8       13     5  49    4.56   477.4    6.7      43.783
2013    8       13     5  56    4.55   477.6    6.7      43.771
2013    8       13     6   4    4.55   477.7    6.7      43.760
2013    8       13     6  11    4.55   477.8    6.7      43.749
2013    8       13     6  18    4.55   477.9    6.7      43.738
2013    8       13     6  25    4.55   478.0    6.7      43.729
2013    8       13     6  32    4.54   478.1    6.7      43.721
2013    8       13     6  39    4.54   478.2    6.7      43.714
2013    8       13     6  46    4.54   478.3    6.7      43.707
2013    8       13     6  53    4.54   478.4    6.6      43.702
2013    8       13     7   1    4.54   478.5    6.6      43.697
2013    8       13     7   8    4.53   478.6    6.6      43.694
2013    8       13     7  15    4.53   478.7    6.6      43.692
2013    8       13     7  22    4.53   478.8    6.6      43.690
2013    8       13     7  29    4.53   478.9    6.6      43.690
2013    8       13     7  36    4.53   478.9    6.6      43.689
2013    8       13     7  43    4.52   479.0    6.6      43.689
2013    8       13     7  50    4.52   479.1    6.6      43.689
2013    8       13     7  58    4.52   479.2    6.6      43.690
2013    8       13     8   5    4.52   479.3    6.6      43.691
2013    8       13     8  12    4.52   479.4    6.6      43.692
2013    8       13     8  19    4.52   479.5    6.6      43.693
2013    8       13     8  26    4.52   479.6    6.6      43.694
2013    8       13     8  33    4.51   479.7    6.6      43.696
2013    8       13     8  40    4.51   479.8    6.6      43.698
2013    8       13     8  47    4.51   479.9    6.6      43.700
2013    8       13     8  54    4.51   480.0    6.6      43.703
2013    8       13     9   1    4.51   480.1    6.6      43.706
2013    8       13     9   9    4.51   480.2    6.6      43.709
2013    8       13     9  16    4.51   480.3    6.6      43.713
2013    8       13     9  23    4.51   480.4    6.6      43.717
2013    8       13     9  30    4.51   480.6    6.6      43.722
2013    8       13     9  37    4.51   480.7    6.6      43.726
2013    8       13     9  44    4.50   480.8    6.6      43.731
2013    8       13     9  51    4.50   480.9    6.5      43.736
2013    8       13     9  58    4.50   481.0    6.5      43.741
2013    8       13    10   6    4.50   481.1    6.5      43.746
2013    8       13    10  13    4.50   481.2    6.5      43.751
2013    8       13    10  20    4.50   481.3    6.5      43.756
2013    8       13    10  27    4.50   481.4    6.5      43.761
2013    8       13    10  34    4.50   481.5    6.5      43.766
2013    8       13    10  41    4.50   481.6    6.5      43.772
2013    8       13    10  48    4.50   481.7    6.5      43.778
2013    8       13    10  56    4.50   481.8    6.5      43.785
2013    8       13    11   3    4.50   481.9    6.5      43.793
2013    8       13    11  10    4.50   482.0    6.5      43.803
2013    8       13    11  17    4.49   482.1    6.5      43.814
2013    8       13    11  24    4.49   482.2    6.5      43.826
2013    8       13    11  31    4.49   482.3    6.5      43.841
2013    8       13    11  39    4.49   482.4    6.5      43.860
2013    8       13    11  46    4.49   482.5    6.5      43.883
2013    8       13    11  53    4.49   482.6    6.5      43.910
2013    8       13    12   0    4.49   482.7    6.5      43.940
2013    8       13    12   7    4.49   482.9    6.5      43.972
2013    8       13    12  15    4.49   483.0    6.5      44.006
2013    8       13    12  22    4.49   483.1    6.5      44.039
2013    8       13    12  29    4.49   483.2    6.5      44.072
2013    8       13    12  36    4.49   483.3    6.5      44.104
2013    8       13    12  43    4.49   483.5    6.5      44.134
2013    8       13    12  50    4.49   483.6    6.5      44.163
2013    8       13    12  58    4.49   483.7    6.5      44.192
2013    8       13    13   5    4.49   483.9    6.5      44.219
2013    8       13    13  12    4.49   484.0    6.5      44.245
2013    8       13    13  19    4.49   484.1    6.5      44.270
2013    8       13    13  26    4.49   484.3    6.5      44.294
2013    8       13    13  33    4.49   484.4    6.5      44.317
2013    8       13    13  41    4.49   484.5    6.5      44.339
2013    8       13    13  48    4.49   484.7    6.5      44.361
2013    8       13    13  55    4.49   484.8    6.5      44.382
2013    8       13    14   2    4.49   485.0    6.5      44.403
2013    8       13    14   9    4.49   485.1    6.5      44.423
2013    8       13    14  16    4.49   485.2    6.5      44.442
2013    8       13    14  23    4.49   485.4    6.5      44.462
2013    8       13    14  30    4.49   485.5    6.5      44.481
2013    8       13    14  38    4.49   485.6    6.5      44.499
2013    8       13    14  45    4.49   485.8    6.5      44.518
2013    8       13    14  52    4.49   485.9    6.5      44.537
2013    8       13    14  59    4.49   486.0    6.5      44.556
2013    8       13    15   6    4.49   486.2    6.5      44.575
2013    8       13    15  13    4.49   486.3    6.5      44.594
2013    8       13    15  20    4.49   486.5    6.5      44.615
2013    8       13    15  27    4.49   486.6    6.5      44.635
2013    8       13    15  34    4.50   486.7    6.5      44.657
2013    8       13    15  41    4.50   486.9    6.5      44.681
2013    8       13    15  49    4.50   487.1    6.5      44.708
2013    8       13    15  56    4.50   487.2    6.5      44.740
2013    8       13    16   3    4.50   487.4    6.5      44.777
2013    8       13    16  10    4.50   487.6    6.5      44.818
2013    8       13    16  17    4.50   487.8    6.5      44.862
2013    8       13    16  24    4.50   488.0    6.5      44.908
2013    8       13    16  31    4.50   488.2    6.5      44.954
2013    8       13    16  38    4.50   488.4    6.5      45.000
2013    8       13    16  45    4.50   488.6    6.5      45.047
2013    8       13    16  53    4.50   488.8    6.5      45.093
2013    8       13    17   0    4.50   489.0    6.5      45.139
2013    8       13    17   7    4.50   489.2    6.5      45.184
2013    8       13    17  14    4.50   489.4    6.5      45.229
2013    8       13    17  21    4.50   489.6    6.5      45.273
2013    8       13    17  28    4.50   489.8    6.5      45.316
2013    8       13    17  35    4.51   490.0    6.5      45.358
2013    8       13    17  42    4.51   490.2    6.5      45.401
2013    8       13    17  49    4.51   490.4    6.5      45.442
2013    8       13    17  57    4.51   490.6    6.5      45.484
2013    8       13    18   4    4.51   490.8    6.5      45.524
2013    8       13    18  11    4.51   490.9    6.5      45.565
2013    8       13    18  18    4.51   491.1    6.5      45.606
2013    8       13    18  25    4.51   491.3    6.5      45.647
2013    8       13    18  32    4.51   491.5    6.4      45.688
2013    8       13    18  40    4.51   491.7    6.4      45.731
2013    8       13    18  47    4.51   491.9    6.4      45.775
2013    8       13    18  54    4.51   492.1    6.4      45.821
2013    8       13    19   1    4.51   492.3    6.4      45.867
2013    8       13    19   8    4.51   492.6    6.4      45.915
2013    8       13    19  15    4.51   492.8    6.4      45.963
2013    8       13    19  23    4.51   493.0    6.4      46.011
2013    8       13    19  30    4.52   493.2    6.4      46.057
2013    8       13    19  37    4.52   493.4    6.4      46.102
2013    8       13    19  44    4.52   493.6    6.4      46.147
2013    8       13    19  51    4.52   493.9    6.4      46.190
2013    8       13    19  59    4.52   494.1    6.4      46.232
2013    8       13    20   6    4.52   494.3    6.4      46.273
2013    8       13    20  13    4.52   494.6    6.4      46.312
2013    8       13    20  20    4.52   494.8    6.4      46.350
2013    8       13    20  27    4.52   495.1    6.4      46.387
2013    8       13    20  34    4.52   495.3    6.4      46.423
2013    8       13    20  42    4.52   495.5    6.4      46.457
2013    8       13    20  49    4.52   495.8    6.4      46.490
2013    8       13    20  56    4.52   496.0    6.4      46.522
2013    8       13    21   3    4.52   496.3    6.4      46.553
2013    8       13    21  10    4.52   496.5    6.4      46.584
2013    8       13    21  17    4.52   496.8    6.3      46.613
2013    8       13    21  24    4.52   497.0    6.3      46.642
2013    8       13    21  31    4.52   497.3    6.3      46.670
2013    8       13    21  39    4.52   497.5    6.3      46.698
2013    8       13    21  46    4.52   497.8    6.3      46.725
2013    8       13    21  53    4.52   498.0    6.3      46.751
2013    8       13    22   0    4.52   498.3    6.3      46.778
2013    8       13    22   7    4.52   498.5    6.3      46.803
2013    8       13    22  14    4.52   498.8    6.3      46.829
2013    8       13    22  21    4.52   499.0    6.3      46.855
2013    8       13    22  28    4.52   499.3    6.3      46.881
2013    8       13    22  35    4.52   499.6    6.3      46.908
2013    8       13    22  43    4.52   499.8    6.3      46.934
2013    8       13    22  50    4.52   500.1    6.3      46.961
2013    8       13    22  57    4.52   500.3    6.3      46.989
2013    8       13    23   4    4.52   500.6    6.3      47.017
2013    8       13    23  11    4.52   500.9    6.3      47.045
2013    8       13    23  18    4.52   501.1    6.3      47.074
2013    8       13    23  25    4.52   501.4    6.3      47.105
2013    8       13    23  32    4.52   501.6    6.3      47.137
2013    8       13    23  39    4.52   501.9    6.2      47.173
2013    8       13    23  46    4.52   502.2    6.2      47.215
2013    8       13    23  54    4.52   502.5    6.2      47.263
2013    8       14     0   1    4.52   502.8    6.2      47.317
2013    8       14     0   8    4.52   503.1    6.2      47.376
2013    8       14     0  15    4.52   503.4    6.2      47.438
2013    8       14     0  22    4.52   503.7    6.2      47.502
2013    8       14     0  29    4.52   504.0    6.2      47.566
2013    8       14     0  36    4.52   504.3    6.2      47.630
2013    8       14     0  43    4.52   504.6    6.2      47.692
2013    8       14     0  50    4.52   505.0    6.2      47.754
2013    8       14     0  57    4.51   505.3    6.2      47.813
2013    8       14     1   5    4.51   505.6    6.2      47.871
2013    8       14     1  12    4.51   505.9    6.2      47.928
2013    8       14     1  19    4.51   506.2    6.2      47.983
2013    8       14     1  26    4.51   506.5    6.2      48.035
2013    8       14     1  33    4.51   506.8    6.2      48.087
2013    8       14     1  40    4.51   507.1    6.2      48.135
2013    8       14     1  47    4.51   507.5    6.2      48.182
2013    8       14     1  55    4.50   507.8    6.1      48.227
2013    8       14     2   2    4.50   508.1    6.1      48.269
2013    8       14     2   9    4.50   508.4    6.1      48.310
2013    8       14     2  16    4.50   508.7    6.1      48.348
2013    8       14     2  23    4.50   509.0    6.1      48.384
2013    8       14     2  31    4.50   509.4    6.1      48.418
2013    8       14     2  38    4.49   509.7    6.1      48.450
2013    8       14     2  45    4.49   510.0    6.1      48.481
2013    8       14     2  52    4.49   510.3    6.1      48.511
2013    8       14     2  59    4.49   510.6    6.1      48.539
2013    8       14     3   6    4.49   510.9    6.0      48.566
2013    8       14     3  14    4.48   511.2    6.0      48.593
2013    8       14     3  21    4.48   511.6    6.0      48.618
2013    8       14     3  28    4.48   511.9    6.0      48.642
2013    8       14     3  35    4.48   512.2    6.0      48.665
2013    8       14     3  42    4.48   512.5    6.0      48.688
2013    8       14     3  49    4.47   512.9    6.0      48.709
2013    8       14     3  57    4.47   513.2    6.0      48.730
2013    8       14     4   4    4.47   513.5    6.0      48.750
2013    8       14     4  11    4.47   513.8    6.0      48.769
2013    8       14     4  18    4.46   514.2    5.9      48.787
2013    8       14     4  25    4.46   514.5    5.9      48.804
2013    8       14     4  32    4.46   514.8    5.9      48.820
2013    8       14     4  39    4.46   515.1    5.9      48.835
2013    8       14     4  46    4.45   515.5    5.9      48.850
2013    8       14     4  54    4.45   515.8    5.9      48.863
2013    8       14     5   1    4.45   516.1    5.9      48.876
2013    8       14     5   8    4.44   516.5    5.9      48.887
2013    8       14     5  15    4.44   516.8    5.8      48.897
2013    8       14     5  22    4.44   517.1    5.8      48.907
2013    8       14     5  29    4.43   517.5    5.8      48.915
2013    8       14     5  36    4.43   517.8    5.8      48.920
2013    8       14     5  43    4.43   518.1    5.8      48.924
2013    8       14     5  51    4.42   518.4    5.8      48.926
2013    8       14     5  58    4.42   518.7    5.8      48.925
2013    8       14     6   5    4.42   518.9    5.8      48.924
2013    8       14     6  12    4.41   519.2    5.7      48.923
2013    8       14     6  19    4.41   519.5    5.7      48.923
2013    8       14     6  26    4.41   519.7    5.7      48.925
2013    8       14     6  33    4.40   520.0    5.7      48.930
2013    8       14     6  40    4.40   520.3    5.7      48.939
2013    8       14     6  47    4.40   520.6    5.7      48.950
2013    8       14     6  54    4.39   520.9    5.7      48.963
2013    8       14     7   1    4.39   521.2    5.7      48.975
2013    8       14     7   9    4.39   521.5    5.6      48.987
2013    8       14     7  16    4.38   521.8    5.6      48.995
2013    8       14     7  23    4.38   522.2    5.6      49.002
2013    8       14     7  30    4.38   522.5    5.6      49.007
2013    8       14     7  37    4.37   522.8    5.6      49.011
2013    8       14     7  44    4.37   523.1    5.6      49.014
2013    8       14     7  51    4.36   523.4    5.6      49.016
2013    8       14     7  58    4.36   523.7    5.6      49.018
2013    8       14     8   5    4.36   524.0    5.5      49.018
2013    8       14     8  12    4.35   524.3    5.5      49.017
2013    8       14     8  19    4.35   524.6    5.5      49.014
2013    8       14     8  27    4.34   524.9    5.5      49.010
2013    8       14     8  34    4.34   525.2    5.5      49.005
2013    8       14     8  41    4.33   525.4    5.5      48.999
2013    8       14     8  48    4.33   525.7    5.5      48.994
2013    8       14     8  55    4.33   526.0    5.5      48.988
2013    8       14     9   2    4.32   526.3    5.4      48.984
2013    8       14     9   9    4.32   526.5    5.4      48.979
2013    8       14     9  17    4.31   526.8    5.4      48.976
2013    8       14     9  24    4.31   527.1    5.4      48.972
2013    8       14     9  31    4.30   527.4    5.4      48.969
2013    8       14     9  38    4.30   527.7    5.4      48.966
2013    8       14     9  45    4.29   528.0    5.4      48.962
2013    8       14     9  52    4.29   528.3    5.4      48.957
2013    8       14    10   0    4.29   528.6    5.3      48.952
2013    8       14    10   7    4.28   528.9    5.3      48.945
2013    8       14    10  14    4.28   529.2    5.3      48.938
2013    8       14    10  21    4.27   529.5    5.3      48.929
2013    8       14    10  28    4.27   529.7    5.3      48.919
2013    8       14    10  36    4.26   530.0    5.3      48.908
2013    8       14    10  43    4.26   530.3    5.3      48.896
2013    8       14    10  50    4.25   530.5    5.3      48.884
2013    8       14    10  57    4.25   530.8    5.2      48.871
2013    8       14    11   4    4.24   531.0    5.2      48.860
2013    8       14    11  11    4.24   531.3    5.2      48.849
2013    8       14    11  18    4.24   531.5    5.2      48.839
2013    8       14    11  26    4.23   531.7    5.2      48.828
2013    8       14    11  33    4.23   531.9    5.2      48.820
2013    8       14    11  40    4.22   532.2    5.2      48.813
2013    8       14    11  47    4.22   532.4    5.2      48.808
2013    8       14    11  54    4.21   532.6    5.2      48.804
2013    8       14    12   1    4.21   532.8    5.2      48.801
2013    8       14    12   8    4.20   533.1    5.1      48.800
2013    8       14    12  16    4.20   533.3    5.1      48.798
2013    8       14    12  23    4.20   533.6    5.1      48.794
2013    8       14    12  30    4.19   533.8    5.1      48.788
2013    8       14    12  37    4.19   534.1    5.1      48.780
2013    8       14    12  44    4.18   534.3    5.1      48.770
2013    8       14    12  51    4.18   534.5    5.1      48.758
2013    8       14    12  58    4.17   534.8    5.1      48.744
2013    8       14    13   5    4.17   535.1    5.1      48.727
2013    8       14    13  12    4.17   535.3    5.1      48.709
2013    8       14    13  19    4.16   535.6    5.0      48.688
2013    8       14    13  27    4.16   535.8    5.0      48.664
2013    8       14    13  34    4.15   536.0    5.0      48.637
2013    8       14    13  41    4.15   536.2    5.0      48.608
2013    8       14    13  48    4.14   536.4    5.0      48.576
2013    8       14    13  55    4.14   536.6    5.0      48.543
2013    8       14    14   2    4.13   536.8    5.0      48.509
2013    8       14    14   9    4.13   536.9    5.0      48.476
2013    8       14    14  16    4.12   537.1    5.0      48.445
2013    8       14    14  23    4.12   537.2    4.9      48.416
2013    8       14    14  30    4.11   537.4    4.9      48.392
2013    8       14    14  37    4.11   537.6    4.9      48.372
2013    8       14    14  44    4.10   537.8    4.9      48.357
2013    8       14    14  52    4.10   538.1    4.9      48.343
2013    8       14    14  59    4.10   538.3    4.9      48.330
2013    8       14    15   6    4.09   538.5    4.9      48.316
2013    8       14    15  13    4.09   538.8    4.9      48.299
2013    8       14    15  20    4.08   539.0    4.9      48.280
2013    8       14    15  27    4.08   539.2    4.9      48.259
2013    8       14    15  34    4.07   539.4    4.8      48.236
2013    8       14    15  41    4.07   539.6    4.8      48.213
2013    8       14    15  48    4.06   539.9    4.8      48.188
2013    8       14    15  55    4.06   540.1    4.8      48.164
2013    8       14    16   3    4.05   540.3    4.8      48.138
2013    8       14    16  10    4.05   540.5    4.8      48.112
2013    8       14    16  17    4.04   540.7    4.8      48.086
2013    8       14    16  24    4.04   540.9    4.8      48.059
2013    8       14    16  31    4.03   541.1    4.8      48.033
2013    8       14    16  38    4.03   541.3    4.8      48.007
2013    8       14    16  45    4.02   541.5    4.7      47.982
2013    8       14    16  53    4.02   541.7    4.7      47.958
2013    8       14    17   0    4.01   541.8    4.7      47.934
2013    8       14    17   7    4.01   542.0    4.7      47.912
2013    8       14    17  14    4.01   542.2    4.7      47.890
2013    8       14    17  21    4.00   542.4    4.7      47.869
2013    8       14    17  28    4.00   542.6    4.7      47.849
2013    8       14    17  36    3.99   542.8    4.7      47.830
2013    8       14    17  43    3.99   543.0    4.7      47.811
2013    8       14    17  50    3.98   543.1    4.7      47.793
2013    8       14    17  57    3.98   543.3    4.7      47.776
2013    8       14    18   4    3.98   543.4    4.7      47.760
2013    8       14    18  12    3.97   543.6    4.6      47.745
2013    8       14    18  19    3.97   543.7    4.6      47.732
2013    8       14    18  26    3.96   543.8    4.6      47.721
2013    8       14    18  33    3.96   544.0    4.6      47.712
2013    8       14    18  40    3.96   544.1    4.6      47.704
2013    8       14    18  47    3.95   544.2    4.6      47.698
2013    8       14    18  54    3.95   544.3    4.6      47.696
2013    8       14    19   1    3.95   544.4    4.6      47.696
2013    8       14    19   9    3.94   544.5    4.6      47.698
2013    8       14    19  16    3.94   544.6    4.6      47.701
2013    8       14    19  23    3.94   544.7    4.6      47.704
2013    8       14    19  30    3.93   544.9    4.6      47.708
2013    8       14    19  37    3.93   545.0    4.6      47.710
2013    8       14    19  44    3.93   545.1    4.6      47.710
2013    8       14    19  51    3.93   545.2    4.6      47.709
2013    8       14    19  58    3.92   545.4    4.6      47.707
2013    8       14    20   6    3.92   545.5    4.6      47.703
2013    8       14    20  13    3.92   545.6    4.6      47.697
2013    8       14    20  20    3.91   545.8    4.6      47.690
2013    8       14    20  27    3.91   545.9    4.6      47.682
2013    8       14    20  34    3.91   546.0    4.6      47.672
2013    8       14    20  41    3.91   546.2    4.6      47.662
2013    8       14    20  48    3.90   546.3    4.5      47.650
2013    8       14    20  55    3.90   546.4    4.5      47.638
2013    8       14    21   2    3.90   546.6    4.5      47.624
2013    8       14    21   9    3.89   546.7    4.5      47.611
2013    8       14    21  16    3.89   546.8    4.5      47.596
2013    8       14    21  24    3.89   547.0    4.5      47.581
2013    8       14    21  31    3.88   547.1    4.5      47.566
2013    8       14    21  38    3.88   547.3    4.5      47.550
2013    8       14    21  45    3.88   547.4    4.5      47.534
2013    8       14    21  52    3.88   547.5    4.5      47.518
2013    8       14    21  59    3.87   547.7    4.5      47.501
2013    8       14    22   6    3.87   547.8    4.5      47.485
2013    8       14    22  13    3.87   547.9    4.5      47.468
2013    8       14    22  20    3.86   548.1    4.5      47.451
2013    8       14    22  27    3.86   548.2    4.5      47.434
2013    8       14    22  34    3.86   548.3    4.5      47.417
2013    8       14    22  41    3.85   548.5    4.5      47.400
2013    8       14    22  48    3.85   548.6    4.4      47.383
2013    8       14    22  56    3.85   548.7    4.4      47.366
2013    8       14    23   3    3.84   548.9    4.4      47.349
2013    8       14    23  10    3.84   549.0    4.4      47.332
2013    8       14    23  17    3.84   549.1    4.4      47.316
2013    8       14    23  24    3.83   549.3    4.4      47.300
2013    8       14    23  31    3.83   549.4    4.4      47.284
2013    8       14    23  38    3.83   549.5    4.4      47.269
2013    8       14    23  45    3.83   549.6    4.4      47.254
2013    8       14    23  52    3.82   549.8    4.4      47.239
2013    8       15     0   0    3.82   549.9    4.4      47.225
2013    8       15     0   7    3.82   550.0    4.4      47.211
2013    8       15     0  14    3.81   550.1    4.4      47.198
2013    8       15     0  21    3.81   550.2    4.4      47.186
2013    8       15     0  28    3.81   550.4    4.4      47.174
2013    8       15     0  36    3.80   550.5    4.4      47.162
2013    8       15     0  43    3.80   550.6    4.4      47.151
2013    8       15     0  50    3.80   550.7    4.3      47.140
2013    8       15     0  57    3.80   550.8    4.3      47.131
2013    8       15     1   4    3.79   550.9    4.3      47.121
2013    8       15     1  11    3.79   551.0    4.3      47.112
2013    8       15     1  19    3.79   551.1    4.3      47.104
2013    8       15     1  26    3.79   551.2    4.3      47.096
2013    8       15     1  33    3.78   551.3    4.3      47.089
2013    8       15     1  40    3.78   551.4    4.3      47.083
2013    8       15     1  47    3.78   551.5    4.3      47.076
2013    8       15     1  54    3.78   551.6    4.3      47.070
2013    8       15     2   1    3.77   551.7    4.3      47.065
2013    8       15     2   9    3.77   551.8    4.3      47.060
2013    8       15     2  16    3.77   551.8    4.3      47.055
2013    8       15     2  23    3.77   551.9    4.3      47.050
2013    8       15     2  30    3.77   552.0    4.3      47.045
2013    8       15     2  37    3.76   552.1    4.3      47.040
2013    8       15     2  44    3.76   552.2    4.3      47.033
2013    8       15     2  51    3.76   552.3    4.3      47.026
2013    8       15     2  58    3.76   552.4    4.3      47.018
2013    8       15     3   6    3.76   552.4    4.3      47.009
2013    8       15     3  13    3.75   552.5    4.3      47.000
2013    8       15     3  20    3.75   552.6    4.3      46.990
2013    8       15     3  27    3.75   552.7    4.3      46.979
2013    8       15     3  34    3.75   552.8    4.3      46.968
2013    8       15     3  41    3.75   552.8    4.3      46.956
2013    8       15     3  48    3.74   552.9    4.3      46.944
2013    8       15     3  55    3.74   553.0    4.3      46.931
2013    8       15     4   2    3.74   553.1    4.2      46.918
2013    8       15     4   9    3.74   553.2    4.2      46.904
2013    8       15     4  16    3.73   553.2    4.2      46.890
2013    8       15     4  24    3.73   553.3    4.2      46.876
2013    8       15     4  31    3.73   553.4    4.2      46.862
2013    8       15     4  38    3.73   553.5    4.2      46.847
2013    8       15     4  45    3.73   553.6    4.2      46.832
2013    8       15     4  52    3.72   553.6    4.2      46.817
2013    8       15     4  59    3.72   553.7    4.2      46.802
2013    8       15     5   6    3.72   553.8    4.2      46.787
2013    8       15     5  13    3.72   553.9    4.2      46.772
2013    8       15     5  20    3.71   553.9    4.2      46.757
2013    8       15     5  27    3.71   554.0    4.2      46.742
2013    8       15     5  34    3.71   554.1    4.2      46.726
2013    8       15     5  41    3.71   554.2    4.2      46.712
2013    8       15     5  48    3.71   554.2    4.2      46.697
2013    8       15     5  55    3.70   554.3    4.2      46.683
2013    8       15     6   3    3.70   554.4    4.2      46.668
2013    8       15     6  10    3.70   554.4    4.2      46.655
2013    8       15     6  17    3.70   554.5    4.2      46.641
2013    8       15     6  24    3.69   554.6    4.2      46.628
2013    8       15     6  31    3.69   554.6    4.2      46.615
2013    8       15     6  38    3.69   554.7    4.2      46.603
2013    8       15     6  45    3.69   554.8    4.2      46.591
2013    8       15     6  52    3.68   554.8    4.1      46.580
2013    8       15     6  59    3.68   554.9    4.1      46.569
2013    8       15     7   6    3.68   555.0    4.1      46.558
2013    8       15     7  14    3.68   555.0    4.1      46.548
2013    8       15     7  21    3.68   555.1    4.1      46.538
2013    8       15     7  28    3.67   555.2    4.1      46.529
2013    8       15     7  35    3.67   555.2    4.1      46.520
2013    8       15     7  42    3.67   555.3    4.1      46.511
2013    8       15     7  49    3.67   555.3    4.1      46.502
2013    8       15     7  57    3.67   555.4    4.1      46.494
2013    8       15     8   4    3.66   555.5    4.1      46.485
2013    8       15     8  11    3.66   555.5    4.1      46.477
2013    8       15     8  18    3.66   555.6    4.1      46.468
2013    8       15     8  25    3.66   555.6    4.1      46.460
2013    8       15     8  32    3.66   555.7    4.1      46.451
2013    8       15     8  40    3.65   555.7    4.1      46.442
2013    8       15     8  47    3.65   555.8    4.1      46.433
2013    8       15     8  54    3.65   555.9    4.1      46.424
2013    8       15     9   1    3.65   555.9    4.1      46.415
2013    8       15     9   8    3.65   556.0    4.1      46.405
2013    8       15     9  15    3.65   556.0    4.1      46.395
2013    8       15     9  22    3.64   556.1    4.1      46.384
2013    8       15     9  30    3.64   556.1    4.1      46.374
2013    8       15     9  37    3.64   556.2    4.1      46.362
2013    8       15     9  44    3.64   556.2    4.1      46.351
2013    8       15     9  51    3.64   556.2    4.1      46.339
2013    8       15     9  58    3.64   556.3    4.1      46.327
2013    8       15    10   5    3.63   556.3    4.1      46.314
2013    8       15    10  12    3.63   556.4    4.1      46.302
2013    8       15    10  19    3.63   556.4    4.1      46.288
2013    8       15    10  27    3.63   556.5    4.1      46.275
2013    8       15    10  34    3.63   556.5    4.1      46.261
2013    8       15    10  41    3.63   556.5    4.1      46.248
2013    8       15    10  48    3.62   556.6    4.1      46.234
2013    8       15    10  55    3.62   556.6    4.1      46.219
2013    8       15    11   2    3.62   556.7    4.1      46.205
2013    8       15    11   9    3.62   556.7    4.0      46.190
2013    8       15    11  16    3.62   556.7    4.0      46.175
2013    8       15    11  23    3.62   556.8    4.0      46.160
2013    8       15    11  30    3.61   556.8    4.0      46.144
2013    8       15    11  37    3.61   556.8    4.0      46.129
2013    8       15    11  45    3.61   556.9    4.0      46.113
2013    8       15    11  52    3.61   556.9    4.0      46.097
2013    8       15    11  59    3.61   556.9    4.0      46.081
2013    8       15    12   6    3.61   557.0    4.0      46.065
2013    8       15    12  13    3.60   557.0    4.0      46.049
2013    8       15    12  20    3.60   557.0    4.0      46.033
2013    8       15    12  27    3.60   557.0    4.0      46.016
2013    8       15    12  34    3.60   557.1    4.0      45.999
2013    8       15    12  41    3.60   557.1    4.0      45.982
2013    8       15    12  48    3.60   557.1    4.0      45.966
2013    8       15    12  55    3.59   557.1    4.0      45.949
2013    8       15    13   2    3.59   557.2    4.0      45.932
2013    8       15    13  10    3.59   557.2    4.0      45.915
2013    8       15    13  17    3.59   557.2    4.0      45.898
2013    8       15    13  24    3.59   557.2    4.0      45.881
2013    8       15    13  31    3.59   557.2    4.0      45.864
2013    8       15    13  38    3.58   557.3    4.0      45.847
2013    8       15    13  45    3.58   557.3    4.0      45.830
2013    8       15    13  52    3.58   557.3    4.0      45.813
2013    8       15    13  59    3.58   557.3    4.0      45.796
2013    8       15    14   6    3.58   557.3    4.0      45.780
2013    8       15    14  13    3.58   557.3    4.0      45.763
2013    8       15    14  20    3.58   557.3    4.0      45.747
2013    8       15    14  28    3.57   557.4    4.0      45.730
2013    8       15    14  35    3.57   557.4    4.0      45.714
2013    8       15    14  42    3.57   557.4    4.0      45.698
2013    8       15    14  49    3.57   557.4    4.0      45.682
2013    8       15    14  56    3.57   557.4    4.0      45.667
2013    8       15    15   3    3.57   557.4    4.0      45.651
2013    8       15    15  11    3.56   557.4    4.0      45.636
2013    8       15    15  18    3.56   557.4    4.0      45.621
2013    8       15    15  25    3.56   557.4    3.9      45.606
2013    8       15    15  32    3.56   557.5    3.9      45.591
2013    8       15    15  39    3.56   557.5    3.9      45.577
2013    8       15    15  46    3.56   557.5    3.9      45.563
2013    8       15    15  54    3.56   557.5    3.9      45.549
2013    8       15    16   1    3.55   557.5    3.9      45.535
2013    8       15    16   8    3.55   557.5    3.9      45.521
2013    8       15    16  15    3.55   557.5    3.9      45.507
2013    8       15    16  22    3.55   557.5    3.9      45.493
2013    8       15    16  29    3.55   557.5    3.9      45.480
2013    8       15    16  36    3.55   557.5    3.9      45.466
2013    8       15    16  44    3.55   557.5    3.9      45.452
2013    8       15    16  51    3.54   557.5    3.9      45.439
2013    8       15    16  58    3.54   557.5    3.9      45.425
2013    8       15    17   5    3.54   557.5    3.9      45.412
2013    8       15    17  12    3.54   557.5    3.9      45.399
2013    8       15    17  19    3.54   557.5    3.9      45.385
2013    8       15    17  26    3.54   557.5    3.9      45.372
2013    8       15    17  33    3.54   557.5    3.9      45.359
2013    8       15    17  41    3.54   557.5    3.9      45.346
2013    8       15    17  48    3.53   557.5    3.9      45.333
2013    8       15    17  55    3.53   557.5    3.9      45.320
2013    8       15    18   2    3.53   557.5    3.9      45.307
2013    8       15    18   9    3.53   557.5    3.9      45.295
2013    8       15    18  16    3.53   557.5    3.9      45.282
2013    8       15    18  23    3.53   557.5    3.9      45.270
2013    8       15    18  30    3.53   557.5    3.9      45.257
2013    8       15    18  37    3.53   557.5    3.9      45.244
2013    8       15    18  44    3.52   557.5    3.9      45.231
2013    8       15    18  52    3.52   557.5    3.9      45.217
2013    8       15    18  59    3.52   557.5    3.9      45.203
2013    8       15    19   6    3.52   557.5    3.9      45.189
2013    8       15    19  13    3.52   557.5    3.9      45.174
2013    8       15    19  20    3.52   557.5    3.9      45.159
2013    8       15    19  27    3.52   557.5    3.9      45.144
2013    8       15    19  34    3.52   557.5    3.9      45.128
2013    8       15    19  41    3.52   557.5    3.9      45.112
2013    8       15    19  48    3.51   557.5    3.9      45.095
2013    8       15    19  55    3.51   557.5    3.9      45.078
2013    8       15    20   2    3.51   557.5    3.9      45.061
2013    8       15    20   9    3.51   557.5    3.9      45.043
2013    8       15    20  17    3.51   557.5    3.9      45.025
2013    8       15    20  24    3.51   557.4    3.9      45.006
2013    8       15    20  31    3.51   557.4    3.9      44.987
2013    8       15    20  38    3.51   557.4    3.9      44.968
2013    8       15    20  45    3.50   557.4    3.9      44.949
2013    8       15    20  52    3.50   557.4    3.9      44.929
2013    8       15    20  59    3.50   557.4    3.9      44.909
2013    8       15    21   6    3.50   557.4    3.9      44.889
2013    8       15    21  13    3.50   557.4    3.9      44.868
2013    8       15    21  20    3.50   557.3    3.9      44.848
2013    8       15    21  27    3.50   557.3    3.9      44.827
2013    8       15    21  34    3.50   557.3    3.9      44.806
2013    8       15    21  42    3.50   557.3    3.9      44.785
2013    8       15    21  49    3.49   557.3    3.9      44.764
2013    8       15    21  56    3.49   557.2    3.9      44.743
2013    8       15    22   3    3.49   557.2    3.9      44.723
2013    8       15    22  10    3.49   557.2    3.9      44.702
2013    8       15    22  17    3.49   557.2    3.9      44.682
2013    8       15    22  25    3.49   557.1    3.9      44.662
2013    8       15    22  32    3.49   557.1    3.9      44.643
2013    8       15    22  39    3.49   557.1    3.8      44.624
2013    8       15    22  46    3.49   557.0    3.8      44.606
2013    8       15    22  53    3.48   557.0    3.8      44.588
2013    8       15    23   0    3.48   557.0    3.8      44.570
2013    8       15    23   8    3.48   557.0    3.8      44.553
2013    8       15    23  15    3.48   556.9    3.8      44.536
2013    8       15    23  22    3.48   556.9    3.8      44.520
2013    8       15    23  29    3.48   556.9    3.8      44.504
2013    8       15    23  36    3.48   556.8    3.8      44.488
2013    8       15    23  43    3.48   556.8    3.8      44.473
2013    8       15    23  51    3.48   556.7    3.8      44.457
2013    8       15    23  58    3.47   556.7    3.8      44.443
2013    8       16     0   5    3.47   556.7    3.8      44.428
2013    8       16     0  12    3.47   556.6    3.8      44.413
2013    8       16     0  19    3.47   556.6    3.8      44.399
2013    8       16     0  26    3.47   556.6    3.8      44.385
2013    8       16     0  33    3.47   556.5    3.8      44.370
2013    8       16     0  40    3.47   556.5    3.8      44.356
2013    8       16     0  48    3.47   556.4    3.8      44.342
2013    8       16     0  55    3.47   556.4    3.8      44.328
2013    8       16     1   2    3.47   556.3    3.8      44.313
2013    8       16     1   9    3.47   556.3    3.8      44.299
2013    8       16     1  16    3.46   556.3    3.8      44.285
2013    8       16     1  23    3.46   556.2    3.8      44.271
2013    8       16     1  30    3.46   556.2    3.8      44.257
2013    8       16     1  37    3.46   556.1    3.8      44.243
2013    8       16     1  44    3.46   556.1    3.8      44.228
2013    8       16     1  51    3.46   556.1    3.8      44.214
2013    8       16     1  59    3.46   556.0    3.8      44.198
2013    8       16     2   6    3.46   556.0    3.8      44.182
2013    8       16     2  13    3.46   555.9    3.8      44.166
2013    8       16     2  20    3.46   555.9    3.8      44.150
2013    8       16     2  27    3.46   555.8    3.8      44.133
2013    8       16     2  34    3.46   555.8    3.8      44.117
2013    8       16     2  41    3.45   555.7    3.8      44.100
2013    8       16     2  48    3.45   555.7    3.8      44.084
2013    8       16     2  55    3.45   555.6    3.8      44.067
2013    8       16     3   2    3.45   555.6    3.8      44.050
2013    8       16     3   9    3.45   555.6    3.8      44.034
2013    8       16     3  16    3.45   555.5    3.8      44.018
2013    8       16     3  23    3.45   555.5    3.8      44.002
2013    8       16     3  30    3.45   555.4    3.8      43.987
2013    8       16     3  38    3.45   555.4    3.8      43.971
2013    8       16     3  45    3.45   555.3    3.8      43.957
2013    8       16     3  52    3.45   555.3    3.8      43.942
2013    8       16     3  59    3.45   555.2    3.8      43.928
2013    8       16     4   6    3.44   555.2    3.8      43.913
2013    8       16     4  13    3.44   555.2    3.8      43.899
2013    8       16     4  20    3.44   555.1    3.8      43.885
2013    8       16     4  27    3.44   555.1    3.8      43.871
2013    8       16     4  34    3.44   555.0    3.8      43.857
2013    8       16     4  41    3.44   555.0    3.8      43.844
2013    8       16     4  48    3.44   555.0    3.8      43.831
2013    8       16     4  56    3.44   554.9    3.8      43.820
2013    8       16     5   3    3.44   554.9    3.8      43.808
2013    8       16     5  10    3.44   554.8    3.8      43.797
2013    8       16     5  17    3.44   554.8    3.8      43.786
2013    8       16     5  24    3.44   554.7    3.8      43.775
2013    8       16     5  31    3.44   554.7    3.8      43.763
2013    8       16     5  39    3.43   554.7    3.8      43.751
2013    8       16     5  46    3.43   554.6    3.8      43.739
2013    8       16     5  53    3.43   554.6    3.8      43.727
2013    8       16     6   0    3.43   554.5    3.8      43.715
2013    8       16     6   7    3.43   554.5    3.8      43.702
2013    8       16     6  14    3.43   554.4    3.8      43.689
2013    8       16     6  22    3.43   554.4    3.8      43.676
2013    8       16     6  29    3.43   554.3    3.8      43.663
2013    8       16     6  36    3.43   554.3    3.8      43.649
2013    8       16     6  43    3.43   554.2    3.8      43.636
2013    8       16     6  50    3.43   554.2    3.8      43.622
2013    8       16     6  57    3.43   554.1    3.8      43.608
2013    8       16     7   4    3.43   554.1    3.8      43.593
2013    8       16     7  12    3.42   554.0    3.8      43.579
2013    8       16     7  19    3.42   553.9    3.8      43.564
2013    8       16     7  26    3.42   553.9    3.8      43.549
2013    8       16     7  33    3.42   553.8    3.8      43.533
2013    8       16     7  40    3.42   553.8    3.8      43.517
2013    8       16     7  47    3.42   553.7    3.8      43.502
2013    8       16     7  54    3.42   553.7    3.8      43.485
2013    8       16     8   2    3.42   553.6    3.8      43.469
2013    8       16     8   9    3.42   553.5    3.8      43.452
2013    8       16     8  16    3.42   553.5    3.8      43.434
2013    8       16     8  23    3.42   553.4    3.8      43.417
2013    8       16     8  30    3.42   553.4    3.8      43.399
2013    8       16     8  37    3.42   553.3    3.8      43.380
2013    8       16     8  44    3.42   553.2    3.8      43.361
2013    8       16     8  51    3.42   553.2    3.8      43.342
2013    8       16     8  58    3.41   553.1    3.8      43.322
2013    8       16     9   5    3.41   553.0    3.8      43.302
2013    8       16     9  13    3.41   553.0    3.8      43.282
2013    8       16     9  20    3.41   552.9    3.8      43.261
2013    8       16     9  27    3.41   552.8    3.8      43.240
2013    8       16     9  34    3.41   552.7    3.8      43.218
2013    8       16     9  41    3.41   552.7    3.8      43.197
2013    8       16     9  48    3.41   552.6    3.8      43.175
2013    8       16     9  55    3.41   552.5    3.8      43.154
2013    8       16    10   2    3.41   552.4    3.8      43.132
2013    8       16    10   9    3.41   552.4    3.8      43.111
2013    8       16    10  16    3.41   552.3    3.8      43.089
2013    8       16    10  23    3.41   552.2    3.8      43.069
2013    8       16    10  30    3.41   552.1    3.8      43.048
2013    8       16    10  37    3.41   552.1    3.8      43.028
2013    8       16    10  45    3.41   552.0    3.8      43.009
2013    8       16    10  52    3.40   551.9    3.8      42.990
2013    8       16    10  59    3.40   551.8    3.8      42.972
2013    8       16    11   6    3.40   551.8    3.8      42.955
2013    8       16    11  13    3.40   551.7    3.8      42.938
2013    8       16    11  20    3.40   551.6    3.8      42.922
2013    8       16    11  27    3.40   551.5    3.8      42.906
2013    8       16    11  34    3.40   551.5    3.8      42.891
2013    8       16    11  41    3.40   551.4    3.8      42.877
2013    8       16    11  48    3.40   551.3    3.8      42.863
2013    8       16    11  55    3.40   551.3    3.8      42.850
2013    8       16    12   2    3.40   551.2    3.8      42.838
2013    8       16    12  10    3.40   551.1    3.8      42.828
2013    8       16    12  17    3.40   551.1    3.8      42.818
2013    8       16    12  24    3.40   551.0    3.8      42.809
2013    8       16    12  31    3.40   550.9    3.8      42.800
2013    8       16    12  38    3.40   550.8    3.8      42.791
2013    8       16    12  45    3.40   550.8    3.8      42.783
2013    8       16    12  53    3.40   550.7    3.8      42.774
2013    8       16    13   0    3.40   550.6    3.8      42.765
2013    8       16    13   7    3.40   550.6    3.8      42.757
2013    8       16    13  14    3.39   550.5    3.8      42.748
2013    8       16    13  21    3.39   550.4    3.8      42.739
2013    8       16    13  28    3.39   550.4    3.8      42.730
2013    8       16    13  36    3.39   550.3    3.8      42.720
2013    8       16    13  43    3.39   550.2    3.8      42.711
2013    8       16    13  50    3.39   550.1    3.8      42.702
2013    8       16    13  57    3.39   550.1    3.8      42.692
2013    8       16    14   4    3.39   550.0    3.8      42.682
2013    8       16    14  11    3.39   549.9    3.8      42.672
2013    8       16    14  19    3.39   549.8    3.8      42.662
2013    8       16    14  26    3.39   549.8    3.8      42.652
2013    8       16    14  33    3.39   549.7    3.8      42.641
2013    8       16    14  40    3.39   549.6    3.8      42.631
2013    8       16    14  47    3.39   549.5    3.8      42.619
2013    8       16    14  54    3.39   549.5    3.8      42.608
2013    8       16    15   1    3.39   549.4    3.8      42.596
2013    8       16    15   8    3.39   549.3    3.8      42.584
2013    8       16    15  16    3.39   549.2    3.8      42.572
2013    8       16    15  23    3.39   549.2    3.8      42.559
2013    8       16    15  30    3.39   549.1    3.8      42.546
2013    8       16    15  37    3.39   549.0    3.8      42.533
2013    8       16    15  44    3.38   548.9    3.8      42.520
2013    8       16    15  51    3.38   548.9    3.8      42.506
2013    8       16    15  58    3.38   548.8    3.8      42.492
2013    8       16    16   5    3.38   548.7    3.8      42.478
2013    8       16    16  12    3.38   548.6    3.8      42.463
2013    8       16    16  19    3.38   548.5    3.8      42.448
2013    8       16    16  27    3.38   548.5    3.8      42.433
2013    8       16    16  34    3.38   548.4    3.8      42.418
2013    8       16    16  41    3.38   548.3    3.8      42.401
2013    8       16    16  48    3.38   548.2    3.8      42.385
2013    8       16    16  55    3.38   548.2    3.8      42.368
2013    8       16    17   2    3.38   548.1    3.8      42.352
2013    8       16    17   9    3.38   548.0    3.8      42.334
2013    8       16    17  16    3.38   547.9    3.8      42.316
2013    8       16    17  23    3.38   547.8    3.8      42.298
2013    8       16    17  30    3.38   547.8    3.8      42.280
2013    8       16    17  37    3.38   547.7    3.8      42.261
2013    8       16    17  44    3.38   547.6    3.8      42.243
2013    8       16    17  51    3.38   547.5    3.8      42.223
2013    8       16    17  59    3.38   547.4    3.8      42.205
2013    8       16    18   6    3.38   547.3    3.8      42.185
2013    8       16    18  13    3.38   547.3    3.8      42.166
2013    8       16    18  20    3.37   547.2    3.8      42.147
2013    8       16    18  27    3.37   547.1    3.8      42.127
2013    8       16    18  34    3.37   547.0    3.8      42.108
2013    8       16    18  41    3.37   546.9    3.8      42.089
2013    8       16    18  48    3.37   546.8    3.8      42.069
2013    8       16    18  55    3.37   546.7    3.8      42.050
2013    8       16    19   2    3.37   546.6    3.8      42.031
2013    8       16    19   9    3.37   546.6    3.8      42.012
2013    8       16    19  16    3.37   546.5    3.8      41.993
2013    8       16    19  24    3.37   546.4    3.8      41.975
2013    8       16    19  31    3.37   546.3    3.8      41.956
2013    8       16    19  38    3.37   546.2    3.8      41.938
2013    8       16    19  45    3.37   546.1    3.8      41.920
2013    8       16    19  52    3.37   546.0    3.8      41.902
2013    8       16    19  59    3.37   545.9    3.8      41.885
2013    8       16    20   6    3.37   545.8    3.8      41.868
2013    8       16    20  14    3.37   545.7    3.8      41.851
2013    8       16    20  21    3.37   545.6    3.8      41.835
2013    8       16    20  28    3.37   545.5    3.8      41.819
2013    8       16    20  35    3.37   545.4    3.8      41.804
2013    8       16    20  42    3.37   545.3    3.8      41.789
2013    8       16    20  50    3.37   545.2    3.8      41.775
2013    8       16    20  57    3.37   545.1    3.8      41.761
2013    8       16    21   4    3.37   545.0    3.8      41.747
2013    8       16    21  11    3.37   544.9    3.8      41.734
2013    8       16    21  18    3.36   544.8    3.8      41.721
2013    8       16    21  25    3.36   544.7    3.8      41.709
2013    8       16    21  32    3.36   544.6    3.8      41.697
2013    8       16    21  40    3.36   544.5    3.8      41.685
2013    8       16    21  47    3.36   544.4    3.8      41.674
2013    8       16    21  54    3.36   544.3    3.8      41.663
2013    8       16    22   1    3.36   544.2    3.8      41.652
2013    8       16    22   8    3.36   544.1    3.8      41.641
2013    8       16    22  15    3.36   544.0    3.8      41.630
2013    8       16    22  22    3.36   543.9    3.8      41.619
2013    8       16    22  30    3.36   543.8    3.8      41.608
2013    8       16    22  37    3.36   543.7    3.8      41.597
2013    8       16    22  44    3.36   543.5    3.8      41.586
2013    8       16    22  51    3.36   543.4    3.8      41.575
2013    8       16    22  58    3.36   543.3    3.8      41.564
2013    8       16    23   5    3.36   543.2    3.8      41.552
2013    8       16    23  12    3.36   543.1    3.8      41.541
2013    8       16    23  19    3.36   543.0    3.8      41.530
2013    8       16    23  26    3.36   542.9    3.8      41.519
2013    8       16    23  33    3.36   542.8    3.8      41.507
2013    8       16    23  41    3.36   542.7    3.8      41.496
2013    8       16    23  48    3.36   542.6    3.8      41.484
2013    8       16    23  55    3.36   542.5    3.8      41.473
2013    8       17     0   2    3.36   542.4    3.8      41.461
2013    8       17     0   9    3.36   542.3    3.8      41.450
2013    8       17     0  16    3.36   542.2    3.8      41.438
2013    8       17     0  23    3.36   542.1    3.8      41.427
2013    8       17     0  30    3.36   542.0    3.8      41.415
2013    8       17     0  37    3.36   541.9    3.8      41.403
2013    8       17     0  44    3.36   541.8    3.8      41.392
2013    8       17     0  51    3.36   541.7    3.8      41.380
2013    8       17     0  58    3.36   541.6    3.8      41.368
2013    8       17     1   5    3.36   541.5    3.8      41.357
2013    8       17     1  13    3.36   541.4    3.8      41.345
2013    8       17     1  20    3.36   541.3    3.8      41.333
2013    8       17     1  27    3.36   541.2    3.8      41.321
2013    8       17     1  34    3.36   541.1    3.8      41.310
2013    8       17     1  41    3.36   541.0    3.8      41.298
2013    8       17     1  48    3.36   540.9    3.8      41.286
2013    8       17     1  55    3.36   540.8    3.8      41.273
2013    8       17     2   2    3.36   540.7    3.8      41.261
2013    8       17     2   9    3.36   540.6    3.8      41.248
2013    8       17     2  16    3.36   540.5    3.8      41.235
2013    8       17     2  23    3.36   540.4    3.8      41.221
2013    8       17     2  30    3.36   540.3    3.8      41.208
2013    8       17     2  38    3.36   540.2    3.8      41.194
2013    8       17     2  45    3.36   540.1    3.8      41.180
2013    8       17     2  52    3.36   540.0    3.8      41.165
2013    8       17     2  59    3.36   539.9    3.8      41.150
2013    8       17     3   6    3.36   539.8    3.8      41.135
2013    8       17     3  13    3.36   539.6    3.8      41.120
2013    8       17     3  20    3.36   539.5    3.8      41.104
2013    8       17     3  28    3.36   539.4    3.8      41.088
2013    8       17     3  35    3.36   539.3    3.8      41.072
2013    8       17     3  42    3.36   539.2    3.8      41.057
2013    8       17     3  49    3.36   539.1    3.8      41.041
2013    8       17     3  56    3.36   539.0    3.8      41.025
2013    8       17     4   4    3.36   538.9    3.8      41.010
2013    8       17     4  11    3.36   538.7    3.8      40.994
2013    8       17     4  18    3.36   538.6    3.8      40.979
2013    8       17     4  25    3.36   538.5    3.8      40.964
2013    8       17     4  32    3.36   538.4    3.8      40.949
2013    8       17     4  39    3.36   538.3    3.8      40.935
2013    8       17     4  46    3.36   538.2    3.8      40.921
2013    8       17     4  54    3.36   538.1    3.9      40.907
2013    8       17     5   1    3.36   538.0    3.9      40.893
2013    8       17     5   8    3.36   537.8    3.9      40.880
2013    8       17     5  15    3.36   537.7    3.9      40.866
2013    8       17     5  22    3.36   537.6    3.9      40.853
2013    8       17     5  29    3.36   537.5    3.9      40.841
2013    8       17     5  36    3.36   537.4    3.9      40.828
2013    8       17     5  44    3.36   537.3    3.9      40.816
2013    8       17     5  51    3.36   537.2    3.9      40.804
2013    8       17     5  58    3.36   537.1    3.9      40.791
2013    8       17     6   5    3.36   537.0    3.9      40.780
2013    8       17     6  12    3.36   536.8    3.9      40.768
2013    8       17     6  19    3.36   536.7    3.9      40.756
2013    8       17     6  26    3.36   536.6    3.9      40.745
2013    8       17     6  33    3.36   536.5    3.9      40.734
2013    8       17     6  40    3.36   536.4    3.9      40.723
2013    8       17     6  47    3.36   536.3    3.9      40.712
2013    8       17     6  55    3.36   536.2    3.9      40.701
2013    8       17     7   2    3.36   536.1    3.9      40.691
2013    8       17     7   9    3.36   536.0    3.9      40.681
2013    8       17     7  16    3.36   535.8    3.9      40.671
2013    8       17     7  23    3.37   535.7    3.9      40.661
2013    8       17     7  30    3.37   535.6    3.9      40.652
2013    8       17     7  37    3.37   535.5    3.9      40.643
2013    8       17     7  44    3.37   535.4    3.9      40.635
2013    8       17     7  51    3.37   535.3    3.9      40.627
2013    8       17     7  58    3.37   535.2    3.9      40.619
2013    8       17     8   5    3.37   535.1    3.9      40.611
2013    8       17     8  12    3.37   535.0    3.9      40.604
2013    8       17     8  19    3.37   534.9    3.9      40.598
2013    8       17     8  27    3.37   534.7    3.9      40.591
2013    8       17     8  34    3.37   534.6    3.9      40.585
2013    8       17     8  41    3.37   534.5    3.9      40.580
2013    8       17     8  48    3.37   534.4    3.9      40.574
2013    8       17     8  55    3.37   534.3    3.9      40.569
2013    8       17     9   2    3.37   534.2    3.9      40.564
2013    8       17     9   9    3.37   534.1    3.9      40.559
2013    8       17     9  16    3.37   534.0    3.9      40.555
2013    8       17     9  23    3.37   533.9    3.9      40.551
2013    8       17     9  30    3.38   533.8    3.9      40.546
2013    8       17     9  37    3.38   533.7    3.9      40.542
2013    8       17     9  44    3.38   533.6    3.9      40.538
2013    8       17     9  51    3.38   533.5    3.9      40.534
2013    8       17     9  59    3.38   533.4    3.9      40.529
2013    8       17    10   6    3.38   533.3    3.9      40.525
2013    8       17    10  13    3.38   533.2    3.9      40.520
2013    8       17    10  20    3.38   533.1    3.9      40.516
2013    8       17    10  27    3.38   533.0    3.9      40.511
2013    8       17    10  34    3.38   532.9    3.9      40.506
2013    8       17    10  42    3.38   532.8    3.9      40.501
2013    8       17    10  49    3.38   532.7    3.9      40.496
2013    8       17    10  56    3.38   532.6    3.9      40.491
2013    8       17    11   3    3.38   532.5    3.9      40.486
2013    8       17    11  10    3.39   532.4    4.0      40.480
2013    8       17    11  17    3.39   532.3    4.0      40.475
2013    8       17    11  25    3.39   532.2    4.0      40.469
2013    8       17    11  32    3.39   532.2    4.0      40.463
2013    8       17    11  39    3.39   532.1    4.0      40.457
2013    8       17    11  46    3.39   532.0    4.0      40.452
2013    8       17    11  53    3.39   531.9    4.0      40.446
2013    8       17    12   0    3.39   531.8    4.0      40.440
2013    8       17    12   8    3.39   531.7    4.0      40.434
2013    8       17    12  15    3.39   531.6    4.0      40.428
2013    8       17    12  22    3.39   531.5    4.0      40.422
2013    8       17    12  29    3.39   531.4    4.0      40.416
2013    8       17    12  36    3.39   531.3    4.0      40.411
2013    8       17    12  43    3.40   531.2    4.0      40.405
2013    8       17    12  50    3.40   531.1    4.0      40.399
2013    8       17    12  57    3.40   531.1    4.0      40.394
2013    8       17    13   5    3.40   531.0    4.0      40.388
2013    8       17    13  12    3.40   530.9    4.0      40.383
2013    8       17    13  19    3.40   530.8    4.0      40.378
2013    8       17    13  26    3.40   530.7    4.0      40.373
2013    8       17    13  33    3.40   530.6    4.0      40.368
2013    8       17    13  40    3.40   530.5    4.0      40.363
2013    8       17    13  47    3.40   530.4    4.0      40.358
2013    8       17    13  54    3.40   530.4    4.0      40.354
2013    8       17    14   1    3.41   530.3    4.0      40.350
2013    8       17    14   8    3.41   530.2    4.0      40.345
2013    8       17    14  16    3.41   530.1    4.0      40.341
2013    8       17    14  23    3.41   530.0    4.0      40.337
2013    8       17    14  30    3.41   529.9    4.0      40.334
2013    8       17    14  37    3.41   529.8    4.0      40.330
2013    8       17    14  44    3.41   529.8    4.0      40.327
2013    8       17    14  51    3.41   529.7    4.0      40.324
2013    8       17    14  58    3.41   529.6    4.0      40.320
2013    8       17    15   5    3.41   529.5    4.0      40.318
2013    8       17    15  12    3.41   529.4    4.0      40.315
2013    8       17    15  19    3.42   529.4    4.0      40.313
2013    8       17    15  26    3.42   529.3    4.0      40.311
2013    8       17    15  33    3.42   529.2    4.0      40.309
2013    8       17    15  41    3.42   529.1    4.0      40.307
2013    8       17    15  48    3.42   529.0    4.0      40.306
2013    8       17    15  55    3.42   529.0    4.0      40.305
2013    8       17    16   2    3.42   528.9    4.0      40.304
2013    8       17    16   9    3.42   528.8    4.0      40.303
2013    8       17    16  16    3.42   528.7    4.0      40.303
2013    8       17    16  23    3.42   528.7    4.0      40.302
2013    8       17    16  30    3.42   528.6    4.0      40.303
2013    8       17    16  37    3.43   528.5    4.0      40.303
2013    8       17    16  44    3.43   528.4    4.0      40.303
2013    8       17    16  51    3.43   528.4    4.0      40.304
2013    8       17    16  58    3.43   528.3    4.1      40.305
2013    8       17    17   6    3.43   528.2    4.1      40.306
2013    8       17    17  13    3.43   528.2    4.1      40.307
2013    8       17    17  20    3.43   528.1    4.1      40.308
2013    8       17    17  27    3.43   528.0    4.1      40.310
2013    8       17    17  34    3.43   528.0    4.1      40.311
2013    8       17    17  41    3.43   527.9    4.1      40.313
2013    8       17    17  48    3.44   527.8    4.1      40.315
2013    8       17    17  55    3.44   527.8    4.1      40.317
2013    8       17    18   3    3.44   527.7    4.1      40.319
2013    8       17    18  10    3.44   527.7    4.1      40.321
2013    8       17    18  17    3.44   527.6    4.1      40.323
2013    8       17    18  24    3.44   527.5    4.1      40.325
2013    8       17    18  31    3.44   527.5    4.1      40.327
2013    8       17    18  39    3.44   527.4    4.1      40.329
2013    8       17    18  46    3.44   527.4    4.1      40.331
2013    8       17    18  53    3.44   527.3    4.1      40.333
2013    8       17    19   0    3.44   527.2    4.1      40.334
2013    8       17    19   7    3.45   527.2    4.1      40.336
2013    8       17    19  14    3.45   527.1    4.1      40.337
2013    8       17    19  21    3.45   527.1    4.1      40.338
2013    8       17    19  29    3.45   527.0    4.1      40.340
2013    8       17    19  36    3.45   526.9    4.1      40.341
2013    8       17    19  43    3.45   526.9    4.1      40.342
2013    8       17    19  50    3.45   526.8    4.1      40.343
2013    8       17    19  57    3.45   526.8    4.1      40.343
2013    8       17    20   4    3.45   526.7    4.1      40.344
2013    8       17    20  11    3.45   526.7    4.1      40.345
2013    8       17    20  19    3.45   526.6    4.1      40.346
2013    8       17    20  26    3.45   526.6    4.1      40.347
2013    8       17    20  33    3.46   526.5    4.1      40.348
2013    8       17    20  40    3.46   526.5    4.1      40.348
2013    8       17    20  47    3.46   526.4    4.1      40.349
2013    8       17    20  54    3.46   526.3    4.1      40.350
2013    8       17    21   1    3.46   526.3    4.1      40.351
2013    8       17    21   8    3.46   526.2    4.1      40.352
2013    8       17    21  15    3.46   526.2    4.1      40.353
2013    8       17    21  22    3.46   526.1    4.1      40.354
2013    8       17    21  30    3.46   526.1    4.1      40.356
2013    8       17    21  37    3.46   526.0    4.1      40.357
2013    8       17    21  44    3.46   526.0    4.1      40.358
2013    8       17    21  51    3.46   525.9    4.1      40.359
2013    8       17    21  58    3.46   525.9    4.1      40.361
2013    8       17    22   5    3.47   525.8    4.1      40.362
2013    8       17    22  12    3.47   525.8    4.1      40.363
2013    8       17    22  19    3.47   525.7    4.1      40.365
2013    8       17    22  26    3.47   525.7    4.1      40.366
2013    8       17    22  33    3.47   525.6    4.1      40.367
2013    8       17    22  40    3.47   525.6    4.1      40.369
2013    8       17    22  47    3.47   525.6    4.1      40.370
2013    8       17    22  54    3.47   525.5    4.1      40.372
2013    8       17    23   2    3.47   525.5    4.1      40.373
2013    8       17    23   9    3.47   525.4    4.1      40.374
2013    8       17    23  16    3.47   525.4    4.1      40.376
2013    8       17    23  23    3.47   525.3    4.1      40.377
2013    8       17    23  30    3.47   525.3    4.1      40.378
2013    8       17    23  37    3.47   525.2    4.1      40.380
2013    8       17    23  44    3.47   525.2    4.1      40.381
2013    8       17    23  51    3.47   525.2    4.2      40.382
2013    8       17    23  58    3.48   525.1    4.2      40.384
2013    8       18     0   5    3.48   525.1    4.2      40.385
2013    8       18     0  12    3.48   525.0    4.2      40.386
2013    8       18     0  19    3.48   525.0    4.2      40.388
2013    8       18     0  27    3.48   525.0    4.2      40.389
2013    8       18     0  34    3.48   524.9    4.2      40.390
2013    8       18     0  41    3.48   524.9    4.2      40.392
2013    8       18     0  48    3.48   524.8    4.2      40.393
2013    8       18     0  55    3.48   524.8    4.2      40.395
2013    8       18     1   2    3.48   524.8    4.2      40.397
2013    8       18     1   9    3.48   524.7    4.2      40.399
2013    8       18     1  17    3.48   524.7    4.2      40.401
2013    8       18     1  24    3.48   524.7    4.2      40.403
2013    8       18     1  31    3.48   524.6    4.2      40.406
2013    8       18     1  38    3.48   524.6    4.2      40.408
2013    8       18     1  45    3.48   524.6    4.2      40.411
2013    8       18     1  53    3.48   524.5    4.2      40.413
2013    8       18     2   0    3.48   524.5    4.2      40.415
2013    8       18     2   7    3.49   524.5    4.2      40.418
2013    8       18     2  14    3.49   524.4    4.2      40.420
2013    8       18     2  21    3.49   524.4    4.2      40.423
2013    8       18     2  28    3.49   524.4    4.2      40.425
2013    8       18     2  35    3.49   524.4    4.2      40.427
2013    8       18     2  43    3.49   524.3    4.2      40.429
2013    8       18     2  50    3.49   524.3    4.2      40.432
2013    8       18     2  57    3.49   524.3    4.2      40.434
2013    8       18     3   4    3.49   524.2    4.2      40.436
2013    8       18     3  11    3.49   524.2    4.2      40.438
2013    8       18     3  18    3.49   524.2    4.2      40.440
2013    8       18     3  25    3.49   524.1    4.2      40.442
2013    8       18     3  33    3.49   524.1    4.2      40.444
2013    8       18     3  40    3.49   524.1    4.2      40.447
2013    8       18     3  47    3.49   524.1    4.2      40.449
2013    8       18     3  54    3.49   524.0    4.2      40.451
2013    8       18     4   1    3.49   524.0    4.2      40.453
2013    8       18     4   8    3.49   524.0    4.2      40.455
2013    8       18     4  15    3.49   523.9    4.2      40.457
2013    8       18     4  22    3.49   523.9    4.2      40.459
2013    8       18     4  29    3.49   523.9    4.2      40.461
2013    8       18     4  36    3.49   523.9    4.2      40.464
2013    8       18     4  44    3.49   523.8    4.2      40.466
2013    8       18     4  51    3.49   523.8    4.2      40.468
2013    8       18     4  58    3.49   523.8    4.2      40.470
2013    8       18     5   5    3.49   523.8    4.2      40.472
2013    8       18     5  12    3.49   523.7    4.2      40.474
2013    8       18     5  19    3.49   523.7    4.2      40.476
2013    8       18     5  26    3.49   523.7    4.2      40.478
2013    8       18     5  33    3.49   523.7    4.2      40.480
2013    8       18     5  40    3.49   523.6    4.2      40.482
2013    8       18     5  47    3.49   523.6    4.2      40.484
2013    8       18     5  54    3.49   523.6    4.2      40.485
2013    8       18     6   1    3.49   523.6    4.2      40.487
2013    8       18     6   8    3.49   523.5    4.2      40.489
2013    8       18     6  15    3.49   523.5    4.2      40.490
2013    8       18     6  23    3.49   523.5    4.2      40.491
2013    8       18     6  30    3.49   523.5    4.2      40.493
2013    8       18     6  37    3.49   523.4    4.2      40.494
2013    8       18     6  44    3.49   523.4    4.2      40.495
2013    8       18     6  51    3.49   523.4    4.2      40.495
2013    8       18     6  58    3.49   523.4    4.2      40.496
2013    8       18     7   5    3.49   523.4    4.2      40.496
2013    8       18     7  12    3.49   523.3    4.2      40.497
2013    8       18     7  19    3.49   523.3    4.2      40.497
2013    8       18     7  26    3.49   523.3    4.2      40.497
2013    8       18     7  33    3.49   523.3    4.2      40.497
2013    8       18     7  40    3.49   523.2    4.2      40.497
2013    8       18     7  48    3.49   523.2    4.2      40.497
2013    8       18     7  55    3.49   523.2    4.2      40.497
2013    8       18     8   2    3.49   523.2    4.2      40.496
2013    8       18     8   9    3.49   523.2    4.2      40.496
2013    8       18     8  16    3.49   523.1    4.2      40.496
2013    8       18     8  23    3.49   523.1    4.2      40.496
2013    8       18     8  31    3.49   523.1    4.2      40.495
2013    8       18     8  38    3.49   523.1    4.2      40.495
2013    8       18     8  45    3.49   523.1    4.2      40.495
2013    8       18     8  52    3.49   523.0    4.2      40.494
2013    8       18     8  59    3.49   523.0    4.2      40.494
2013    8       18     9   6    3.49   523.0    4.2      40.494
2013    8       18     9  14    3.49   523.0    4.2      40.494
2013    8       18     9  21    3.49   523.0    4.2      40.494
2013    8       18     9  28    3.49   522.9    4.2      40.494
2013    8       18     9  35    3.49   522.9    4.2      40.494
2013    8       18     9  42    3.49   522.9    4.2      40.494
2013    8       18     9  49    3.49   522.9    4.2      40.495
2013    8       18     9  57    3.49   522.9    4.2      40.495
2013    8       18    10   4    3.49   522.9    4.2      40.495
2013    8       18    10  11    3.49   522.8    4.2      40.496
2013    8       18    10  18    3.49   522.8    4.2      40.496
2013    8       18    10  25    3.49   522.8    4.2      40.497
2013    8       18    10  32    3.49   522.8    4.2      40.497
2013    8       18    10  39    3.49   522.8    4.2      40.498
2013    8       18    10  46    3.49   522.8    4.2      40.498
2013    8       18    10  54    3.49   522.7    4.2      40.498
2013    8       18    11   1    3.49   522.7    4.2      40.499
2013    8       18    11   8    3.49   522.7    4.2      40.499
2013    8       18    11  15    3.49   522.7    4.2      40.499
2013    8       18    11  22    3.49   522.7    4.2      40.499
2013    8       18    11  29    3.49   522.7    4.2      40.499
2013    8       18    11  36    3.49   522.7    4.2      40.499
2013    8       18    11  43    3.49   522.7    4.2      40.499
2013    8       18    11  50    3.49   522.6    4.2      40.498
2013    8       18    11  57    3.49   522.6    4.2      40.498
2013    8       18    12   5    3.49   522.6    4.2      40.497
2013    8       18    12  12    3.49   522.6    4.2      40.496
2013    8       18    12  19    3.49   522.6    4.2      40.495
2013    8       18    12  26    3.49   522.6    4.2      40.494
2013    8       18    12  33    3.49   522.6    4.2      40.493
2013    8       18    12  40    3.49   522.6    4.2      40.492
2013    8       18    12  47    3.49   522.5    4.2      40.490
2013    8       18    12  54    3.49   522.5    4.2      40.489
2013    8       18    13   1    3.49   522.5    4.2      40.487
2013    8       18    13   8    3.49   522.5    4.2      40.486
2013    8       18    13  15    3.49   522.5    4.2      40.484
2013    8       18    13  22    3.49   522.5    4.2      40.482
2013    8       18    13  29    3.49   522.5    4.2      40.480
2013    8       18    13  37    3.48   522.4    4.2      40.478
2013    8       18    13  44    3.48   522.4    4.2      40.476
2013    8       18    13  51    3.48   522.4    4.2      40.474
2013    8       18    13  58    3.48   522.4    4.2      40.472
2013    8       18    14   5    3.48   522.4    4.2      40.470
2013    8       18    14  12    3.48   522.4    4.2      40.467
2013    8       18    14  19    3.48   522.4    4.2      40.465
2013    8       18    14  26    3.48   522.3    4.2      40.463
2013    8       18    14  33    3.48   522.3    4.2      40.460
2013    8       18    14  40    3.48   522.3    4.2      40.457
2013    8       18    14  47    3.48   522.3    4.2      40.455
2013    8       18    14  54    3.48   522.3    4.2      40.452
2013    8       18    15   2    3.48   522.3    4.2      40.449
2013    8       18    15   9    3.48   522.3    4.2      40.446
2013    8       18    15  16    3.48   522.3    4.2      40.442
2013    8       18    15  23    3.48   522.2    4.2      40.439
2013    8       18    15  30    3.48   522.2    4.2      40.435
2013    8       18    15  37    3.48   522.2    4.2      40.431
2013    8       18    15  44    3.47   522.2    4.2      40.428
2013    8       18    15  52    3.47   522.2    4.2      40.424
2013    8       18    15  59    3.47   522.2    4.2      40.420
2013    8       18    16   6    3.47   522.2    4.2      40.416
2013    8       18    16  13    3.47   522.2    4.2      40.413
2013    8       18    16  20    3.47   522.1    4.2      40.409
2013    8       18    16  27    3.47   522.1    4.2      40.405
2013    8       18    16  35    3.47   522.1    4.2      40.400
2013    8       18    16  42    3.47   522.1    4.2      40.396
2013    8       18    16  49    3.47   522.1    4.2      40.391
2013    8       18    16  56    3.47   522.1    4.2      40.386
2013    8       18    17   3    3.47   522.1    4.2      40.381
2013    8       18    17  10    3.47   522.0    4.2      40.376
2013    8       18    17  18    3.47   522.0    4.2      40.370
2013    8       18    17  25    3.46   522.0    4.2      40.365
2013    8       18    17  32    3.46   522.0    4.2      40.359
2013    8       18    17  39    3.46   522.0    4.2      40.352
2013    8       18    17  46    3.46   522.0    4.2      40.346
2013    8       18    17  53    3.46   522.0    4.2      40.339
2013    8       18    18   0    3.46   521.9    4.2      40.332
2013    8       18    18   7    3.46   521.9    4.2      40.325
2013    8       18    18  15    3.46   521.9    4.2      40.318
2013    8       18    18  22    3.46   521.9    4.2      40.311
2013    8       18    18  29    3.46   521.9    4.2      40.303
2013    8       18    18  36    3.45   521.9    4.2      40.295
2013    8       18    18  43    3.45   521.8    4.2      40.287
2013    8       18    18  50    3.45   521.8    4.2      40.279
2013    8       18    18  57    3.45   521.8    4.2      40.270
2013    8       18    19   4    3.45   521.8    4.2      40.261
2013    8       18    19  11    3.45   521.8    4.2      40.252
2013    8       18    19  18    3.45   521.7    4.2      40.243
2013    8       18    19  26    3.45   521.7    4.2      40.233
2013    8       18    19  33    3.45   521.7    4.2      40.223
2013    8       18    19  40    3.44   521.7    4.2      40.213
2013    8       18    19  47    3.44   521.7    4.2      40.203
2013    8       18    19  54    3.44   521.6    4.2      40.192
2013    8       18    20   1    3.44   521.6    4.2      40.182
2013    8       18    20   8    3.44   521.6    4.2      40.171
2013    8       18    20  15    3.44   521.6    4.2      40.161
2013    8       18    20  22    3.44   521.6    4.2      40.150
2013    8       18    20  29    3.44   521.5    4.2      40.139
2013    8       18    20  36    3.43   521.5    4.2      40.128
2013    8       18    20  43    3.43   521.5    4.2      40.118
2013    8       18    20  51    3.43   521.5    4.2      40.107
2013    8       18    20  58    3.43   521.4    4.2      40.096
2013    8       18    21   5    3.43   521.4    4.2      40.086
2013    8       18    21  12    3.43   521.4    4.2      40.076
2013    8       18    21  19    3.43   521.3    4.2      40.065
2013    8       18    21  26    3.42   521.3    4.2      40.055
2013    8       18    21  33    3.42   521.3    4.2      40.045
2013    8       18    21  40    3.42   521.3    4.2      40.036
2013    8       18    21  47    3.42   521.2    4.1      40.026
2013    8       18    21  54    3.42   521.2    4.1      40.017
2013    8       18    22   1    3.42   521.2    4.1      40.007
2013    8       18    22   8    3.42   521.2    4.1      39.998
2013    8       18    22  16    3.42   521.1    4.1      39.989
2013    8       18    22  23    3.41   521.1    4.1      39.980
2013    8       18    22  30    3.41   521.1    4.1      39.970
2013    8       18    22  37    3.41   521.0    4.1      39.961
2013    8       18    22  44    3.41   521.0    4.1      39.952
2013    8       18    22  51    3.41   521.0    4.1      39.943
2013    8       18    22  58    3.41   521.0    4.1      39.933
2013    8       18    23   6    3.41   520.9    4.1      39.924
2013    8       18    23  13    3.40   520.9    4.1      39.915
2013    8       18    23  20    3.40   520.9    4.1      39.906
2013    8       18    23  27    3.40   520.8    4.1      39.898
2013    8       18    23  34    3.40   520.8    4.1      39.889
2013    8       18    23  41    3.40   520.8    4.1      39.881
2013    8       18    23  49    3.40   520.8    4.1      39.872
2013    8       18    23  56    3.40   520.7    4.1      39.862
2013    8       19     0   3    3.39   520.7    4.1      39.853
