year    month   day   hour  minute  B_enl V_enl   n_enl       T_enl
[year] [month] [day] [hour][minute] [nT]  [km/s]  [cm-3]      [kK]
2022    1       31     0   0    5.6541   522.3    4.761      52.054
2022    1       31     0   6    5.6525   522.2    4.761      52.036
2022    1       31     0  11    5.6508   522.1    4.761      52.018
2022    1       31     0  16    5.6491   522.0    4.760      52.000
2022    1       31     0  22    5.6474   521.9    4.760      51.981
2022    1       31     0  27    5.6457   521.9    4.760      51.962
2022    1       31     0  32    5.6440   521.8    4.759      51.943
2022    1       31     0  38    5.6422   521.7    4.759      51.923
2022    1       31     0  43    5.6405   521.6    4.759      51.904
2022    1       31     0  48    5.6388   521.5    4.758      51.884
2022    1       31     0  53    5.6371   521.5    4.758      51.864
2022    1       31     0  59    5.6354   521.4    4.757      51.843
2022    1       31     1   4    5.6336   521.3    4.757      51.823
2022    1       31     1   9    5.6319   521.2    4.756      51.802
2022    1       31     1  15    5.6302   521.1    4.755      51.781
2022    1       31     1  20    5.6285   521.0    4.755      51.760
2022    1       31     1  25    5.6268   521.0    4.754      51.739
2022    1       31     1  30    5.6250   520.9    4.754      51.718
2022    1       31     1  36    5.6233   520.8    4.753      51.696
2022    1       31     1  41    5.6216   520.7    4.752      51.674
2022    1       31     1  46    5.6199   520.6    4.752      51.653
2022    1       31     1  52    5.6182   520.5    4.751      51.631
2022    1       31     1  57    5.6165   520.4    4.750      51.609
2022    1       31     2   2    5.6148   520.4    4.749      51.587
2022    1       31     2   8    5.6131   520.3    4.749      51.565
2022    1       31     2  13    5.6114   520.2    4.748      51.543
2022    1       31     2  18    5.6098   520.1    4.747      51.522
2022    1       31     2  23    5.6081   520.0    4.747      51.500
2022    1       31     2  29    5.6064   519.9    4.746      51.478
2022    1       31     2  34    5.6048   519.8    4.746      51.457
2022    1       31     2  39    5.6031   519.7    4.745      51.436
2022    1       31     2  45    5.6015   519.6    4.745      51.415
2022    1       31     2  50    5.5999   519.5    4.744      51.395
2022    1       31     2  55    5.5983   519.4    4.744      51.374
2022    1       31     3   1    5.5967   519.3    4.744      51.355
2022    1       31     3   6    5.5951   519.2    4.744      51.335
2022    1       31     3  11    5.5936   519.1    4.743      51.316
2022    1       31     3  16    5.5921   519.0    4.743      51.298
2022    1       31     3  22    5.5906   518.9    4.744      51.281
2022    1       31     3  27    5.5891   518.8    4.744      51.264
2022    1       31     3  32    5.5877   518.7    4.744      51.247
2022    1       31     3  38    5.5863   518.6    4.745      51.232
2022    1       31     3  43    5.5850   518.5    4.745      51.217
2022    1       31     3  48    5.5837   518.4    4.746      51.203
2022    1       31     3  53    5.5825   518.3    4.747      51.190
2022    1       31     3  59    5.5812   518.2    4.748      51.177
2022    1       31     4   4    5.5801   518.1    4.749      51.166
2022    1       31     4   9    5.5790   518.0    4.750      51.155
2022    1       31     4  15    5.5779   517.9    4.752      51.145
2022    1       31     4  20    5.5769   517.8    4.753      51.136
2022    1       31     4  25    5.5759   517.7    4.755      51.128
2022    1       31     4  31    5.5750   517.6    4.757      51.120
2022    1       31     4  36    5.5741   517.5    4.759      51.114
2022    1       31     4  41    5.5732   517.4    4.761      51.108
2022    1       31     4  46    5.5724   517.3    4.763      51.103
2022    1       31     4  52    5.5716   517.2    4.765      51.098
2022    1       31     4  57    5.5709   517.1    4.767      51.094
2022    1       31     5   2    5.5701   517.0    4.769      51.090
2022    1       31     5   8    5.5694   516.9    4.771      51.087
2022    1       31     5  13    5.5687   516.8    4.773      51.085
2022    1       31     5  18    5.5680   516.7    4.776      51.083
2022    1       31     5  24    5.5673   516.6    4.778      51.081
2022    1       31     5  29    5.5666   516.5    4.780      51.079
2022    1       31     5  34    5.5658   516.4    4.782      51.077
2022    1       31     5  39    5.5651   516.3    4.784      51.075
2022    1       31     5  45    5.5643   516.2    4.786      51.073
2022    1       31     5  50    5.5635   516.1    4.787      51.070
2022    1       31     5  55    5.5626   516.0    4.789      51.067
2022    1       31     6   1    5.5618   515.9    4.791      51.063
2022    1       31     6   6    5.5609   515.9    4.792      51.058
2022    1       31     6  11    5.5600   515.8    4.794      51.053
2022    1       31     6  16    5.5591   515.7    4.795      51.048
2022    1       31     6  22    5.5582   515.6    4.797      51.042
2022    1       31     6  27    5.5572   515.5    4.798      51.036
2022    1       31     6  32    5.5563   515.4    4.799      51.030
2022    1       31     6  38    5.5553   515.3    4.800      51.024
2022    1       31     6  43    5.5543   515.2    4.802      51.017
2022    1       31     6  48    5.5534   515.1    4.803      51.009
2022    1       31     6  54    5.5524   515.0    4.804      51.002
2022    1       31     6  59    5.5514   514.9    4.805      50.993
2022    1       31     7   4    5.5504   514.8    4.806      50.985
2022    1       31     7   9    5.5494   514.7    4.807      50.977
2022    1       31     7  15    5.5484   514.6    4.808      50.968
2022    1       31     7  20    5.5474   514.6    4.809      50.959
2022    1       31     7  25    5.5464   514.5    4.809      50.949
2022    1       31     7  31    5.5454   514.4    4.810      50.939
2022    1       31     7  36    5.5445   514.3    4.811      50.929
2022    1       31     7  41    5.5435   514.2    4.812      50.919
2022    1       31     7  47    5.5425   514.1    4.813      50.908
2022    1       31     7  52    5.5415   514.0    4.813      50.897
2022    1       31     7  57    5.5405   513.9    4.814      50.885
2022    1       31     8   2    5.5396   513.8    4.814      50.873
2022    1       31     8   8    5.5386   513.8    4.815      50.861
2022    1       31     8  13    5.5376   513.7    4.816      50.849
2022    1       31     8  18    5.5366   513.6    4.816      50.836
2022    1       31     8  24    5.5357   513.5    4.817      50.824
2022    1       31     8  29    5.5347   513.4    4.817      50.810
2022    1       31     8  34    5.5338   513.3    4.817      50.797
2022    1       31     8  40    5.5328   513.2    4.818      50.784
2022    1       31     8  45    5.5318   513.1    4.818      50.770
2022    1       31     8  50    5.5309   513.0    4.819      50.756
2022    1       31     8  55    5.5299   513.0    4.819      50.742
2022    1       31     9   1    5.5290   512.9    4.819      50.728
2022    1       31     9   6    5.5280   512.8    4.820      50.714
2022    1       31     9  11    5.5270   512.7    4.820      50.699
2022    1       31     9  17    5.5261   512.6    4.820      50.685
2022    1       31     9  22    5.5252   512.5    4.821      50.671
2022    1       31     9  27    5.5242   512.4    4.821      50.656
2022    1       31     9  32    5.5233   512.3    4.821      50.642
2022    1       31     9  38    5.5224   512.2    4.821      50.628
2022    1       31     9  43    5.5214   512.1    4.822      50.614
2022    1       31     9  48    5.5205   512.1    4.822      50.600
2022    1       31     9  54    5.5196   512.0    4.823      50.586
2022    1       31     9  59    5.5187   511.9    4.823      50.573
2022    1       31    10   4    5.5179   511.8    4.823      50.559
2022    1       31    10  10    5.5170   511.7    4.824      50.546
2022    1       31    10  15    5.5162   511.6    4.824      50.534
2022    1       31    10  20    5.5153   511.5    4.825      50.521
2022    1       31    10  25    5.5145   511.4    4.825      50.509
2022    1       31    10  31    5.5137   511.3    4.826      50.497
2022    1       31    10  36    5.5129   511.2    4.827      50.486
2022    1       31    10  41    5.5122   511.1    4.827      50.475
2022    1       31    10  47    5.5114   511.1    4.828      50.465
2022    1       31    10  52    5.5107   511.0    4.829      50.454
2022    1       31    10  57    5.5100   510.9    4.830      50.445
2022    1       31    11   3    5.5094   510.8    4.831      50.435
2022    1       31    11   8    5.5088   510.7    4.831      50.427
2022    1       31    11  13    5.5081   510.6    4.832      50.418
2022    1       31    11  18    5.5076   510.5    4.834      50.410
2022    1       31    11  24    5.5070   510.4    4.835      50.403
2022    1       31    11  29    5.5065   510.4    4.836      50.396
2022    1       31    11  34    5.5060   510.3    4.837      50.390
2022    1       31    11  40    5.5056   510.2    4.838      50.384
2022    1       31    11  45    5.5051   510.1    4.839      50.378
2022    1       31    11  50    5.5047   510.0    4.841      50.373
2022    1       31    11  55    5.5043   509.9    4.842      50.369
2022    1       31    12   1    5.5039   509.9    4.844      50.364
2022    1       31    12   6    5.5035   509.8    4.845      50.361
2022    1       31    12  11    5.5031   509.7    4.846      50.357
2022    1       31    12  17    5.5027   509.6    4.848      50.354
2022    1       31    12  22    5.5023   509.6    4.849      50.351
2022    1       31    12  27    5.5019   509.5    4.851      50.349
2022    1       31    12  33    5.5015   509.4    4.853      50.346
2022    1       31    12  38    5.5010   509.3    4.854      50.344
2022    1       31    12  43    5.5005   509.2    4.856      50.343
2022    1       31    12  48    5.5000   509.2    4.857      50.341
2022    1       31    12  54    5.4995   509.1    4.859      50.339
2022    1       31    12  59    5.4990   509.0    4.860      50.337
2022    1       31    13   4    5.4984   508.9    4.862      50.335
2022    1       31    13  10    5.4979   508.9    4.863      50.332
2022    1       31    13  15    5.4973   508.8    4.865      50.330
2022    1       31    13  20    5.4966   508.7    4.866      50.327
2022    1       31    13  26    5.4960   508.6    4.868      50.323
2022    1       31    13  31    5.4954   508.6    4.869      50.319
2022    1       31    13  36    5.4947   508.5    4.870      50.315
2022    1       31    13  41    5.4940   508.4    4.871      50.310
2022    1       31    13  47    5.4933   508.3    4.872      50.305
2022    1       31    13  52    5.4926   508.3    4.874      50.300
2022    1       31    13  57    5.4918   508.2    4.875      50.294
2022    1       31    14   3    5.4911   508.1    4.876      50.288
2022    1       31    14   8    5.4903   508.0    4.877      50.282
2022    1       31    14  13    5.4896   508.0    4.878      50.275
2022    1       31    14  18    5.4888   507.9    4.879      50.268
2022    1       31    14  24    5.4880   507.8    4.880      50.260
2022    1       31    14  29    5.4872   507.7    4.880      50.252
2022    1       31    14  34    5.4864   507.6    4.881      50.244
2022    1       31    14  40    5.4857   507.6    4.882      50.236
2022    1       31    14  45    5.4849   507.5    4.883      50.227
2022    1       31    14  50    5.4841   507.4    4.883      50.218
2022    1       31    14  56    5.4833   507.3    4.884      50.209
2022    1       31    15   1    5.4825   507.2    4.885      50.199
2022    1       31    15   6    5.4817   507.2    4.885      50.188
2022    1       31    15  11    5.4809   507.1    4.886      50.178
2022    1       31    15  17    5.4801   507.0    4.886      50.166
2022    1       31    15  22    5.4793   506.9    4.886      50.155
2022    1       31    15  27    5.4785   506.9    4.887      50.143
2022    1       31    15  33    5.4777   506.8    4.887      50.131
2022    1       31    15  38    5.4769   506.7    4.887      50.118
2022    1       31    15  43    5.4761   506.6    4.887      50.105
2022    1       31    15  49    5.4753   506.5    4.888      50.092
2022    1       31    15  54    5.4745   506.5    4.888      50.079
2022    1       31    15  59    5.4737   506.4    4.888      50.065
2022    1       31    16   4    5.4729   506.3    4.888      50.051
2022    1       31    16  10    5.4722   506.2    4.888      50.036
2022    1       31    16  15    5.4714   506.2    4.888      50.021
2022    1       31    16  20    5.4706   506.1    4.888      50.006
2022    1       31    16  26    5.4698   506.0    4.888      49.991
2022    1       31    16  31    5.4690   505.9    4.888      49.975
2022    1       31    16  36    5.4682   505.8    4.888      49.959
2022    1       31    16  42    5.4674   505.8    4.887      49.943
2022    1       31    16  47    5.4666   505.7    4.887      49.927
2022    1       31    16  52    5.4658   505.6    4.887      49.910
2022    1       31    16  57    5.4650   505.5    4.887      49.894
2022    1       31    17   3    5.4642   505.5    4.886      49.877
2022    1       31    17   8    5.4634   505.4    4.886      49.860
2022    1       31    17  13    5.4627   505.3    4.886      49.842
2022    1       31    17  19    5.4619   505.2    4.886      49.825
2022    1       31    17  24    5.4611   505.1    4.885      49.808
2022    1       31    17  29    5.4603   505.1    4.885      49.790
2022    1       31    17  34    5.4596   505.0    4.885      49.773
2022    1       31    17  40    5.4588   504.9    4.884      49.755
2022    1       31    17  45    5.4581   504.8    4.884      49.738
2022    1       31    17  50    5.4573   504.7    4.884      49.721
2022    1       31    17  56    5.4566   504.7    4.883      49.704
2022    1       31    18   1    5.4559   504.6    4.883      49.687
2022    1       31    18   6    5.4551   504.5    4.883      49.671
2022    1       31    18  12    5.4544   504.4    4.883      49.655
2022    1       31    18  17    5.4538   504.3    4.883      49.639
2022    1       31    18  22    5.4531   504.3    4.883      49.624
2022    1       31    18  27    5.4524   504.2    4.883      49.609
2022    1       31    18  33    5.4518   504.1    4.883      49.595
2022    1       31    18  38    5.4512   504.0    4.883      49.581
2022    1       31    18  43    5.4506   503.9    4.883      49.568
2022    1       31    18  49    5.4500   503.9    4.883      49.555
2022    1       31    18  54    5.4494   503.8    4.884      49.543
2022    1       31    18  59    5.4489   503.7    4.884      49.532
2022    1       31    19   5    5.4483   503.6    4.885      49.521
2022    1       31    19  10    5.4478   503.6    4.885      49.510
2022    1       31    19  15    5.4473   503.5    4.886      49.501
2022    1       31    19  20    5.4468   503.4    4.887      49.492
2022    1       31    19  26    5.4463   503.4    4.887      49.483
2022    1       31    19  31    5.4458   503.3    4.888      49.476
2022    1       31    19  36    5.4452   503.2    4.889      49.468
2022    1       31    19  42    5.4446   503.2    4.890      49.462
2022    1       31    19  47    5.4440   503.1    4.891      49.455
2022    1       31    19  52    5.4433   503.0    4.892      49.449
2022    1       31    19  57    5.4425   503.0    4.893      49.444
2022    1       31    20   3    5.4418   502.9    4.895      49.438
2022    1       31    20   8    5.4410   502.8    4.896      49.433
2022    1       31    20  13    5.4402   502.8    4.897      49.428
2022    1       31    20  19    5.4393   502.7    4.898      49.423
2022    1       31    20  24    5.4384   502.7    4.899      49.418
2022    1       31    20  29    5.4375   502.6    4.900      49.412
2022    1       31    20  35    5.4365   502.5    4.901      49.407
2022    1       31    20  40    5.4355   502.5    4.902      49.400
2022    1       31    20  45    5.4345   502.4    4.903      49.394
2022    1       31    20  50    5.4334   502.4    4.904      49.387
2022    1       31    20  56    5.4323   502.3    4.905      49.379
2022    1       31    21   1    5.4312   502.2    4.906      49.371
2022    1       31    21   6    5.4301   502.2    4.907      49.363
2022    1       31    21  12    5.4290   502.1    4.907      49.355
2022    1       31    21  17    5.4278   502.0    4.908      49.345
2022    1       31    21  22    5.4267   502.0    4.909      49.336
2022    1       31    21  28    5.4255   501.9    4.909      49.326
2022    1       31    21  33    5.4243   501.8    4.909      49.316
2022    1       31    21  38    5.4232   501.8    4.910      49.305
2022    1       31    21  43    5.4220   501.7    4.910      49.294
2022    1       31    21  49    5.4208   501.6    4.911      49.282
2022    1       31    21  54    5.4196   501.6    4.911      49.271
2022    1       31    21  59    5.4184   501.5    4.911      49.259
2022    1       31    22   5    5.4172   501.4    4.911      49.246
2022    1       31    22  10    5.4160   501.3    4.911      49.234
2022    1       31    22  15    5.4148   501.3    4.912      49.221
2022    1       31    22  21    5.4136   501.2    4.912      49.208
2022    1       31    22  26    5.4124   501.1    4.912      49.194
2022    1       31    22  31    5.4112   501.1    4.912      49.180
2022    1       31    22  36    5.4101   501.0    4.912      49.166
2022    1       31    22  42    5.4089   500.9    4.912      49.152
2022    1       31    22  47    5.4077   500.8    4.912      49.137
2022    1       31    22  52    5.4065   500.8    4.911      49.122
2022    1       31    22  58    5.4053   500.7    4.911      49.107
2022    1       31    23   3    5.4041   500.6    4.911      49.092
2022    1       31    23   8    5.4030   500.6    4.911      49.076
2022    1       31    23  13    5.4018   500.5    4.911      49.060
2022    1       31    23  19    5.4007   500.4    4.910      49.044
2022    1       31    23  24    5.3995   500.3    4.910      49.027
2022    1       31    23  29    5.3984   500.3    4.910      49.011
2022    1       31    23  35    5.3973   500.2    4.910      48.994
2022    1       31    23  40    5.3961   500.1    4.909      48.977
2022    1       31    23  45    5.3950   500.0    4.909      48.959
2022    1       31    23  51    5.3939   500.0    4.909      48.942
2022    1       31    23  56    5.3928   499.9    4.908      48.924
2022    2        1     0   1    5.3918   499.8    4.908      48.906
2022    2        1     0   6    5.3907   499.7    4.908      48.889
2022    2        1     0  12    5.3896   499.7    4.908      48.871
2022    2        1     0  17    5.3885   499.6    4.907      48.853
2022    2        1     0  22    5.3875   499.5    4.907      48.834
2022    2        1     0  28    5.3864   499.4    4.907      48.816
2022    2        1     0  33    5.3853   499.4    4.907      48.798
2022    2        1     0  38    5.3842   499.3    4.906      48.780
2022    2        1     0  44    5.3831   499.2    4.906      48.761
2022    2        1     0  49    5.3820   499.1    4.906      48.743
2022    2        1     0  54    5.3809   499.1    4.906      48.725
2022    2        1     0  59    5.3797   499.0    4.906      48.707
2022    2        1     1   5    5.3785   498.9    4.906      48.688
2022    2        1     1  10    5.3774   498.8    4.905      48.670
2022    2        1     1  15    5.3762   498.7    4.905      48.652
2022    2        1     1  21    5.3750   498.7    4.905      48.634
2022    2        1     1  26    5.3737   498.6    4.905      48.616
2022    2        1     1  31    5.3725   498.5    4.905      48.598
2022    2        1     1  36    5.3712   498.4    4.905      48.579
2022    2        1     1  42    5.3700   498.4    4.905      48.561
2022    2        1     1  47    5.3687   498.3    4.905      48.543
2022    2        1     1  52    5.3674   498.2    4.905      48.525
2022    2        1     1  58    5.3661   498.1    4.905      48.506
2022    2        1     2   3    5.3648   498.1    4.905      48.488
2022    2        1     2   8    5.3635   498.0    4.905      48.470
2022    2        1     2  14    5.3622   497.9    4.905      48.452
2022    2        1     2  19    5.3608   497.8    4.905      48.434
2022    2        1     2  24    5.3595   497.8    4.905      48.416
2022    2        1     2  29    5.3582   497.7    4.905      48.399
2022    2        1     2  35    5.3568   497.6    4.906      48.381
2022    2        1     2  40    5.3555   497.5    4.906      48.364
2022    2        1     2  45    5.3541   497.4    4.906      48.347
2022    2        1     2  51    5.3527   497.4    4.906      48.330
2022    2        1     2  56    5.3513   497.3    4.906      48.313
2022    2        1     3   1    5.3499   497.2    4.907      48.297
2022    2        1     3   7    5.3484   497.1    4.907      48.280
2022    2        1     3  12    5.3470   497.1    4.907      48.264
2022    2        1     3  17    5.3455   497.0    4.907      48.248
2022    2        1     3  22    5.3439   496.9    4.908      48.231
2022    2        1     3  28    5.3424   496.8    4.908      48.215
2022    2        1     3  33    5.3408   496.8    4.908      48.199
2022    2        1     3  38    5.3392   496.7    4.909      48.182
2022    2        1     3  44    5.3376   496.6    4.909      48.166
2022    2        1     3  49    5.3360   496.5    4.909      48.149
2022    2        1     3  54    5.3343   496.5    4.909      48.133
2022    2        1     4   0    5.3327   496.4    4.909      48.116
2022    2        1     4   5    5.3310   496.3    4.910      48.099
2022    2        1     4  10    5.3293   496.2    4.910      48.082
2022    2        1     4  15    5.3277   496.1    4.910      48.065
2022    2        1     4  21    5.3260   496.1    4.910      48.048
2022    2        1     4  26    5.3243   496.0    4.910      48.030
2022    2        1     4  31    5.3226   495.9    4.910      48.013
2022    2        1     4  37    5.3209   495.8    4.910      47.995
2022    2        1     4  42    5.3193   495.7    4.910      47.977
2022    2        1     4  47    5.3176   495.6    4.910      47.959
2022    2        1     4  52    5.3159   495.5    4.910      47.941
2022    2        1     4  58    5.3143   495.5    4.910      47.923
2022    2        1     5   3    5.3127   495.4    4.910      47.905
2022    2        1     5   8    5.3110   495.3    4.910      47.887
2022    2        1     5  14    5.3094   495.2    4.909      47.868
2022    2        1     5  19    5.3079   495.1    4.909      47.850
2022    2        1     5  24    5.3063   495.0    4.909      47.831
2022    2        1     5  30    5.3047   494.9    4.909      47.813
2022    2        1     5  35    5.3032   494.9    4.909      47.794
2022    2        1     5  40    5.3017   494.8    4.909      47.776
2022    2        1     5  45    5.3002   494.7    4.909      47.758
2022    2        1     5  51    5.2987   494.6    4.908      47.739
2022    2        1     5  56    5.2973   494.5    4.908      47.721
2022    2        1     6   1    5.2958   494.4    4.908      47.702
2022    2        1     6   7    5.2944   494.3    4.908      47.684
2022    2        1     6  12    5.2931   494.3    4.908      47.666
2022    2        1     6  17    5.2917   494.2    4.908      47.647
2022    2        1     6  23    5.2903   494.1    4.908      47.629
2022    2        1     6  28    5.2890   494.0    4.908      47.611
2022    2        1     6  33    5.2877   493.9    4.908      47.593
2022    2        1     6  38    5.2864   493.8    4.908      47.575
2022    2        1     6  44    5.2851   493.7    4.908      47.557
2022    2        1     6  49    5.2839   493.6    4.908      47.540
2022    2        1     6  54    5.2826   493.6    4.908      47.522
2022    2        1     7   0    5.2813   493.5    4.908      47.504
2022    2        1     7   5    5.2800   493.4    4.908      47.487
2022    2        1     7  10    5.2787   493.3    4.908      47.470
2022    2        1     7  16    5.2774   493.2    4.908      47.453
2022    2        1     7  21    5.2761   493.1    4.909      47.435
2022    2        1     7  26    5.2748   493.0    4.909      47.418
2022    2        1     7  31    5.2734   493.0    4.909      47.400
2022    2        1     7  37    5.2721   492.9    4.909      47.383
2022    2        1     7  42    5.2707   492.8    4.909      47.365
2022    2        1     7  47    5.2693   492.7    4.909      47.346
2022    2        1     7  53    5.2678   492.6    4.910      47.328
2022    2        1     7  58    5.2664   492.5    4.910      47.309
2022    2        1     8   3    5.2649   492.5    4.910      47.290
2022    2        1     8   8    5.2633   492.4    4.910      47.271
2022    2        1     8  14    5.2618   492.3    4.910      47.251
2022    2        1     8  19    5.2602   492.2    4.911      47.231
2022    2        1     8  24    5.2586   492.1    4.911      47.212
2022    2        1     8  30    5.2569   492.0    4.911      47.191
2022    2        1     8  35    5.2553   492.0    4.911      47.171
2022    2        1     8  40    5.2536   491.9    4.911      47.150
2022    2        1     8  46    5.2518   491.8    4.911      47.129
2022    2        1     8  51    5.2501   491.7    4.911      47.107
2022    2        1     8  56    5.2483   491.6    4.911      47.085
2022    2        1     9   1    5.2465   491.5    4.911      47.062
2022    2        1     9   7    5.2447   491.5    4.911      47.039
2022    2        1     9  12    5.2428   491.4    4.911      47.016
2022    2        1     9  17    5.2410   491.3    4.911      46.992
2022    2        1     9  23    5.2391   491.2    4.910      46.968
2022    2        1     9  28    5.2372   491.1    4.910      46.943
2022    2        1     9  33    5.2353   491.0    4.910      46.918
2022    2        1     9  39    5.2334   490.9    4.910      46.893
2022    2        1     9  44    5.2315   490.8    4.909      46.867
2022    2        1     9  49    5.2295   490.7    4.909      46.841
2022    2        1     9  54    5.2276   490.6    4.908      46.814
2022    2        1    10   0    5.2256   490.5    4.908      46.788
2022    2        1    10   5    5.2236   490.4    4.908      46.761
2022    2        1    10  10    5.2216   490.3    4.907      46.733
2022    2        1    10  16    5.2196   490.2    4.907      46.706
2022    2        1    10  21    5.2176   490.1    4.906      46.678
2022    2        1    10  26    5.2156   490.0    4.905      46.649
2022    2        1    10  32    5.2136   489.9    4.905      46.621
2022    2        1    10  37    5.2115   489.8    4.904      46.592
2022    2        1    10  42    5.2095   489.7    4.904      46.563
2022    2        1    10  47    5.2074   489.6    4.903      46.533
2022    2        1    10  53    5.2054   489.5    4.903      46.503
2022    2        1    10  58    5.2033   489.4    4.902      46.473
2022    2        1    11   3    5.2013   489.3    4.901      46.443
2022    2        1    11   9    5.1993   489.2    4.901      46.413
2022    2        1    11  14    5.1972   489.1    4.900      46.382
2022    2        1    11  19    5.1952   489.0    4.900      46.352
2022    2        1    11  24    5.1932   488.9    4.899      46.321
2022    2        1    11  30    5.1911   488.8    4.899      46.290
2022    2        1    11  35    5.1891   488.6    4.898      46.260
2022    2        1    11  40    5.1872   488.5    4.898      46.229
2022    2        1    11  46    5.1852   488.4    4.898      46.198
2022    2        1    11  51    5.1833   488.3    4.897      46.168
2022    2        1    11  56    5.1813   488.2    4.897      46.138
2022    2        1    12   2    5.1794   488.1    4.897      46.108
2022    2        1    12   7    5.1775   488.0    4.897      46.078
2022    2        1    12  12    5.1757   487.8    4.897      46.048
2022    2        1    12  17    5.1739   487.7    4.897      46.019
2022    2        1    12  23    5.1721   487.6    4.897      45.990
2022    2        1    12  28    5.1703   487.5    4.897      45.962
2022    2        1    12  33    5.1685   487.4    4.897      45.934
2022    2        1    12  39    5.1668   487.3    4.897      45.906
2022    2        1    12  44    5.1652   487.1    4.897      45.879
2022    2        1    12  49    5.1635   487.0    4.898      45.852
2022    2        1    12  55    5.1619   486.9    4.898      45.825
2022    2        1    13   0    5.1603   486.8    4.898      45.799
2022    2        1    13   5    5.1587   486.7    4.899      45.773
2022    2        1    13  10    5.1571   486.6    4.899      45.748
2022    2        1    13  16    5.1556   486.4    4.900      45.723
2022    2        1    13  21    5.1541   486.3    4.900      45.698
2022    2        1    13  26    5.1526   486.2    4.900      45.673
2022    2        1    13  32    5.1511   486.1    4.901      45.649
2022    2        1    13  37    5.1496   486.0    4.901      45.624
2022    2        1    13  42    5.1481   485.9    4.901      45.600
2022    2        1    13  48    5.1466   485.8    4.902      45.575
2022    2        1    13  53    5.1451   485.6    4.902      45.551
2022    2        1    13  58    5.1436   485.5    4.902      45.526
2022    2        1    14   3    5.1420   485.4    4.903      45.501
2022    2        1    14   9    5.1405   485.3    4.903      45.477
2022    2        1    14  14    5.1389   485.2    4.903      45.452
2022    2        1    14  19    5.1373   485.1    4.903      45.428
2022    2        1    14  25    5.1357   485.0    4.903      45.403
2022    2        1    14  30    5.1341   484.9    4.904      45.377
2022    2        1    14  35    5.1324   484.8    4.904      45.352
2022    2        1    14  41    5.1307   484.6    4.904      45.327
2022    2        1    14  46    5.1290   484.5    4.904      45.300
2022    2        1    14  51    5.1273   484.4    4.904      45.274
2022    2        1    14  56    5.1255   484.3    4.904      45.247
2022    2        1    15   2    5.1237   484.2    4.904      45.219
2022    2        1    15   7    5.1220   484.1    4.904      45.192
2022    2        1    15  12    5.1201   484.0    4.904      45.163
2022    2        1    15  18    5.1183   483.9    4.903      45.135
2022    2        1    15  23    5.1165   483.8    4.903      45.106
2022    2        1    15  28    5.1146   483.6    4.903      45.077
2022    2        1    15  33    5.1128   483.5    4.903      45.047
2022    2        1    15  39    5.1109   483.4    4.903      45.017
2022    2        1    15  44    5.1090   483.3    4.902      44.987
2022    2        1    15  49    5.1071   483.2    4.902      44.956
2022    2        1    15  55    5.1052   483.1    4.902      44.925
2022    2        1    16   0    5.1032   483.0    4.901      44.894
2022    2        1    16   5    5.1013   482.8    4.901      44.862
2022    2        1    16  11    5.0994   482.7    4.900      44.830
2022    2        1    16  16    5.0974   482.6    4.900      44.798
2022    2        1    16  21    5.0955   482.5    4.899      44.766
2022    2        1    16  26    5.0935   482.4    4.899      44.733
2022    2        1    16  32    5.0916   482.3    4.898      44.700
2022    2        1    16  37    5.0896   482.1    4.898      44.666
2022    2        1    16  42    5.0876   482.0    4.897      44.632
2022    2        1    16  48    5.0857   481.9    4.897      44.598
2022    2        1    16  53    5.0837   481.8    4.896      44.564
2022    2        1    16  58    5.0817   481.7    4.895      44.529
2022    2        1    17   3    5.0797   481.6    4.895      44.494
2022    2        1    17   9    5.0778   481.4    4.894      44.459
2022    2        1    17  14    5.0758   481.3    4.893      44.424
2022    2        1    17  19    5.0738   481.2    4.892      44.388
2022    2        1    17  25    5.0718   481.1    4.892      44.352
2022    2        1    17  30    5.0698   480.9    4.891      44.316
2022    2        1    17  35    5.0678   480.8    4.890      44.279
2022    2        1    17  41    5.0658   480.7    4.890      44.242
2022    2        1    17  46    5.0638   480.6    4.889      44.205
2022    2        1    17  51    5.0618   480.4    4.888      44.167
2022    2        1    17  56    5.0598   480.3    4.887      44.129
2022    2        1    18   2    5.0578   480.2    4.887      44.091
2022    2        1    18   7    5.0558   480.0    4.886      44.053
2022    2        1    18  12    5.0539   479.9    4.885      44.014
2022    2        1    18  18    5.0519   479.8    4.885      43.976
2022    2        1    18  23    5.0499   479.6    4.884      43.937
2022    2        1    18  28    5.0480   479.5    4.884      43.898
2022    2        1    18  34    5.0460   479.3    4.883      43.859
2022    2        1    18  39    5.0441   479.2    4.883      43.820
2022    2        1    18  44    5.0421   479.1    4.882      43.781
2022    2        1    18  49    5.0402   478.9    4.882      43.742
2022    2        1    18  55    5.0384   478.8    4.882      43.703
2022    2        1    19   0    5.0365   478.6    4.882      43.665
2022    2        1    19   5    5.0346   478.5    4.882      43.626
2022    2        1    19  11    5.0328   478.4    4.882      43.588
2022    2        1    19  16    5.0310   478.2    4.882      43.550
2022    2        1    19  21    5.0292   478.1    4.882      43.512
2022    2        1    19  26    5.0274   477.9    4.883      43.474
2022    2        1    19  32    5.0257   477.8    4.883      43.437
2022    2        1    19  37    5.0240   477.7    4.883      43.401
2022    2        1    19  42    5.0223   477.5    4.884      43.364
2022    2        1    19  48    5.0206   477.4    4.885      43.328
2022    2        1    19  53    5.0190   477.2    4.885      43.292
2022    2        1    19  58    5.0173   477.1    4.886      43.256
2022    2        1    20   4    5.0157   476.9    4.887      43.221
2022    2        1    20   9    5.0141   476.8    4.888      43.186
2022    2        1    20  14    5.0125   476.7    4.889      43.151
2022    2        1    20  19    5.0109   476.5    4.889      43.117
2022    2        1    20  25    5.0093   476.4    4.890      43.083
2022    2        1    20  30    5.0077   476.2    4.891      43.049
2022    2        1    20  35    5.0061   476.1    4.892      43.015
2022    2        1    20  41    5.0045   476.0    4.893      42.981
2022    2        1    20  46    5.0029   475.8    4.894      42.947
2022    2        1    20  51    5.0013   475.7    4.895      42.913
2022    2        1    20  57    4.9997   475.5    4.896      42.879
2022    2        1    21   2    4.9981   475.4    4.896      42.844
2022    2        1    21   7    4.9965   475.3    4.897      42.810
2022    2        1    21  12    4.9948   475.1    4.898      42.775
2022    2        1    21  18    4.9932   475.0    4.899      42.740
2022    2        1    21  23    4.9915   474.8    4.899      42.705
2022    2        1    21  28    4.9899   474.7    4.900      42.670
2022    2        1    21  34    4.9882   474.6    4.901      42.635
2022    2        1    21  39    4.9865   474.4    4.901      42.599
2022    2        1    21  44    4.9848   474.3    4.902      42.564
2022    2        1    21  49    4.9832   474.1    4.902      42.529
2022    2        1    21  55    4.9815   474.0    4.903      42.493
2022    2        1    22   0    4.9798   473.8    4.904      42.457
2022    2        1    22   5    4.9781   473.7    4.904      42.422
2022    2        1    22  11    4.9764   473.6    4.905      42.386
2022    2        1    22  16    4.9748   473.4    4.905      42.350
2022    2        1    22  21    4.9731   473.3    4.905      42.314
2022    2        1    22  27    4.9714   473.1    4.906      42.279
2022    2        1    22  32    4.9698   473.0    4.906      42.243
2022    2        1    22  37    4.9681   472.8    4.907      42.207
2022    2        1    22  42    4.9665   472.7    4.907      42.171
2022    2        1    22  48    4.9649   472.5    4.908      42.136
2022    2        1    22  53    4.9633   472.4    4.908      42.100
2022    2        1    22  58    4.9617   472.2    4.909      42.064
2022    2        1    23   4    4.9601   472.1    4.909      42.029
2022    2        1    23   9    4.9585   472.0    4.909      41.993
2022    2        1    23  14    4.9569   471.8    4.910      41.958
2022    2        1    23  20    4.9553   471.7    4.910      41.922
2022    2        1    23  25    4.9538   471.5    4.911      41.887
2022    2        1    23  30    4.9522   471.4    4.911      41.851
2022    2        1    23  35    4.9507   471.2    4.912      41.816
2022    2        1    23  41    4.9491   471.1    4.912      41.780
2022    2        1    23  46    4.9476   471.0    4.912      41.745
2022    2        1    23  51    4.9460   470.8    4.913      41.709
2022    2        1    23  57    4.9445   470.7    4.913      41.673
2022    2        2     0   2    4.9429   470.5    4.914      41.637
2022    2        2     0   7    4.9413   470.4    4.914      41.601
2022    2        2     0  12    4.9398   470.2    4.914      41.565
2022    2        2     0  18    4.9382   470.1    4.915      41.528
2022    2        2     0  23    4.9366   469.9    4.915      41.491
2022    2        2     0  28    4.9350   469.8    4.915      41.454
2022    2        2     0  34    4.9334   469.6    4.915      41.417
2022    2        2     0  39    4.9318   469.5    4.916      41.379
2022    2        2     0  44    4.9302   469.3    4.916      41.341
2022    2        2     0  49    4.9286   469.2    4.916      41.303
2022    2        2     0  55    4.9270   469.0    4.916      41.264
2022    2        2     1   0    4.9254   468.9    4.916      41.226
2022    2        2     1   5    4.9238   468.7    4.916      41.187
2022    2        2     1  11    4.9222   468.6    4.917      41.148
2022    2        2     1  16    4.9206   468.4    4.917      41.109
2022    2        2     1  21    4.9191   468.3    4.917      41.069
2022    2        2     1  27    4.9175   468.1    4.917      41.030
2022    2        2     1  32    4.9159   467.9    4.917      40.990
2022    2        2     1  37    4.9143   467.8    4.917      40.950
2022    2        2     1  42    4.9127   467.6    4.917      40.910
2022    2        2     1  48    4.9111   467.5    4.917      40.870
2022    2        2     1  53    4.9095   467.3    4.917      40.830
2022    2        2     1  58    4.9080   467.1    4.917      40.789
2022    2        2     2   3    4.9064   467.0    4.918      40.749
2022    2        2     2   9    4.9048   466.8    4.918      40.708
2022    2        2     2  14    4.9033   466.7    4.918      40.667
2022    2        2     2  19    4.9017   466.5    4.918      40.627
2022    2        2     2  25    4.9002   466.3    4.918      40.586
2022    2        2     2  30    4.8986   466.2    4.919      40.545
2022    2        2     2  35    4.8971   466.0    4.919      40.505
2022    2        2     2  40    4.8956   465.8    4.919      40.464
2022    2        2     2  46    4.8940   465.7    4.919      40.423
2022    2        2     2  51    4.8925   465.5    4.920      40.383
2022    2        2     2  56    4.8910   465.4    4.920      40.342
2022    2        2     3   2    4.8895   465.2    4.920      40.301
2022    2        2     3   7    4.8879   465.0    4.921      40.260
2022    2        2     3  12    4.8864   464.9    4.921      40.220
2022    2        2     3  17    4.8849   464.7    4.922      40.179
2022    2        2     3  23    4.8834   464.5    4.922      40.139
2022    2        2     3  28    4.8819   464.4    4.923      40.098
2022    2        2     3  33    4.8804   464.2    4.923      40.057
2022    2        2     3  39    4.8789   464.0    4.924      40.017
2022    2        2     3  44    4.8774   463.8    4.925      39.977
2022    2        2     3  49    4.8759   463.7    4.925      39.936
2022    2        2     3  54    4.8744   463.5    4.926      39.896
2022    2        2     4   0    4.8729   463.3    4.927      39.856
2022    2        2     4   5    4.8714   463.2    4.927      39.815
2022    2        2     4  10    4.8699   463.0    4.928      39.775
2022    2        2     4  16    4.8684   462.8    4.929      39.735
2022    2        2     4  21    4.8670   462.6    4.930      39.695
2022    2        2     4  26    4.8655   462.5    4.931      39.655
2022    2        2     4  31    4.8640   462.3    4.932      39.616
2022    2        2     4  37    4.8626   462.1    4.933      39.576
2022    2        2     4  42    4.8612   461.9    4.934      39.537
2022    2        2     4  47    4.8598   461.7    4.935      39.497
2022    2        2     4  52    4.8583   461.6    4.936      39.458
2022    2        2     4  58    4.8569   461.4    4.937      39.419
2022    2        2     5   3    4.8556   461.2    4.938      39.380
2022    2        2     5   8    4.8542   461.0    4.940      39.342
2022    2        2     5  14    4.8528   460.8    4.941      39.303
2022    2        2     5  19    4.8515   460.7    4.942      39.265
2022    2        2     5  24    4.8502   460.5    4.944      39.227
2022    2        2     5  29    4.8489   460.3    4.945      39.189
2022    2        2     5  35    4.8476   460.1    4.947      39.152
2022    2        2     5  40    4.8463   459.9    4.948      39.114
2022    2        2     5  45    4.8451   459.7    4.950      39.077
2022    2        2     5  50    4.8439   459.6    4.952      39.040
2022    2        2     5  56    4.8427   459.4    4.953      39.003
2022    2        2     6   1    4.8415   459.2    4.955      38.967
2022    2        2     6   6    4.8403   459.0    4.957      38.931
2022    2        2     6  12    4.8392   458.8    4.959      38.895
2022    2        2     6  17    4.8381   458.6    4.961      38.859
2022    2        2     6  22    4.8370   458.5    4.963      38.823
2022    2        2     6  27    4.8359   458.3    4.965      38.787
2022    2        2     6  33    4.8348   458.1    4.968      38.752
2022    2        2     6  38    4.8337   457.9    4.970      38.717
2022    2        2     6  43    4.8327   457.7    4.972      38.681
2022    2        2     6  48    4.8317   457.5    4.974      38.646
2022    2        2     6  54    4.8306   457.4    4.977      38.611
2022    2        2     6  59    4.8296   457.2    4.979      38.576
2022    2        2     7   4    4.8286   457.0    4.981      38.541
2022    2        2     7  10    4.8276   456.8    4.984      38.506
2022    2        2     7  15    4.8265   456.6    4.986      38.471
2022    2        2     7  20    4.8255   456.4    4.989      38.436
2022    2        2     7  25    4.8245   456.2    4.991      38.401
2022    2        2     7  31    4.8235   456.1    4.993      38.365
2022    2        2     7  36    4.8225   455.9    4.996      38.329
2022    2        2     7  41    4.8215   455.7    4.998      38.294
2022    2        2     7  46    4.8205   455.5    5.001      38.257
2022    2        2     7  52    4.8194   455.3    5.003      38.221
2022    2        2     7  57    4.8184   455.1    5.006      38.185
2022    2        2     8   2    4.8174   454.9    5.008      38.148
2022    2        2     8   8    4.8164   454.7    5.010      38.112
2022    2        2     8  13    4.8154   454.5    5.013      38.075
2022    2        2     8  18    4.8144   454.3    5.015      38.038
2022    2        2     8  23    4.8134   454.1    5.017      38.001
2022    2        2     8  29    4.8125   453.9    5.020      37.964
2022    2        2     8  34    4.8115   453.8    5.022      37.927
2022    2        2     8  39    4.8105   453.6    5.024      37.890
2022    2        2     8  44    4.8096   453.4    5.026      37.853
2022    2        2     8  50    4.8086   453.2    5.029      37.815
2022    2        2     8  55    4.8077   453.0    5.031      37.778
2022    2        2     9   0    4.8067   452.8    5.033      37.740
2022    2        2     9   6    4.8058   452.6    5.035      37.703
2022    2        2     9  11    4.8049   452.4    5.038      37.665
2022    2        2     9  16    4.8040   452.2    5.040      37.628
2022    2        2     9  21    4.8030   452.0    5.042      37.590
2022    2        2     9  27    4.8022   451.8    5.044      37.552
2022    2        2     9  32    4.8012   451.6    5.046      37.515
2022    2        2     9  37    4.8004   451.4    5.049      37.477
2022    2        2     9  42    4.7995   451.2    5.051      37.439
2022    2        2     9  48    4.7986   451.0    5.053      37.401
2022    2        2     9  53    4.7977   450.8    5.055      37.363
2022    2        2     9  58    4.7969   450.6    5.057      37.325
2022    2        2    10   4    4.7961   450.4    5.060      37.288
2022    2        2    10   9    4.7952   450.2    5.062      37.250
2022    2        2    10  14    4.7944   450.0    5.064      37.212
2022    2        2    10  19    4.7936   449.8    5.066      37.174
2022    2        2    10  25    4.7928   449.5    5.069      37.136
2022    2        2    10  30    4.7920   449.3    5.071      37.099
2022    2        2    10  35    4.7913   449.1    5.073      37.061
2022    2        2    10  40    4.7905   448.9    5.076      37.023
2022    2        2    10  46    4.7898   448.7    5.078      36.986
2022    2        2    10  51    4.7890   448.5    5.080      36.948
2022    2        2    10  56    4.7884   448.3    5.083      36.911
2022    2        2    11   2    4.7877   448.1    5.085      36.874
2022    2        2    11   7    4.7870   447.9    5.088      36.837
2022    2        2    11  12    4.7864   447.6    5.091      36.800
2022    2        2    11  17    4.7858   447.4    5.093      36.763
2022    2        2    11  23    4.7852   447.2    5.096      36.726
2022    2        2    11  28    4.7846   447.0    5.099      36.690
2022    2        2    11  33    4.7841   446.8    5.102      36.654
2022    2        2    11  38    4.7836   446.6    5.105      36.617
2022    2        2    11  44    4.7831   446.3    5.108      36.581
2022    2        2    11  49    4.7826   446.1    5.111      36.546
2022    2        2    11  54    4.7822   445.9    5.114      36.510
2022    2        2    12   0    4.7818   445.7    5.117      36.475
2022    2        2    12   5    4.7814   445.5    5.121      36.440
2022    2        2    12  10    4.7811   445.3    5.124      36.405
2022    2        2    12  15    4.7808   445.0    5.128      36.371
2022    2        2    12  21    4.7805   444.8    5.131      36.336
2022    2        2    12  26    4.7803   444.6    5.135      36.302
2022    2        2    12  31    4.7801   444.4    5.139      36.268
2022    2        2    12  36    4.7799   444.2    5.143      36.234
2022    2        2    12  42    4.7798   443.9    5.147      36.201
2022    2        2    12  47    4.7797   443.7    5.151      36.167
2022    2        2    12  52    4.7796   443.5    5.155      36.134
2022    2        2    12  58    4.7796   443.3    5.159      36.101
2022    2        2    13   3    4.7796   443.1    5.164      36.068
2022    2        2    13   8    4.7796   442.8    5.168      36.035
2022    2        2    13  13    4.7797   442.6    5.173      36.003
2022    2        2    13  19    4.7798   442.4    5.177      35.970
2022    2        2    13  24    4.7799   442.2    5.182      35.938
2022    2        2    13  29    4.7801   441.9    5.187      35.906
2022    2        2    13  34    4.7802   441.7    5.191      35.873
2022    2        2    13  40    4.7805   441.5    5.196      35.841
2022    2        2    13  45    4.7807   441.3    5.201      35.809
2022    2        2    13  50    4.7810   441.1    5.206      35.777
2022    2        2    13  56    4.7813   440.8    5.211      35.745
2022    2        2    14   1    4.7816   440.6    5.216      35.713
2022    2        2    14   6    4.7820   440.4    5.221      35.681
2022    2        2    14  11    4.7824   440.2    5.226      35.650
2022    2        2    14  17    4.7828   440.0    5.232      35.618
2022    2        2    14  22    4.7832   439.7    5.237      35.586
2022    2        2    14  27    4.7837   439.5    5.242      35.554
2022    2        2    14  32    4.7842   439.3    5.248      35.522
2022    2        2    14  38    4.7847   439.1    5.253      35.490
2022    2        2    14  43    4.7853   438.8    5.258      35.458
2022    2        2    14  48    4.7858   438.6    5.264      35.426
2022    2        2    14  54    4.7865   438.4    5.269      35.395
2022    2        2    14  59    4.7871   438.2    5.275      35.363
2022    2        2    15   4    4.7877   438.0    5.280      35.331
2022    2        2    15   9    4.7884   437.7    5.286      35.299
2022    2        2    15  15    4.7891   437.5    5.291      35.267
2022    2        2    15  20    4.7899   437.3    5.297      35.235
2022    2        2    15  25    4.7906   437.1    5.303      35.203
2022    2        2    15  31    4.7914   436.9    5.308      35.171
2022    2        2    15  36    4.7923   436.6    5.314      35.139
2022    2        2    15  41    4.7931   436.4    5.320      35.107
2022    2        2    15  46    4.7939   436.2    5.326      35.076
2022    2        2    15  52    4.7949   436.0    5.331      35.044
2022    2        2    15  57    4.7958   435.8    5.337      35.012
2022    2        2    16   2    4.7967   435.5    5.343      34.981
2022    2        2    16   7    4.7977   435.3    5.349      34.949
2022    2        2    16  13    4.7987   435.1    5.355      34.918
2022    2        2    16  18    4.7997   434.9    5.361      34.887
2022    2        2    16  23    4.8008   434.7    5.367      34.855
2022    2        2    16  29    4.8018   434.4    5.373      34.824
2022    2        2    16  34    4.8029   434.2    5.379      34.793
2022    2        2    16  39    4.8041   434.0    5.385      34.763
2022    2        2    16  44    4.8052   433.8    5.391      34.732
2022    2        2    16  50    4.8064   433.6    5.398      34.701
2022    2        2    16  55    4.8076   433.3    5.404      34.671
2022    2        2    17   0    4.8088   433.1    5.410      34.640
2022    2        2    17   6    4.8101   432.9    5.416      34.610
2022    2        2    17  11    4.8114   432.7    5.423      34.580
2022    2        2    17  16    4.8127   432.5    5.429      34.550
2022    2        2    17  21    4.8140   432.3    5.436      34.520
2022    2        2    17  27    4.8154   432.0    5.442      34.491
2022    2        2    17  32    4.8168   431.8    5.449      34.461
2022    2        2    17  37    4.8182   431.6    5.456      34.432
2022    2        2    17  42    4.8197   431.4    5.462      34.403
2022    2        2    17  48    4.8212   431.2    5.469      34.373
2022    2        2    17  53    4.8226   431.0    5.476      34.345
2022    2        2    17  58    4.8242   430.8    5.483      34.316
2022    2        2    18   4    4.8257   430.5    5.490      34.287
2022    2        2    18   9    4.8273   430.3    5.497      34.259
2022    2        2    18  14    4.8289   430.1    5.504      34.231
2022    2        2    18  19    4.8306   429.9    5.511      34.203
2022    2        2    18  25    4.8322   429.7    5.518      34.175
2022    2        2    18  30    4.8339   429.5    5.525      34.147
2022    2        2    18  35    4.8356   429.3    5.532      34.119
2022    2        2    18  41    4.8374   429.0    5.540      34.092
2022    2        2    18  46    4.8392   428.8    5.547      34.064
2022    2        2    18  51    4.8410   428.6    5.554      34.037
2022    2        2    18  56    4.8428   428.4    5.562      34.010
2022    2        2    19   2    4.8447   428.2    5.570      33.983
2022    2        2    19   7    4.8466   428.0    5.577      33.957
2022    2        2    19  12    4.8486   427.8    5.585      33.930
2022    2        2    19  18    4.8506   427.6    5.593      33.904
2022    2        2    19  23    4.8526   427.4    5.601      33.878
2022    2        2    19  28    4.8546   427.1    5.608      33.852
2022    2        2    19  33    4.8567   426.9    5.616      33.826
2022    2        2    19  39    4.8588   426.7    5.625      33.801
2022    2        2    19  44    4.8610   426.5    5.633      33.776
2022    2        2    19  49    4.8632   426.3    5.641      33.751
2022    2        2    19  55    4.8655   426.1    5.649      33.726
2022    2        2    20   0    4.8677   425.9    5.658      33.701
2022    2        2    20   5    4.8701   425.7    5.666      33.676
2022    2        2    20  10    4.8724   425.5    5.675      33.652
2022    2        2    20  16    4.8749   425.3    5.683      33.628
2022    2        2    20  21    4.8773   425.1    5.692      33.605
2022    2        2    20  26    4.8798   424.9    5.701      33.581
2022    2        2    20  32    4.8824   424.7    5.710      33.558
2022    2        2    20  37    4.8850   424.5    5.719      33.535
2022    2        2    20  42    4.8876   424.3    5.728      33.512
2022    2        2    20  47    4.8903   424.1    5.737      33.489
2022    2        2    20  53    4.8930   423.8    5.746      33.467
2022    2        2    20  58    4.8958   423.6    5.755      33.445
2022    2        2    21   3    4.8986   423.4    5.765      33.423
2022    2        2    21   9    4.9014   423.2    5.774      33.402
2022    2        2    21  14    4.9043   423.0    5.783      33.380
2022    2        2    21  19    4.9073   422.8    5.793      33.359
2022    2        2    21  24    4.9103   422.7    5.803      33.339
2022    2        2    21  30    4.9133   422.5    5.812      33.318
2022    2        2    21  35    4.9164   422.3    5.822      33.298
2022    2        2    21  40    4.9195   422.1    5.832      33.277
2022    2        2    21  46    4.9226   421.9    5.842      33.257
2022    2        2    21  51    4.9258   421.7    5.852      33.237
2022    2        2    21  56    4.9290   421.5    5.862      33.218
2022    2        2    22   1    4.9323   421.3    5.872      33.198
2022    2        2    22   7    4.9355   421.1    5.882      33.179
2022    2        2    22  12    4.9388   420.9    5.892      33.160
2022    2        2    22  17    4.9422   420.7    5.902      33.141
2022    2        2    22  23    4.9455   420.5    5.912      33.122
2022    2        2    22  28    4.9489   420.4    5.922      33.103
2022    2        2    22  33    4.9523   420.2    5.932      33.084
2022    2        2    22  38    4.9558   420.0    5.942      33.065
2022    2        2    22  44    4.9592   419.8    5.952      33.047
2022    2        2    22  49    4.9627   419.6    5.962      33.028
2022    2        2    22  54    4.9662   419.4    5.972      33.010
2022    2        2    23   0    4.9698   419.3    5.982      32.991
2022    2        2    23   5    4.9733   419.1    5.992      32.973
2022    2        2    23  10    4.9769   418.9    6.003      32.955
2022    2        2    23  15    4.9805   418.7    6.013      32.937
2022    2        2    23  21    4.9841   418.6    6.023      32.919
2022    2        2    23  26    4.9877   418.4    6.033      32.901
2022    2        2    23  31    4.9914   418.2    6.043      32.883
2022    2        2    23  37    4.9950   418.0    6.053      32.865
2022    2        2    23  42    4.9987   417.8    6.063      32.848
2022    2        2    23  47    5.0025   417.7    6.073      32.830
2022    2        2    23  52    5.0062   417.5    6.083      32.813
2022    2        2    23  58    5.0100   417.3    6.093      32.795
2022    2        3     0   3    5.0137   417.2    6.104      32.778
2022    2        3     0   8    5.0175   417.0    6.114      32.761
2022    2        3     0  14    5.0213   416.8    6.124      32.744
2022    2        3     0  19    5.0252   416.7    6.134      32.727
2022    2        3     0  24    5.0290   416.5    6.144      32.710
2022    2        3     0  29    5.0329   416.3    6.154      32.694
2022    2        3     0  35    5.0368   416.2    6.165      32.677
2022    2        3     0  40    5.0407   416.0    6.175      32.661
2022    2        3     0  45    5.0447   415.8    6.185      32.645
2022    2        3     0  51    5.0486   415.7    6.195      32.629
2022    2        3     0  56    5.0526   415.5    6.205      32.613
2022    2        3     1   1    5.0566   415.3    6.216      32.597
2022    2        3     1   7    5.0606   415.2    6.226      32.582
2022    2        3     1  12    5.0646   415.0    6.236      32.567
2022    2        3     1  17    5.0686   414.9    6.247      32.552
2022    2        3     1  22    5.0727   414.7    6.257      32.537
2022    2        3     1  28    5.0767   414.6    6.268      32.522
2022    2        3     1  33    5.0808   414.4    6.278      32.508
2022    2        3     1  38    5.0850   414.2    6.289      32.494
2022    2        3     1  44    5.0891   414.1    6.299      32.480
2022    2        3     1  49    5.0932   413.9    6.310      32.466
2022    2        3     1  54    5.0974   413.8    6.320      32.452
2022    2        3     1  59    5.1015   413.6    6.331      32.439
2022    2        3     2   5    5.1058   413.5    6.342      32.426
2022    2        3     2  10    5.1100   413.3    6.353      32.413
2022    2        3     2  15    5.1142   413.2    6.363      32.401
2022    2        3     2  21    5.1185   413.0    6.374      32.389
2022    2        3     2  26    5.1227   412.9    6.385      32.377
2022    2        3     2  31    5.1270   412.8    6.396      32.365
2022    2        3     2  36    5.1314   412.6    6.407      32.354
2022    2        3     2  42    5.1357   412.5    6.418      32.343
2022    2        3     2  47    5.1401   412.3    6.429      32.332
2022    2        3     2  52    5.1444   412.2    6.440      32.322
2022    2        3     2  58    5.1489   412.0    6.452      32.312
2022    2        3     3   3    5.1533   411.9    6.463      32.302
2022    2        3     3   8    5.1577   411.8    6.474      32.292
2022    2        3     3  13    5.1622   411.6    6.486      32.283
2022    2        3     3  19    5.1667   411.5    6.497      32.275
2022    2        3     3  24    5.1712   411.3    6.509      32.266
2022    2        3     3  29    5.1758   411.2    6.520      32.258
2022    2        3     3  35    5.1804   411.1    6.532      32.250
2022    2        3     3  40    5.1850   410.9    6.544      32.243
2022    2        3     3  45    5.1896   410.8    6.555      32.236
2022    2        3     3  51    5.1943   410.7    6.567      32.229
2022    2        3     3  56    5.1989   410.5    6.579      32.223
2022    2        3     4   1    5.2037   410.4    6.591      32.217
2022    2        3     4   6    5.2084   410.3    6.603      32.211
2022    2        3     4  12    5.2132   410.2    6.615      32.206
2022    2        3     4  17    5.2179   410.0    6.628      32.201
2022    2        3     4  22    5.2228   409.9    6.640      32.197
2022    2        3     4  28    5.2276   409.8    6.652      32.192
2022    2        3     4  33    5.2325   409.7    6.665      32.188
2022    2        3     4  38    5.2373   409.5    6.677      32.185
2022    2        3     4  43    5.2422   409.4    6.689      32.181
2022    2        3     4  49    5.2472   409.3    6.702      32.178
2022    2        3     4  54    5.2521   409.2    6.715      32.176
2022    2        3     4  59    5.2571   409.1    6.727      32.173
2022    2        3     5   5    5.2621   408.9    6.740      32.171
2022    2        3     5  10    5.2671   408.8    6.752      32.169
2022    2        3     5  15    5.2721   408.7    6.765      32.167
2022    2        3     5  21    5.2772   408.6    6.778      32.166
2022    2        3     5  26    5.2822   408.5    6.791      32.164
2022    2        3     5  31    5.2873   408.4    6.804      32.163
2022    2        3     5  36    5.2924   408.3    6.816      32.163
2022    2        3     5  42    5.2975   408.1    6.829      32.162
2022    2        3     5  47    5.3027   408.0    6.842      32.161
2022    2        3     5  52    5.3078   407.9    6.855      32.161
2022    2        3     5  58    5.3130   407.8    6.868      32.161
2022    2        3     6   3    5.3182   407.7    6.881      32.162
2022    2        3     6   8    5.3234   407.6    6.894      32.162
2022    2        3     6  13    5.3286   407.5    6.906      32.163
2022    2        3     6  19    5.3338   407.4    6.919      32.163
2022    2        3     6  24    5.3391   407.3    6.932      32.165
2022    2        3     6  29    5.3444   407.2    6.945      32.166
2022    2        3     6  35    5.3496   407.1    6.957      32.168
2022    2        3     6  40    5.3550   407.0    6.970      32.170
2022    2        3     6  45    5.3603   406.9    6.982      32.172
2022    2        3     6  51    5.3656   406.8    6.995      32.175
2022    2        3     6  56    5.3709   406.7    7.007      32.178
2022    2        3     7   1    5.3763   406.6    7.019      32.181
2022    2        3     7   6    5.3817   406.5    7.031      32.185
2022    2        3     7  12    5.3871   406.4    7.043      32.189
2022    2        3     7  17    5.3924   406.3    7.055      32.194
2022    2        3     7  22    5.3978   406.2    7.067      32.198
2022    2        3     7  28    5.4032   406.1    7.079      32.203
2022    2        3     7  33    5.4087   406.0    7.091      32.208
2022    2        3     7  38    5.4141   405.9    7.102      32.212
2022    2        3     7  43    5.4195   405.9    7.114      32.217
2022    2        3     7  49    5.4249   405.8    7.125      32.222
2022    2        3     7  54    5.4304   405.7    7.136      32.227
2022    2        3     7  59    5.4358   405.6    7.148      32.232
2022    2        3     8   5    5.4413   405.5    7.159      32.237
2022    2        3     8  10    5.4468   405.4    7.170      32.242
2022    2        3     8  15    5.4522   405.3    7.181      32.247
2022    2        3     8  21    5.4577   405.2    7.192      32.252
2022    2        3     8  26    5.4632   405.1    7.203      32.256
2022    2        3     8  31    5.4687   405.1    7.214      32.261
2022    2        3     8  36    5.4742   405.0    7.225      32.265
2022    2        3     8  42    5.4797   404.9    7.236      32.270
2022    2        3     8  47    5.4852   404.8    7.247      32.275
2022    2        3     8  52    5.4907   404.7    7.258      32.279
2022    2        3     8  58    5.4963   404.7    7.268      32.283
2022    2        3     9   3    5.5018   404.6    7.279      32.288
2022    2        3     9   8    5.5073   404.5    7.290      32.292
2022    2        3     9  13    5.5129   404.4    7.301      32.297
2022    2        3     9  19    5.5184   404.3    7.311      32.301
2022    2        3     9  24    5.5240   404.3    7.322      32.306
2022    2        3     9  29    5.5296   404.2    7.333      32.311
2022    2        3     9  35    5.5352   404.1    7.343      32.315
2022    2        3     9  40    5.5408   404.0    7.354      32.320
2022    2        3     9  45    5.5464   404.0    7.365      32.325
2022    2        3     9  51    5.5520   403.9    7.375      32.330
2022    2        3     9  56    5.5576   403.8    7.386      32.335
2022    2        3    10   1    5.5632   403.7    7.397      32.340
2022    2        3    10   6    5.5689   403.7    7.408      32.346
2022    2        3    10  12    5.5745   403.6    7.418      32.351
2022    2        3    10  17    5.5802   403.5    7.429      32.357
2022    2        3    10  22    5.5858   403.5    7.440      32.363
2022    2        3    10  28    5.5915   403.4    7.450      32.369
2022    2        3    10  33    5.5972   403.3    7.461      32.375
2022    2        3    10  38    5.6028   403.3    7.472      32.381
2022    2        3    10  44    5.6085   403.2    7.483      32.388
2022    2        3    10  49    5.6142   403.1    7.494      32.395
2022    2        3    10  54    5.6199   403.1    7.504      32.401
2022    2        3    10  59    5.6256   403.0    7.515      32.408
2022    2        3    11   5    5.6313   403.0    7.526      32.416
2022    2        3    11  10    5.6370   402.9    7.537      32.423
2022    2        3    11  15    5.6428   402.8    7.548      32.431
2022    2        3    11  21    5.6485   402.8    7.559      32.439
2022    2        3    11  26    5.6542   402.7    7.570      32.447
2022    2        3    11  31    5.6599   402.7    7.581      32.455
2022    2        3    11  37    5.6657   402.6    7.592      32.464
2022    2        3    11  42    5.6714   402.5    7.603      32.473
2022    2        3    11  47    5.6772   402.5    7.614      32.482
2022    2        3    11  52    5.6830   402.4    7.626      32.491
2022    2        3    11  58    5.6888   402.4    7.637      32.500
2022    2        3    12   3    5.6945   402.3    7.648      32.510
2022    2        3    12   8    5.7004   402.3    7.660      32.520
2022    2        3    12  14    5.7062   402.2    7.671      32.531
2022    2        3    12  19    5.7120   402.2    7.683      32.541
2022    2        3    12  24    5.7179   402.1    7.694      32.553
2022    2        3    12  29    5.7237   402.1    7.706      32.564
2022    2        3    12  35    5.7296   402.0    7.718      32.576
2022    2        3    12  40    5.7355   402.0    7.729      32.588
2022    2        3    12  45    5.7414   401.9    7.741      32.601
2022    2        3    12  51    5.7473   401.9    7.753      32.614
2022    2        3    12  56    5.7532   401.8    7.765      32.628
2022    2        3    13   1    5.7592   401.8    7.777      32.642
2022    2        3    13   7    5.7651   401.7    7.789      32.657
2022    2        3    13  12    5.7711   401.7    7.801      32.673
2022    2        3    13  17    5.7771   401.6    7.813      32.690
2022    2        3    13  22    5.7831   401.6    7.825      32.707
2022    2        3    13  28    5.7892   401.5    7.836      32.725
2022    2        3    13  33    5.7952   401.5    7.848      32.744
2022    2        3    13  38    5.8012   401.5    7.860      32.764
2022    2        3    13  44    5.8073   401.4    7.871      32.785
2022    2        3    13  49    5.8134   401.4    7.883      32.806
2022    2        3    13  54    5.8195   401.3    7.894      32.829
2022    2        3    14   0    5.8256   401.3    7.905      32.852
2022    2        3    14   5    5.8317   401.3    7.916      32.875
2022    2        3    14  10    5.8378   401.2    7.927      32.899
2022    2        3    14  15    5.8439   401.2    7.938      32.923
2022    2        3    14  21    5.8501   401.2    7.949      32.948
2022    2        3    14  26    5.8562   401.1    7.959      32.973
2022    2        3    14  31    5.8623   401.1    7.969      32.999
2022    2        3    14  37    5.8684   401.1    7.980      33.024
2022    2        3    14  42    5.8746   401.0    7.990      33.050
2022    2        3    14  47    5.8807   401.0    8.000      33.075
2022    2        3    14  53    5.8868   401.0    8.010      33.100
2022    2        3    14  58    5.8929   400.9    8.019      33.125
2022    2        3    15   3    5.8990   400.9    8.029      33.150
2022    2        3    15   8    5.9051   400.9    8.038      33.174
2022    2        3    15  14    5.9112   400.8    8.048      33.198
2022    2        3    15  19    5.9173   400.8    8.057      33.222
2022    2        3    15  24    5.9234   400.8    8.066      33.246
2022    2        3    15  30    5.9295   400.7    8.076      33.269
2022    2        3    15  35    5.9356   400.7    8.085      33.291
2022    2        3    15  40    5.9417   400.7    8.094      33.313
2022    2        3    15  46    5.9478   400.7    8.103      33.335
2022    2        3    15  51    5.9539   400.6    8.111      33.357
2022    2        3    15  56    5.9599   400.6    8.120      33.378
2022    2        3    16   1    5.9660   400.6    8.129      33.399
2022    2        3    16   7    5.9721   400.5    8.138      33.419
2022    2        3    16  12    5.9782   400.5    8.146      33.439
2022    2        3    16  17    5.9842   400.5    8.155      33.459
2022    2        3    16  23    5.9903   400.5    8.163      33.479
2022    2        3    16  28    5.9964   400.4    8.172      33.498
2022    2        3    16  33    6.0025   400.4    8.180      33.517
2022    2        3    16  39    6.0086   400.4    8.189      33.536
2022    2        3    16  44    6.0147   400.4    8.197      33.555
2022    2        3    16  49    6.0208   400.4    8.206      33.573
2022    2        3    16  54    6.0269   400.3    8.214      33.591
2022    2        3    17   0    6.0330   400.3    8.222      33.609
2022    2        3    17   5    6.0392   400.3    8.231      33.627
2022    2        3    17  10    6.0453   400.3    8.239      33.645
2022    2        3    17  16    6.0514   400.2    8.247      33.663
2022    2        3    17  21    6.0576   400.2    8.256      33.680
2022    2        3    17  26    6.0638   400.2    8.264      33.698
2022    2        3    17  32    6.0699   400.2    8.273      33.715
2022    2        3    17  37    6.0761   400.2    8.281      33.733
2022    2        3    17  42    6.0823   400.2    8.290      33.750
2022    2        3    17  47    6.0886   400.1    8.298      33.767
2022    2        3    17  53    6.0948   400.1    8.307      33.785
2022    2        3    17  58    6.1010   400.1    8.315      33.803
2022    2        3    18   3    6.1073   400.1    8.324      33.820
2022    2        3    18   9    6.1136   400.1    8.333      33.838
2022    2        3    18  14    6.1198   400.1    8.341      33.856
2022    2        3    18  19    6.1261   400.1    8.350      33.873
2022    2        3    18  24    6.1324   400.0    8.359      33.892
2022    2        3    18  30    6.1387   400.0    8.368      33.910
2022    2        3    18  35    6.1450   400.0    8.377      33.929
2022    2        3    18  40    6.1513   400.0    8.386      33.948
2022    2        3    18  46    6.1577   400.0    8.396      33.967
2022    2        3    18  51    6.1640   400.0    8.405      33.986
2022    2        3    18  56    6.1704   400.0    8.415      34.006
2022    2        3    19   2    6.1767   400.0    8.424      34.027
2022    2        3    19   7    6.1831   400.0    8.434      34.047
2022    2        3    19  12    6.1894   400.0    8.444      34.069
2022    2        3    19  17    6.1958   400.0    8.453      34.091
2022    2        3    19  23    6.2021   400.0    8.463      34.113
2022    2        3    19  28    6.2084   400.0    8.473      34.137
2022    2        3    19  33    6.2147   400.0    8.483      34.161
2022    2        3    19  39    6.2209   400.0    8.493      34.186
2022    2        3    19  44    6.2272   400.0    8.502      34.213
2022    2        3    19  49    6.2335   400.0    8.512      34.240
2022    2        3    19  55    6.2397   400.0    8.522      34.269
2022    2        3    20   0    6.2459   400.0    8.531      34.298
2022    2        3    20   5    6.2521   400.0    8.540      34.329
2022    2        3    20  10    6.2583   400.0    8.550      34.360
2022    2        3    20  16    6.2644   400.0    8.559      34.391
2022    2        3    20  21    6.2706   400.0    8.568      34.424
2022    2        3    20  26    6.2767   400.0    8.577      34.456
2022    2        3    20  32    6.2828   400.1    8.585      34.489
2022    2        3    20  37    6.2889   400.1    8.594      34.522
2022    2        3    20  42    6.2949   400.1    8.602      34.555
2022    2        3    20  48    6.3010   400.1    8.610      34.589
2022    2        3    20  53    6.3070   400.1    8.618      34.623
2022    2        3    20  58    6.3130   400.1    8.626      34.658
2022    2        3    21   3    6.3190   400.1    8.633      34.693
2022    2        3    21   9    6.3250   400.1    8.641      34.728
2022    2        3    21  14    6.3310   400.2    8.648      34.763
2022    2        3    21  19    6.3369   400.2    8.655      34.799
2022    2        3    21  25    6.3429   400.2    8.662      34.834
2022    2        3    21  30    6.3488   400.2    8.668      34.869
2022    2        3    21  35    6.3547   400.2    8.675      34.904
2022    2        3    21  41    6.3606   400.2    8.682      34.939
2022    2        3    21  46    6.3665   400.2    8.688      34.974
2022    2        3    21  51    6.3724   400.3    8.694      35.008
2022    2        3    21  56    6.3783   400.3    8.700      35.042
2022    2        3    22   2    6.3841   400.3    8.706      35.076
2022    2        3    22   7    6.3899   400.3    8.712      35.109
2022    2        3    22  12    6.3958   400.3    8.718      35.141
2022    2        3    22  18    6.4016   400.3    8.724      35.173
2022    2        3    22  23    6.4074   400.3    8.730      35.205
2022    2        3    22  28    6.4132   400.4    8.735      35.236
2022    2        3    22  34    6.4190   400.4    8.741      35.267
2022    2        3    22  39    6.4248   400.4    8.746      35.298
2022    2        3    22  44    6.4306   400.4    8.752      35.328
2022    2        3    22  49    6.4364   400.4    8.757      35.358
2022    2        3    22  55    6.4421   400.4    8.763      35.387
2022    2        3    23   0    6.4479   400.5    8.768      35.416
2022    2        3    23   5    6.4537   400.5    8.774      35.446
2022    2        3    23  11    6.4595   400.5    8.779      35.474
2022    2        3    23  16    6.4653   400.5    8.785      35.503
2022    2        3    23  21    6.4711   400.5    8.790      35.531
2022    2        3    23  26    6.4769   400.5    8.795      35.559
2022    2        3    23  32    6.4827   400.6    8.801      35.587
2022    2        3    23  37    6.4885   400.6    8.806      35.615
2022    2        3    23  42    6.4943   400.6    8.812      35.642
2022    2        3    23  48    6.5002   400.6    8.817      35.670
2022    2        3    23  53    6.5060   400.6    8.823      35.697
2022    2        3    23  58    6.5119   400.6    8.828      35.725
2022    2        4     0   4    6.5178   400.7    8.834      35.752
2022    2        4     0   9    6.5237   400.7    8.840      35.779
2022    2        4     0  14    6.5296   400.7    8.846      35.807
2022    2        4     0  19    6.5355   400.7    8.852      35.834
2022    2        4     0  25    6.5415   400.8    8.858      35.862
2022    2        4     0  30    6.5475   400.8    8.864      35.889
2022    2        4     0  35    6.5535   400.8    8.870      35.917
2022    2        4     0  41    6.5595   400.8    8.877      35.946
2022    2        4     0  46    6.5656   400.8    8.883      35.974
2022    2        4     0  51    6.5716   400.9    8.890      36.003
2022    2        4     0  57    6.5777   400.9    8.897      36.033
2022    2        4     1   2    6.5839   400.9    8.904      36.063
2022    2        4     1   7    6.5900   401.0    8.911      36.093
2022    2        4     1  12    6.5963   401.0    8.919      36.123
2022    2        4     1  18    6.6025   401.0    8.926      36.154
2022    2        4     1  23    6.6087   401.1    8.934      36.186
2022    2        4     1  28    6.6150   401.1    8.942      36.218
2022    2        4     1  34    6.6213   401.1    8.949      36.251
2022    2        4     1  39    6.6275   401.2    8.957      36.285
2022    2        4     1  44    6.6338   401.2    8.965      36.321
2022    2        4     1  50    6.6400   401.3    8.973      36.357
2022    2        4     1  55    6.6462   401.3    8.981      36.395
2022    2        4     2   0    6.6524   401.4    8.988      36.434
2022    2        4     2   5    6.6585   401.4    8.996      36.473
2022    2        4     2  11    6.6646   401.5    9.003      36.512
2022    2        4     2  16    6.6706   401.5    9.010      36.551
2022    2        4     2  21    6.6766   401.6    9.017      36.590
2022    2        4     2  27    6.6825   401.6    9.024      36.628
2022    2        4     2  32    6.6883   401.7    9.031      36.667
2022    2        4     2  37    6.6941   401.8    9.037      36.705
2022    2        4     2  43    6.6998   401.8    9.043      36.744
2022    2        4     2  48    6.7054   401.9    9.049      36.782
2022    2        4     2  53    6.7110   401.9    9.055      36.821
2022    2        4     2  58    6.7165   402.0    9.060      36.861
2022    2        4     3   4    6.7220   402.1    9.065      36.901
2022    2        4     3   9    6.7274   402.1    9.070      36.941
2022    2        4     3  14    6.7328   402.2    9.075      36.981
2022    2        4     3  20    6.7381   402.3    9.079      37.022
2022    2        4     3  25    6.7434   402.3    9.083      37.063
2022    2        4     3  30    6.7487   402.4    9.087      37.103
2022    2        4     3  36    6.7539   402.5    9.091      37.144
2022    2        4     3  41    6.7591   402.5    9.094      37.184
2022    2        4     3  46    6.7642   402.6    9.098      37.223
2022    2        4     3  51    6.7694   402.6    9.101      37.263
2022    2        4     3  57    6.7745   402.7    9.104      37.301
2022    2        4     4   2    6.7796   402.8    9.106      37.340
2022    2        4     4   7    6.7846   402.8    9.109      37.377
2022    2        4     4  13    6.7896   402.9    9.112      37.415
2022    2        4     4  18    6.7947   403.0    9.114      37.452
2022    2        4     4  23    6.7997   403.0    9.116      37.489
2022    2        4     4  28    6.8047   403.1    9.118      37.525
2022    2        4     4  34    6.8097   403.2    9.120      37.561
2022    2        4     4  39    6.8146   403.2    9.122      37.596
2022    2        4     4  44    6.8196   403.3    9.124      37.632
2022    2        4     4  50    6.8246   403.4    9.126      37.667
2022    2        4     4  55    6.8295   403.4    9.128      37.701
2022    2        4     5   0    6.8344   403.5    9.129      37.735
2022    2        4     5   6    6.8394   403.5    9.131      37.769
2022    2        4     5  11    6.8443   403.6    9.133      37.803
2022    2        4     5  16    6.8492   403.7    9.134      37.837
2022    2        4     5  21    6.8541   403.7    9.136      37.870
2022    2        4     5  27    6.8591   403.8    9.137      37.903
2022    2        4     5  32    6.8640   403.9    9.139      37.935
2022    2        4     5  37    6.8689   403.9    9.140      37.968
2022    2        4     5  43    6.8738   404.0    9.141      38.000
2022    2        4     5  48    6.8788   404.0    9.143      38.032
2022    2        4     5  53    6.8837   404.1    9.144      38.064
2022    2        4     5  59    6.8886   404.2    9.146      38.095
2022    2        4     6   4    6.8936   404.2    9.147      38.127
2022    2        4     6   9    6.8986   404.3    9.148      38.158
2022    2        4     6  14    6.9035   404.4    9.150      38.190
2022    2        4     6  20    6.9085   404.4    9.151      38.221
2022    2        4     6  25    6.9135   404.5    9.153      38.252
2022    2        4     6  30    6.9185   404.6    9.154      38.283
2022    2        4     6  36    6.9235   404.6    9.156      38.315
2022    2        4     6  41    6.9285   404.7    9.157      38.346
2022    2        4     6  46    6.9336   404.7    9.159      38.377
2022    2        4     6  52    6.9386   404.8    9.161      38.409
2022    2        4     6  57    6.9437   404.9    9.163      38.440
2022    2        4     7   2    6.9488   404.9    9.165      38.472
2022    2        4     7   7    6.9539   405.0    9.167      38.504
2022    2        4     7  13    6.9590   405.1    9.169      38.535
2022    2        4     7  18    6.9641   405.1    9.171      38.568
2022    2        4     7  23    6.9692   405.2    9.173      38.600
2022    2        4     7  29    6.9743   405.3    9.175      38.633
2022    2        4     7  34    6.9795   405.3    9.178      38.666
2022    2        4     7  39    6.9846   405.4    9.180      38.699
2022    2        4     7  45    6.9898   405.5    9.183      38.733
2022    2        4     7  50    6.9949   405.5    9.186      38.767
2022    2        4     7  55    7.0001   405.6    9.189      38.801
2022    2        4     8   0    7.0052   405.7    9.192      38.836
2022    2        4     8   6    7.0104   405.8    9.195      38.872
2022    2        4     8  11    7.0156   405.8    9.198      38.908
2022    2        4     8  16    7.0207   405.9    9.202      38.945
2022    2        4     8  22    7.0259   406.0    9.205      38.982
2022    2        4     8  27    7.0311   406.0    9.209      39.019
2022    2        4     8  32    7.0363   406.1    9.213      39.057
2022    2        4     8  38    7.0415   406.2    9.217      39.095
2022    2        4     8  43    7.0467   406.3    9.221      39.134
2022    2        4     8  48    7.0518   406.4    9.225      39.174
2022    2        4     8  53    7.0570   406.4    9.229      39.216
2022    2        4     8  59    7.0620   406.5    9.232      39.258
2022    2        4     9   4    7.0671   406.6    9.236      39.302
2022    2        4     9   9    7.0720   406.7    9.239      39.347
2022    2        4     9  15    7.0769   406.8    9.242      39.392
2022    2        4     9  20    7.0818   406.9    9.245      39.438
2022    2        4     9  25    7.0866   407.0    9.248      39.483
2022    2        4     9  31    7.0913   407.1    9.251      39.528
2022    2        4     9  36    7.0960   407.2    9.254      39.572
2022    2        4     9  41    7.1006   407.3    9.256      39.617
2022    2        4     9  46    7.1052   407.4    9.258      39.661
2022    2        4     9  52    7.1097   407.5    9.260      39.705
2022    2        4     9  57    7.1141   407.6    9.262      39.749
2022    2        4    10   2    7.1186   407.7    9.264      39.792
2022    2        4    10   8    7.1230   407.7    9.265      39.836
2022    2        4    10  13    7.1273   407.8    9.267      39.879
2022    2        4    10  18    7.1317   407.9    9.268      39.922
2022    2        4    10  23    7.1360   408.0    9.269      39.965
2022    2        4    10  29    7.1402   408.1    9.270      40.007
2022    2        4    10  34    7.1445   408.2    9.271      40.050
2022    2        4    10  39    7.1487   408.3    9.272      40.092
2022    2        4    10  45    7.1528   408.5    9.273      40.133
2022    2        4    10  50    7.1569   408.6    9.273      40.175
2022    2        4    10  55    7.1610   408.7    9.274      40.216
2022    2        4    11   1    7.1650   408.8    9.274      40.256
2022    2        4    11   6    7.1690   408.9    9.274      40.296
2022    2        4    11  11    7.1730   409.0    9.274      40.335
2022    2        4    11  16    7.1769   409.1    9.274      40.373
2022    2        4    11  22    7.1808   409.2    9.273      40.411
2022    2        4    11  27    7.1847   409.3    9.273      40.448
2022    2        4    11  32    7.1885   409.4    9.272      40.484
2022    2        4    11  38    7.1923   409.5    9.271      40.520
2022    2        4    11  43    7.1961   409.6    9.270      40.556
2022    2        4    11  48    7.1998   409.7    9.269      40.591
2022    2        4    11  54    7.2035   409.8    9.268      40.625
2022    2        4    11  59    7.2073   409.9    9.267      40.659
2022    2        4    12   4    7.2110   410.0    9.266      40.693
2022    2        4    12   9    7.2146   410.1    9.265      40.726
2022    2        4    12  15    7.2183   410.2    9.263      40.759
2022    2        4    12  20    7.2220   410.3    9.262      40.792
2022    2        4    12  25    7.2256   410.5    9.261      40.824
2022    2        4    12  31    7.2293   410.6    9.260      40.856
2022    2        4    12  36    7.2329   410.7    9.258      40.888
2022    2        4    12  41    7.2366   410.8    9.257      40.920
2022    2        4    12  47    7.2402   410.9    9.256      40.952
2022    2        4    12  52    7.2439   411.0    9.255      40.983
2022    2        4    12  57    7.2475   411.1    9.253      41.014
2022    2        4    13   2    7.2512   411.2    9.252      41.046
2022    2        4    13   8    7.2548   411.3    9.251      41.077
2022    2        4    13  13    7.2585   411.4    9.250      41.108
2022    2        4    13  18    7.2622   411.5    9.249      41.139
2022    2        4    13  24    7.2659   411.6    9.248      41.170
2022    2        4    13  29    7.2696   411.7    9.248      41.201
2022    2        4    13  34    7.2733   411.8    9.247      41.232
2022    2        4    13  40    7.2771   411.9    9.246      41.263
2022    2        4    13  45    7.2809   412.0    9.246      41.295
2022    2        4    13  50    7.2847   412.1    9.246      41.327
2022    2        4    13  55    7.2885   412.2    9.245      41.359
2022    2        4    14   1    7.2924   412.3    9.245      41.392
2022    2        4    14   6    7.2962   412.4    9.245      41.425
2022    2        4    14  11    7.3002   412.5    9.246      41.459
2022    2        4    14  17    7.3041   412.6    9.246      41.494
2022    2        4    14  22    7.3080   412.7    9.247      41.528
2022    2        4    14  27    7.3120   412.8    9.247      41.563
2022    2        4    14  33    7.3161   412.9    9.248      41.599
2022    2        4    14  38    7.3201   413.0    9.249      41.634
2022    2        4    14  43    7.3241   413.1    9.250      41.671
2022    2        4    14  48    7.3281   413.2    9.251      41.709
2022    2        4    14  54    7.3322   413.3    9.253      41.748
2022    2        4    14  59    7.3362   413.5    9.254      41.788
2022    2        4    15   4    7.3401   413.6    9.255      41.829
2022    2        4    15  10    7.3440   413.7    9.256      41.872
2022    2        4    15  15    7.3479   413.8    9.256      41.915
2022    2        4    15  20    7.3516   413.9    9.257      41.960
2022    2        4    15  26    7.3554   414.1    9.257      42.004
2022    2        4    15  31    7.3590   414.2    9.258      42.048
2022    2        4    15  36    7.3627   414.3    9.258      42.092
2022    2        4    15  41    7.3662   414.4    9.258      42.136
2022    2        4    15  47    7.3697   414.6    9.257      42.179
2022    2        4    15  52    7.3731   414.7    9.257      42.222
2022    2        4    15  57    7.3765   414.8    9.256      42.264
2022    2        4    16   3    7.3798   414.9    9.255      42.306
2022    2        4    16   8    7.3830   415.1    9.254      42.348
2022    2        4    16  13    7.3863   415.2    9.253      42.390
2022    2        4    16  18    7.3895   415.3    9.252      42.431
2022    2        4    16  24    7.3926   415.4    9.251      42.473
2022    2        4    16  29    7.3957   415.5    9.250      42.514
2022    2        4    16  34    7.3988   415.7    9.248      42.555
2022    2        4    16  40    7.4019   415.8    9.247      42.595
2022    2        4    16  45    7.4049   415.9    9.245      42.636
2022    2        4    16  50    7.4079   416.0    9.244      42.677
2022    2        4    16  56    7.4109   416.2    9.242      42.718
2022    2        4    17   1    7.4140   416.3    9.241      42.759
2022    2        4    17   6    7.4170   416.4    9.239      42.800
2022    2        4    17  11    7.4200   416.5    9.237      42.840
2022    2        4    17  17    7.4229   416.7    9.236      42.880
2022    2        4    17  22    7.4259   416.8    9.234      42.921
2022    2        4    17  27    7.4289   416.9    9.233      42.962
2022    2        4    17  33    7.4318   417.0    9.231      43.003
2022    2        4    17  38    7.4347   417.2    9.229      43.044
2022    2        4    17  43    7.4376   417.3    9.227      43.085
2022    2        4    17  49    7.4405   417.4    9.225      43.126
2022    2        4    17  54    7.4433   417.6    9.223      43.167
2022    2        4    17  59    7.4461   417.7    9.221      43.208
2022    2        4    18   4    7.4489   417.9    9.219      43.248
2022    2        4    18  10    7.4516   418.0    9.216      43.288
2022    2        4    18  15    7.4543   418.1    9.214      43.328
2022    2        4    18  20    7.4569   418.3    9.211      43.367
2022    2        4    18  26    7.4596   418.4    9.208      43.405
2022    2        4    18  31    7.4621   418.6    9.205      43.443
2022    2        4    18  36    7.4647   418.7    9.202      43.480
2022    2        4    18  42    7.4672   418.8    9.199      43.517
2022    2        4    18  47    7.4696   419.0    9.195      43.553
2022    2        4    18  52    7.4720   419.1    9.192      43.589
2022    2        4    18  57    7.4744   419.3    9.188      43.624
2022    2        4    19   3    7.4768   419.4    9.184      43.658
2022    2        4    19   8    7.4791   419.6    9.180      43.693
2022    2        4    19  13    7.4814   419.7    9.177      43.727
2022    2        4    19  19    7.4837   419.8    9.173      43.760
2022    2        4    19  24    7.4859   420.0    9.169      43.794
2022    2        4    19  29    7.4882   420.1    9.165      43.826
2022    2        4    19  35    7.4904   420.3    9.161      43.859
2022    2        4    19  40    7.4926   420.4    9.157      43.892
2022    2        4    19  45    7.4948   420.6    9.153      43.924
2022    2        4    19  50    7.4970   420.7    9.149      43.956
2022    2        4    19  56    7.4992   420.8    9.145      43.987
2022    2        4    20   1    7.5013   421.0    9.141      44.019
2022    2        4    20   6    7.5035   421.1    9.137      44.050
2022    2        4    20  12    7.5056   421.3    9.133      44.081
2022    2        4    20  17    7.5077   421.4    9.129      44.113
2022    2        4    20  22    7.5098   421.5    9.125      44.144
2022    2        4    20  28    7.5119   421.7    9.121      44.175
2022    2        4    20  33    7.5140   421.8    9.117      44.205
2022    2        4    20  38    7.5161   422.0    9.114      44.236
2022    2        4    20  43    7.5182   422.1    9.110      44.267
2022    2        4    20  49    7.5203   422.3    9.106      44.297
2022    2        4    20  54    7.5224   422.4    9.103      44.328
2022    2        4    20  59    7.5244   422.5    9.099      44.359
2022    2        4    21   5    7.5265   422.7    9.096      44.390
2022    2        4    21  10    7.5285   422.8    9.093      44.422
2022    2        4    21  15    7.5306   423.0    9.090      44.453
2022    2        4    21  21    7.5326   423.1    9.086      44.485
2022    2        4    21  26    7.5347   423.3    9.083      44.517
2022    2        4    21  31    7.5367   423.4    9.080      44.550
2022    2        4    21  36    7.5387   423.5    9.077      44.583
2022    2        4    21  42    7.5407   423.7    9.075      44.616
2022    2        4    21  47    7.5427   423.8    9.072      44.648
2022    2        4    21  52    7.5447   424.0    9.069      44.681
2022    2        4    21  58    7.5467   424.1    9.067      44.715
2022    2        4    22   3    7.5487   424.3    9.064      44.748
2022    2        4    22   8    7.5506   424.4    9.062      44.782
2022    2        4    22  14    7.5524   424.6    9.059      44.818
2022    2        4    22  19    7.5542   424.7    9.056      44.854
2022    2        4    22  24    7.5560   424.9    9.053      44.891
2022    2        4    22  29    7.5576   425.0    9.050      44.929
2022    2        4    22  35    7.5592   425.2    9.046      44.968
2022    2        4    22  40    7.5607   425.3    9.043      45.007
2022    2        4    22  45    7.5622   425.5    9.039      45.046
2022    2        4    22  51    7.5635   425.7    9.035      45.084
2022    2        4    22  56    7.5648   425.8    9.030      45.122
2022    2        4    23   1    7.5660   426.0    9.026      45.159
2022    2        4    23   6    7.5671   426.1    9.021      45.195
2022    2        4    23  12    7.5682   426.3    9.016      45.231
2022    2        4    23  17    7.5691   426.4    9.010      45.266
2022    2        4    23  22    7.5701   426.6    9.005      45.300
2022    2        4    23  28    7.5709   426.8    8.999      45.334
2022    2        4    23  33    7.5717   426.9    8.993      45.367
2022    2        4    23  38    7.5724   427.1    8.987      45.399
2022    2        4    23  44    7.5731   427.2    8.980      45.431
2022    2        4    23  49    7.5737   427.4    8.974      45.462
2022    2        4    23  54    7.5743   427.6    8.967      45.492
2022    2        4    23  59    7.5748   427.7    8.960      45.523
2022    2        5     0   5    7.5753   427.9    8.953      45.552
2022    2        5     0  10    7.5758   428.0    8.946      45.581
2022    2        5     0  15    7.5762   428.2    8.938      45.609
2022    2        5     0  21    7.5766   428.3    8.931      45.637
2022    2        5     0  26    7.5769   428.5    8.923      45.665
2022    2        5     0  31    7.5772   428.7    8.916      45.692
2022    2        5     0  37    7.5775   428.8    8.908      45.718
2022    2        5     0  42    7.5777   429.0    8.900      45.744
2022    2        5     0  47    7.5779   429.1    8.892      45.769
2022    2        5     0  52    7.5780   429.3    8.884      45.794
2022    2        5     0  58    7.5782   429.4    8.875      45.819
2022    2        5     1   3    7.5782   429.6    8.867      45.843
2022    2        5     1   8    7.5783   429.7    8.859      45.866
2022    2        5     1  14    7.5783   429.9    8.850      45.889
2022    2        5     1  19    7.5784   430.0    8.842      45.912
2022    2        5     1  24    7.5783   430.2    8.833      45.934
2022    2        5     1  30    7.5783   430.4    8.824      45.956
2022    2        5     1  35    7.5782   430.5    8.815      45.977
2022    2        5     1  40    7.5781   430.7    8.806      45.998
2022    2        5     1  45    7.5779   430.8    8.797      46.018
2022    2        5     1  51    7.5777   431.0    8.788      46.038
2022    2        5     1  56    7.5775   431.1    8.779      46.057
2022    2        5     2   1    7.5773   431.3    8.770      46.077
2022    2        5     2   7    7.5770   431.4    8.761      46.095
2022    2        5     2  12    7.5768   431.6    8.752      46.114
2022    2        5     2  17    7.5764   431.7    8.742      46.132
2022    2        5     2  23    7.5761   431.9    8.733      46.149
2022    2        5     2  28    7.5757   432.0    8.723      46.166
2022    2        5     2  33    7.5753   432.2    8.714      46.183
2022    2        5     2  38    7.5749   432.3    8.704      46.199
2022    2        5     2  44    7.5744   432.5    8.695      46.215
2022    2        5     2  49    7.5740   432.6    8.685      46.231
2022    2        5     2  54    7.5735   432.8    8.676      46.246
2022    2        5     3   0    7.5729   432.9    8.666      46.261
2022    2        5     3   5    7.5724   433.1    8.656      46.276
2022    2        5     3  10    7.5718   433.2    8.647      46.290
2022    2        5     3  15    7.5712   433.4    8.637      46.304
2022    2        5     3  21    7.5705   433.5    8.627      46.318
2022    2        5     3  26    7.5699   433.7    8.617      46.331
2022    2        5     3  31    7.5692   433.8    8.607      46.344
2022    2        5     3  37    7.5685   434.0    8.598      46.357
2022    2        5     3  42    7.5678   434.1    8.588      46.370
2022    2        5     3  47    7.5670   434.3    8.578      46.382
2022    2        5     3  53    7.5663   434.4    8.568      46.394
2022    2        5     3  58    7.5655   434.5    8.558      46.406
2022    2        5     4   3    7.5647   434.7    8.549      46.417
2022    2        5     4   8    7.5638   434.8    8.539      46.429
2022    2        5     4  14    7.5630   435.0    8.529      46.440
2022    2        5     4  19    7.5621   435.1    8.519      46.451
2022    2        5     4  24    7.5612   435.3    8.510      46.462
2022    2        5     4  30    7.5602   435.4    8.500      46.473
2022    2        5     4  35    7.5593   435.5    8.490      46.483
2022    2        5     4  40    7.5583   435.7    8.480      46.494
2022    2        5     4  46    7.5572   435.8    8.471      46.504
2022    2        5     4  51    7.5562   436.0    8.461      46.514
2022    2        5     4  56    7.5551   436.1    8.451      46.524
2022    2        5     5   1    7.5539   436.2    8.442      46.533
2022    2        5     5   7    7.5527   436.4    8.432      46.543
2022    2        5     5  12    7.5515   436.5    8.422      46.552
2022    2        5     5  17    7.5503   436.7    8.412      46.562
2022    2        5     5  23    7.5490   436.8    8.403      46.571
2022    2        5     5  28    7.5477   436.9    8.393      46.580
2022    2        5     5  33    7.5464   437.1    8.383      46.588
2022    2        5     5  39    7.5450   437.2    8.373      46.597
2022    2        5     5  44    7.5436   437.3    8.364      46.605
2022    2        5     5  49    7.5421   437.5    8.354      46.613
2022    2        5     5  54    7.5406   437.6    8.344      46.621
2022    2        5     6   0    7.5391   437.7    8.334      46.628
2022    2        5     6   5    7.5376   437.9    8.324      46.636
2022    2        5     6  10    7.5359   438.0    8.315      46.642
2022    2        5     6  16    7.5343   438.1    8.305      46.649
2022    2        5     6  21    7.5327   438.2    8.295      46.655
2022    2        5     6  26    7.5310   438.4    8.285      46.661
2022    2        5     6  32    7.5293   438.5    8.275      46.667
2022    2        5     6  37    7.5275   438.6    8.265      46.672
2022    2        5     6  42    7.5258   438.8    8.256      46.677
2022    2        5     6  47    7.5240   438.9    8.246      46.681
2022    2        5     6  53    7.5221   439.0    8.236      46.685
2022    2        5     6  58    7.5203   439.1    8.226      46.689
2022    2        5     7   3    7.5184   439.3    8.217      46.693
2022    2        5     7   9    7.5165   439.4    8.207      46.696
2022    2        5     7  14    7.5145   439.5    8.197      46.699
2022    2        5     7  19    7.5126   439.6    8.188      46.701
2022    2        5     7  25    7.5106   439.7    8.178      46.703
2022    2        5     7  30    7.5086   439.9    8.169      46.705
2022    2        5     7  35    7.5065   440.0    8.159      46.707
2022    2        5     7  40    7.5045   440.1    8.150      46.708
2022    2        5     7  46    7.5023   440.2    8.140      46.709
2022    2        5     7  51    7.5003   440.3    8.131      46.710
2022    2        5     7  56    7.4981   440.4    8.122      46.710
2022    2        5     8   2    7.4960   440.5    8.113      46.711
2022    2        5     8   7    7.4938   440.7    8.104      46.711
2022    2        5     8  12    7.4916   440.8    8.094      46.711
2022    2        5     8  18    7.4894   440.9    8.085      46.710
2022    2        5     8  23    7.4872   441.0    8.077      46.710
2022    2        5     8  28    7.4849   441.1    8.068      46.709
2022    2        5     8  33    7.4827   441.2    8.059      46.708
2022    2        5     8  39    7.4804   441.3    8.050      46.707
2022    2        5     8  44    7.4782   441.4    8.041      46.706
2022    2        5     8  49    7.4759   441.5    8.033      46.705
2022    2        5     8  55    7.4736   441.6    8.024      46.704
2022    2        5     9   0    7.4713   441.7    8.016      46.702
2022    2        5     9   5    7.4690   441.9    8.007      46.700
2022    2        5     9  11    7.4667   442.0    7.999      46.699
2022    2        5     9  16    7.4643   442.1    7.991      46.697
2022    2        5     9  21    7.4620   442.2    7.983      46.695
2022    2        5     9  26    7.4597   442.3    7.974      46.693
2022    2        5     9  32    7.4573   442.4    7.966      46.691
2022    2        5     9  37    7.4549   442.5    7.958      46.689
2022    2        5     9  42    7.4525   442.6    7.950      46.687
2022    2        5     9  48    7.4502   442.7    7.942      46.684
2022    2        5     9  53    7.4478   442.8    7.934      46.682
2022    2        5     9  58    7.4454   442.9    7.926      46.679
2022    2        5    10   3    7.4429   443.0    7.918      46.677
2022    2        5    10   9    7.4405   443.0    7.910      46.674
2022    2        5    10  14    7.4381   443.1    7.902      46.671
2022    2        5    10  19    7.4356   443.2    7.894      46.667
2022    2        5    10  25    7.4332   443.3    7.886      46.664
2022    2        5    10  30    7.4307   443.4    7.878      46.660
2022    2        5    10  35    7.4282   443.5    7.870      46.657
2022    2        5    10  41    7.4257   443.6    7.862      46.653
2022    2        5    10  46    7.4232   443.7    7.854      46.648
2022    2        5    10  51    7.4207   443.8    7.847      46.644
2022    2        5    10  56    7.4182   443.9    7.839      46.639
2022    2        5    11   2    7.4157   444.0    7.831      46.635
2022    2        5    11   7    7.4132   444.0    7.823      46.630
2022    2        5    11  12    7.4106   444.1    7.815      46.624
2022    2        5    11  18    7.4081   444.2    7.807      46.619
2022    2        5    11  23    7.4056   444.3    7.800      46.614
2022    2        5    11  28    7.4030   444.4    7.792      46.608
2022    2        5    11  34    7.4005   444.5    7.784      46.602
2022    2        5    11  39    7.3980   444.5    7.776      46.596
2022    2        5    11  44    7.3954   444.6    7.769      46.590
2022    2        5    11  49    7.3929   444.7    7.761      46.583
2022    2        5    11  55    7.3904   444.8    7.753      46.577
2022    2        5    12   0    7.3879   444.9    7.746      46.571
2022    2        5    12   5    7.3853   444.9    7.738      46.564
2022    2        5    12  11    7.3828   445.0    7.731      46.557
2022    2        5    12  16    7.3803   445.1    7.723      46.551
2022    2        5    12  21    7.3778   445.2    7.716      46.544
2022    2        5    12  27    7.3753   445.3    7.708      46.538
2022    2        5    12  32    7.3727   445.3    7.701      46.531
2022    2        5    12  37    7.3702   445.4    7.694      46.525
2022    2        5    12  42    7.3677   445.5    7.686      46.518
2022    2        5    12  48    7.3652   445.6    7.679      46.511
2022    2        5    12  53    7.3626   445.7    7.671      46.505
2022    2        5    12  58    7.3601   445.7    7.664      46.497
2022    2        5    13   4    7.3575   445.8    7.656      46.490
2022    2        5    13   9    7.3549   445.9    7.648      46.482
2022    2        5    13  14    7.3523   446.0    7.641      46.474
2022    2        5    13  20    7.3497   446.0    7.633      46.465
2022    2        5    13  25    7.3471   446.1    7.626      46.457
2022    2        5    13  30    7.3445   446.2    7.618      46.448
2022    2        5    13  35    7.3418   446.3    7.611      46.438
2022    2        5    13  41    7.3392   446.3    7.603      46.429
2022    2        5    13  46    7.3365   446.4    7.595      46.419
2022    2        5    13  51    7.3338   446.5    7.588      46.408
2022    2        5    13  57    7.3312   446.5    7.580      46.398
2022    2        5    14   2    7.3285   446.6    7.573      46.387
2022    2        5    14   7    7.3259   446.7    7.565      46.376
2022    2        5    14  13    7.3232   446.7    7.558      46.364
2022    2        5    14  18    7.3205   446.8    7.550      46.353
2022    2        5    14  23    7.3179   446.9    7.543      46.341
2022    2        5    14  28    7.3152   446.9    7.536      46.329
2022    2        5    14  34    7.3126   447.0    7.529      46.316
2022    2        5    14  39    7.3100   447.1    7.521      46.304
2022    2        5    14  44    7.3073   447.1    7.514      46.291
2022    2        5    14  50    7.3047   447.2    7.507      46.279
2022    2        5    14  55    7.3021   447.2    7.500      46.266
2022    2        5    15   0    7.2995   447.3    7.493      46.252
2022    2        5    15   6    7.2969   447.4    7.487      46.239
2022    2        5    15  11    7.2944   447.4    7.480      46.226
2022    2        5    15  16    7.2918   447.5    7.473      46.213
2022    2        5    15  21    7.2893   447.5    7.467      46.199
2022    2        5    15  27    7.2868   447.6    7.460      46.186
2022    2        5    15  32    7.2843   447.6    7.454      46.172
2022    2        5    15  37    7.2818   447.7    7.448      46.159
2022    2        5    15  43    7.2793   447.7    7.442      46.145
2022    2        5    15  48    7.2769   447.8    7.436      46.132
2022    2        5    15  53    7.2745   447.8    7.430      46.119
2022    2        5    15  58    7.2721   447.9    7.424      46.106
2022    2        5    16   4    7.2697   447.9    7.419      46.093
2022    2        5    16   9    7.2674   448.0    7.413      46.080
2022    2        5    16  14    7.2650   448.0    7.408      46.067
2022    2        5    16  20    7.2627   448.1    7.402      46.055
2022    2        5    16  25    7.2605   448.1    7.397      46.043
2022    2        5    16  30    7.2582   448.2    7.392      46.031
2022    2        5    16  36    7.2560   448.2    7.387      46.019
2022    2        5    16  41    7.2538   448.3    7.382      46.007
2022    2        5    16  46    7.2516   448.3    7.378      45.996
2022    2        5    16  51    7.2495   448.4    7.373      45.985
2022    2        5    16  57    7.2474   448.4    7.369      45.974
2022    2        5    17   2    7.2453   448.4    7.364      45.964
2022    2        5    17   7    7.2432   448.5    7.360      45.954
2022    2        5    17  13    7.2411   448.5    7.356      45.944
2022    2        5    17  18    7.2391   448.6    7.352      45.934
2022    2        5    17  23    7.2371   448.6    7.348      45.925
2022    2        5    17  29    7.2351   448.7    7.344      45.916
2022    2        5    17  34    7.2332   448.7    7.340      45.907
2022    2        5    17  39    7.2312   448.7    7.336      45.898
2022    2        5    17  44    7.2293   448.8    7.332      45.890
2022    2        5    17  50    7.2274   448.8    7.329      45.881
2022    2        5    17  55    7.2255   448.9    7.325      45.873
2022    2        5    18   0    7.2236   448.9    7.322      45.866
2022    2        5    18   6    7.2218   448.9    7.318      45.858
2022    2        5    18  11    7.2199   449.0    7.315      45.851
2022    2        5    18  16    7.2181   449.0    7.311      45.843
2022    2        5    18  22    7.2163   449.1    7.308      45.836
2022    2        5    18  27    7.2145   449.1    7.305      45.829
2022    2        5    18  32    7.2127   449.1    7.301      45.823
2022    2        5    18  37    7.2110   449.2    7.298      45.816
2022    2        5    18  43    7.2093   449.2    7.295      45.810
2022    2        5    18  48    7.2075   449.2    7.292      45.804
2022    2        5    18  53    7.2058   449.3    7.289      45.798
2022    2        5    18  59    7.2042   449.3    7.286      45.792
2022    2        5    19   4    7.2025   449.3    7.283      45.786
2022    2        5    19   9    7.2008   449.4    7.280      45.781
2022    2        5    19  15    7.1992   449.4    7.277      45.776
2022    2        5    19  20    7.1976   449.5    7.274      45.772
2022    2        5    19  25    7.1960   449.5    7.271      45.768
2022    2        5    19  30    7.1944   449.5    7.268      45.764
2022    2        5    19  36    7.1928   449.6    7.265      45.761
2022    2        5    19  41    7.1912   449.6    7.262      45.757
2022    2        5    19  46    7.1896   449.7    7.259      45.753
2022    2        5    19  52    7.1880   449.7    7.255      45.749
2022    2        5    19  57    7.1864   449.7    7.252      45.745
2022    2        5    20   2    7.1848   449.8    7.249      45.741
2022    2        5    20   8    7.1832   449.8    7.246      45.737
2022    2        5    20  13    7.1816   449.9    7.242      45.732
2022    2        5    20  18    7.1800   449.9    7.239      45.727
2022    2        5    20  23    7.1784   450.0    7.236      45.722
2022    2        5    20  29    7.1768   450.0    7.232      45.717
2022    2        5    20  34    7.1752   450.0    7.229      45.712
2022    2        5    20  39    7.1736   450.1    7.225      45.707
2022    2        5    20  45    7.1719   450.1    7.222      45.702
2022    2        5    20  50    7.1703   450.2    7.218      45.696
2022    2        5    20  55    7.1687   450.2    7.215      45.691
2022    2        5    21   1    7.1671   450.2    7.211      45.685
2022    2        5    21   6    7.1655   450.3    7.208      45.679
2022    2        5    21  11    7.1639   450.3    7.204      45.673
2022    2        5    21  16    7.1623   450.4    7.201      45.667
2022    2        5    21  22    7.1607   450.4    7.197      45.661
2022    2        5    21  27    7.1591   450.4    7.194      45.655
2022    2        5    21  32    7.1575   450.5    7.190      45.648
2022    2        5    21  38    7.1559   450.5    7.187      45.642
2022    2        5    21  43    7.1543   450.6    7.183      45.636
2022    2        5    21  48    7.1527   450.6    7.180      45.629
2022    2        5    21  53    7.1511   450.6    7.177      45.623
2022    2        5    21  59    7.1495   450.7    7.173      45.616
2022    2        5    22   4    7.1480   450.7    7.170      45.610
2022    2        5    22   9    7.1464   450.7    7.166      45.603
2022    2        5    22  15    7.1448   450.8    7.163      45.596
2022    2        5    22  20    7.1433   450.8    7.159      45.590
2022    2        5    22  25    7.1417   450.9    7.156      45.583
2022    2        5    22  31    7.1401   450.9    7.153      45.576
2022    2        5    22  36    7.1386   450.9    7.149      45.569
2022    2        5    22  41    7.1370   451.0    7.146      45.563
2022    2        5    22  46    7.1355   451.0    7.143      45.556
2022    2        5    22  52    7.1340   451.0    7.139      45.549
2022    2        5    22  57    7.1325   451.1    7.136      45.542
2022    2        5    23   2    7.1309   451.1    7.133      45.535
2022    2        5    23   8    7.1294   451.2    7.130      45.528
2022    2        5    23  13    7.1279   451.2    7.127      45.522
2022    2        5    23  18    7.1265   451.2    7.124      45.515
2022    2        5    23  24    7.1250   451.3    7.120      45.508
2022    2        5    23  29    7.1235   451.3    7.117      45.502
2022    2        5    23  34    7.1221   451.3    7.114      45.495
2022    2        5    23  39    7.1206   451.4    7.111      45.488
2022    2        5    23  45    7.1192   451.4    7.108      45.482
2022    2        5    23  50    7.1178   451.4    7.105      45.475
2022    2        5    23  55    7.1163   451.5    7.103      45.469
2022    2        6     0   1    7.1150   451.5    7.100      45.463
2022    2        6     0   6    7.1136   451.5    7.097      45.457
2022    2        6     0  11    7.1122   451.6    7.094      45.451
2022    2        6     0  17    7.1108   451.6    7.091      45.445
2022    2        6     0  22    7.1095   451.6    7.089      45.439
2022    2        6     0  27    7.1081   451.7    7.086      45.433
2022    2        6     0  32    7.1068   451.7    7.083      45.427
2022    2        6     0  38    7.1055   451.7    7.081      45.422
2022    2        6     0  43    7.1042   451.8    7.078      45.416
2022    2        6     0  48    7.1029   451.8    7.075      45.411
2022    2        6     0  54    7.1016   451.8    7.073      45.406
2022    2        6     0  59    7.1003   451.8    7.070      45.400
2022    2        6     1   4    7.0991   451.9    7.068      45.395
2022    2        6     1  10    7.0978   451.9    7.065      45.390
2022    2        6     1  15    7.0966   451.9    7.063      45.386
2022    2        6     1  20    7.0954   452.0    7.060      45.381
2022    2        6     1  25    7.0942   452.0    7.057      45.376
2022    2        6     1  31    7.0930   452.0    7.055      45.371
2022    2        6     1  36    7.0918   452.1    7.053      45.367
2022    2        6     1  41    7.0906   452.1    7.050      45.362
2022    2        6     1  47    7.0894   452.1    7.048      45.358
2022    2        6     1  52    7.0882   452.1    7.045      45.354
2022    2        6     1  57    7.0870   452.2    7.043      45.349
2022    2        6     2   3    7.0859   452.2    7.040      45.345
2022    2        6     2   8    7.0847   452.2    7.038      45.341
2022    2        6     2  13    7.0836   452.3    7.035      45.337
2022    2        6     2  18    7.0824   452.3    7.033      45.333
2022    2        6     2  24    7.0813   452.3    7.030      45.330
2022    2        6     2  29    7.0802   452.3    7.028      45.326
2022    2        6     2  34    7.0791   452.4    7.025      45.322
2022    2        6     2  40    7.0780   452.4    7.023      45.319
2022    2        6     2  45    7.0768   452.4    7.020      45.315
2022    2        6     2  50    7.0757   452.5    7.018      45.311
2022    2        6     2  56    7.0746   452.5    7.015      45.307
2022    2        6     3   1    7.0735   452.5    7.013      45.304
2022    2        6     3   6    7.0724   452.5    7.010      45.300
2022    2        6     3  11    7.0713   452.6    7.008      45.297
2022    2        6     3  17    7.0702   452.6    7.005      45.293
2022    2        6     3  22    7.0692   452.6    7.003      45.289
2022    2        6     3  27    7.0681   452.6    7.000      45.286
2022    2        6     3  33    7.0670   452.7    6.997      45.282
2022    2        6     3  38    7.0659   452.7    6.995      45.279
2022    2        6     3  43    7.0649   452.7    6.992      45.275
2022    2        6     3  48    7.0638   452.7    6.990      45.272
2022    2        6     3  54    7.0628   452.8    6.987      45.268
2022    2        6     3  59    7.0617   452.8    6.985      45.265
2022    2        6     4   4    7.0606   452.8    6.982      45.261
2022    2        6     4  10    7.0596   452.9    6.980      45.258
2022    2        6     4  15    7.0586   452.9    6.977      45.255
2022    2        6     4  20    7.0575   452.9    6.975      45.251
2022    2        6     4  26    7.0565   452.9    6.973      45.248
2022    2        6     4  31    7.0555   453.0    6.970      45.245
2022    2        6     4  36    7.0544   453.0    6.968      45.242
2022    2        6     4  41    7.0534   453.0    6.965      45.238
2022    2        6     4  47    7.0524   453.0    6.963      45.235
2022    2        6     4  52    7.0514   453.1    6.961      45.232
2022    2        6     4  57    7.0503   453.1    6.958      45.229
2022    2        6     5   3    7.0493   453.1    6.956      45.226
2022    2        6     5   8    7.0483   453.1    6.954      45.223
2022    2        6     5  13    7.0473   453.2    6.951      45.221
2022    2        6     5  19    7.0463   453.2    6.949      45.218
2022    2        6     5  24    7.0453   453.2    6.947      45.215
2022    2        6     5  29    7.0443   453.2    6.944      45.212
2022    2        6     5  34    7.0433   453.3    6.942      45.209
2022    2        6     5  40    7.0423   453.3    6.940      45.207
2022    2        6     5  45    7.0413   453.3    6.938      45.204
2022    2        6     5  50    7.0403   453.4    6.936      45.202
2022    2        6     5  56    7.0393   453.4    6.933      45.199
2022    2        6     6   1    7.0383   453.4    6.931      45.196
2022    2        6     6   6    7.0373   453.4    6.929      45.194
2022    2        6     6  12    7.0363   453.5    6.927      45.191
2022    2        6     6  17    7.0354   453.5    6.925      45.189
2022    2        6     6  22    7.0344   453.5    6.923      45.186
2022    2        6     6  27    7.0334   453.5    6.920      45.184
2022    2        6     6  33    7.0324   453.6    6.918      45.181
2022    2        6     6  38    7.0314   453.6    6.916      45.179
2022    2        6     6  43    7.0304   453.6    6.914      45.176
2022    2        6     6  49    7.0295   453.6    6.912      45.174
2022    2        6     6  54    7.0285   453.7    6.910      45.171
2022    2        6     6  59    7.0275   453.7    6.908      45.169
2022    2        6     7   5    7.0265   453.7    6.906      45.166
2022    2        6     7  10    7.0256   453.8    6.904      45.164
2022    2        6     7  15    7.0246   453.8    6.902      45.161
2022    2        6     7  20    7.0236   453.8    6.900      45.159
2022    2        6     7  26    7.0227   453.8    6.897      45.156
2022    2        6     7  31    7.0217   453.9    6.895      45.154
2022    2        6     7  36    7.0208   453.9    6.893      45.151
2022    2        6     7  42    7.0198   453.9    6.891      45.148
2022    2        6     7  47    7.0189   453.9    6.889      45.146
2022    2        6     7  52    7.0179   454.0    6.887      45.143
2022    2        6     7  58    7.0170   454.0    6.885      45.141
2022    2        6     8   3    7.0161   454.0    6.883      45.138
2022    2        6     8   8    7.0152   454.0    6.881      45.136
2022    2        6     8  13    7.0142   454.1    6.879      45.133
2022    2        6     8  19    7.0133   454.1    6.877      45.131
2022    2        6     8  24    7.0124   454.1    6.875      45.128
2022    2        6     8  29    7.0115   454.1    6.873      45.126
2022    2        6     8  35    7.0106   454.2    6.871      45.123
2022    2        6     8  40    7.0097   454.2    6.869      45.121
2022    2        6     8  45    7.0088   454.2    6.867      45.118
2022    2        6     8  51    7.0080   454.2    6.865      45.116
2022    2        6     8  56    7.0071   454.3    6.863      45.114
2022    2        6     9   1    7.0062   454.3    6.861      45.111
2022    2        6     9   6    7.0054   454.3    6.859      45.109
2022    2        6     9  12    7.0045   454.3    6.857      45.107
2022    2        6     9  17    7.0037   454.4    6.855      45.105
2022    2        6     9  22    7.0028   454.4    6.853      45.103
2022    2        6     9  28    7.0020   454.4    6.851      45.101
2022    2        6     9  33    7.0012   454.4    6.849      45.099
2022    2        6     9  38    7.0004   454.5    6.848      45.097
2022    2        6     9  43    6.9996   454.5    6.846      45.095
2022    2        6     9  49    6.9987   454.5    6.844      45.093
2022    2        6     9  54    6.9979   454.5    6.842      45.092
2022    2        6     9  59    6.9971   454.5    6.840      45.090
2022    2        6    10   5    6.9963   454.6    6.838      45.088
2022    2        6    10  10    6.9956   454.6    6.836      45.087
2022    2        6    10  15    6.9948   454.6    6.834      45.086
2022    2        6    10  21    6.9940   454.6    6.833      45.084
2022    2        6    10  26    6.9932   454.7    6.831      45.083
2022    2        6    10  31    6.9925   454.7    6.829      45.082
2022    2        6    10  36    6.9917   454.7    6.827      45.081
2022    2        6    10  42    6.9909   454.7    6.825      45.080
2022    2        6    10  47    6.9902   454.8    6.824      45.079
2022    2        6    10  52    6.9894   454.8    6.822      45.078
2022    2        6    10  58    6.9887   454.8    6.820      45.077
2022    2        6    11   3    6.9879   454.8    6.818      45.077
2022    2        6    11   8    6.9872   454.9    6.817      45.076
2022    2        6    11  14    6.9864   454.9    6.815      45.076
2022    2        6    11  19    6.9857   454.9    6.813      45.075
2022    2        6    11  24    6.9850   454.9    6.811      45.075
2022    2        6    11  29    6.9842   455.0    6.810      45.075
2022    2        6    11  35    6.9835   455.0    6.808      45.075
2022    2        6    11  40    6.9828   455.0    6.806      45.075
2022    2        6    11  45    6.9820   455.0    6.805      45.075
2022    2        6    11  51    6.9813   455.1    6.803      45.075
2022    2        6    11  56    6.9806   455.1    6.801      45.075
2022    2        6    12   1    6.9798   455.1    6.799      45.075
2022    2        6    12   7    6.9791   455.1    6.798      45.075
2022    2        6    12  12    6.9784   455.2    6.796      45.076
2022    2        6    12  17    6.9776   455.2    6.794      45.076
2022    2        6    12  22    6.9769   455.2    6.793      45.077
2022    2        6    12  28    6.9762   455.3    6.791      45.077
2022    2        6    12  33    6.9754   455.3    6.789      45.078
2022    2        6    12  38    6.9747   455.3    6.788      45.078
2022    2        6    12  44    6.9740   455.3    6.786      45.079
2022    2        6    12  49    6.9732   455.4    6.784      45.080
2022    2        6    12  54    6.9725   455.4    6.783      45.080
2022    2        6    13   0    6.9717   455.4    6.781      45.081
2022    2        6    13   5    6.9710   455.4    6.779      45.082
2022    2        6    13  10    6.9702   455.5    6.778      45.082
2022    2        6    13  15    6.9695   455.5    6.776      45.083
2022    2        6    13  21    6.9687   455.5    6.774      45.084
2022    2        6    13  26    6.9680   455.5    6.773      45.085
2022    2        6    13  31    6.9672   455.6    6.771      45.086
2022    2        6    13  37    6.9664   455.6    6.769      45.086
2022    2        6    13  42    6.9657   455.6    6.768      45.087
2022    2        6    13  47    6.9649   455.7    6.766      45.088
2022    2        6    13  53    6.9642   455.7    6.764      45.088
2022    2        6    13  58    6.9634   455.7    6.763      45.089
2022    2        6    14   3    6.9626   455.7    6.761      45.090
2022    2        6    14   8    6.9619   455.8    6.759      45.090
2022    2        6    14  14    6.9611   455.8    6.758      45.091
2022    2        6    14  19    6.9603   455.8    6.756      45.092
2022    2        6    14  24    6.9596   455.8    6.754      45.092
2022    2        6    14  30    6.9588   455.9    6.753      45.093
2022    2        6    14  35    6.9580   455.9    6.751      45.093
2022    2        6    14  40    6.9572   455.9    6.749      45.094
2022    2        6    14  46    6.9565   455.9    6.748      45.094
2022    2        6    14  51    6.9557   456.0    6.746      45.095
2022    2        6    14  56    6.9549   456.0    6.744      45.095
2022    2        6    15   1    6.9542   456.0    6.743      45.096
2022    2        6    15   7    6.9534   456.1    6.741      45.096
2022    2        6    15  12    6.9527   456.1    6.740      45.096
2022    2        6    15  17    6.9519   456.1    6.738      45.097
2022    2        6    15  23    6.9511   456.1    6.736      45.097
2022    2        6    15  28    6.9504   456.2    6.735      45.097
2022    2        6    15  33    6.9496   456.2    6.733      45.097
2022    2        6    15  39    6.9489   456.2    6.731      45.098
2022    2        6    15  44    6.9482   456.2    6.730      45.098
2022    2        6    15  49    6.9474   456.3    6.728      45.098
2022    2        6    15  54    6.9467   456.3    6.727      45.099
2022    2        6    16   0    6.9459   456.3    6.725      45.099
2022    2        6    16   5    6.9452   456.3    6.723      45.099
2022    2        6    16  10    6.9445   456.4    6.722      45.099
2022    2        6    16  16    6.9438   456.4    6.720      45.099
2022    2        6    16  21    6.9431   456.4    6.719      45.100
2022    2        6    16  26    6.9424   456.4    6.717      45.100
2022    2        6    16  32    6.9416   456.5    6.715      45.100
2022    2        6    16  37    6.9409   456.5    6.714      45.100
2022    2        6    16  42    6.9402   456.5    6.712      45.100
2022    2        6    16  47    6.9395   456.6    6.711      45.100
2022    2        6    16  53    6.9389   456.6    6.709      45.101
2022    2        6    16  58    6.9382   456.6    6.707      45.101
2022    2        6    17   3    6.9375   456.6    6.706      45.101
2022    2        6    17   9    6.9368   456.7    6.704      45.102
2022    2        6    17  14    6.9361   456.7    6.702      45.102
2022    2        6    17  19    6.9355   456.7    6.701      45.102
2022    2        6    17  24    6.9348   456.7    6.699      45.102
2022    2        6    17  30    6.9341   456.8    6.698      45.103
2022    2        6    17  35    6.9335   456.8    6.696      45.103
2022    2        6    17  40    6.9328   456.8    6.694      45.104
2022    2        6    17  46    6.9322   456.8    6.693      45.104
2022    2        6    17  51    6.9315   456.9    6.691      45.105
2022    2        6    17  56    6.9309   456.9    6.689      45.105
2022    2        6    18   2    6.9303   456.9    6.688      45.106
2022    2        6    18   7    6.9296   457.0    6.686      45.107
2022    2        6    18  12    6.9290   457.0    6.684      45.107
2022    2        6    18  17    6.9283   457.0    6.683      45.108
2022    2        6    18  23    6.9277   457.0    6.681      45.109
2022    2        6    18  28    6.9271   457.1    6.680      45.110
2022    2        6    18  33    6.9264   457.1    6.678      45.111
2022    2        6    18  39    6.9258   457.1    6.676      45.112
2022    2        6    18  44    6.9252   457.1    6.675      45.113
2022    2        6    18  49    6.9246   457.2    6.673      45.114
2022    2        6    18  55    6.9240   457.2    6.672      45.116
2022    2        6    19   0    6.9234   457.2    6.670      45.117
2022    2        6    19   5    6.9227   457.3    6.668      45.119
2022    2        6    19  10    6.9221   457.3    6.667      45.120
2022    2        6    19  16    6.9215   457.3    6.665      45.122
2022    2        6    19  21    6.9209   457.3    6.664      45.124
2022    2        6    19  26    6.9203   457.4    6.662      45.126
2022    2        6    19  32    6.9196   457.4    6.661      45.127
2022    2        6    19  37    6.9190   457.4    6.659      45.130
2022    2        6    19  42    6.9184   457.5    6.658      45.132
2022    2        6    19  48    6.9178   457.5    6.656      45.134
2022    2        6    19  53    6.9172   457.5    6.655      45.136
2022    2        6    19  58    6.9165   457.5    6.653      45.139
2022    2        6    20   3    6.9159   457.6    6.652      45.141
2022    2        6    20   9    6.9153   457.6    6.650      45.144
2022    2        6    20  14    6.9147   457.6    6.649      45.146
2022    2        6    20  19    6.9141   457.7    6.647      45.149
2022    2        6    20  25    6.9135   457.7    6.646      45.151
2022    2        6    20  30    6.9129   457.7    6.644      45.154
2022    2        6    20  35    6.9122   457.8    6.643      45.157
2022    2        6    20  41    6.9116   457.8    6.642      45.160
2022    2        6    20  46    6.9110   457.8    6.640      45.164
2022    2        6    20  51    6.9103   457.8    6.639      45.167
2022    2        6    20  56    6.9097   457.9    6.637      45.171
2022    2        6    21   2    6.9090   457.9    6.636      45.174
2022    2        6    21   7    6.9084   457.9    6.634      45.178
2022    2        6    21  12    6.9077   458.0    6.633      45.182
2022    2        6    21  18    6.9070   458.0    6.631      45.185
2022    2        6    21  23    6.9063   458.1    6.629      45.189
2022    2        6    21  28    6.9057   458.1    6.628      45.192
2022    2        6    21  34    6.9050   458.1    6.626      45.195
2022    2        6    21  39    6.9043   458.2    6.624      45.197
2022    2        6    21  44    6.9036   458.2    6.623      45.200
2022    2        6    21  49    6.9028   458.2    6.621      45.202
2022    2        6    21  55    6.9021   458.3    6.619      45.204
2022    2        6    22   0    6.9014   458.3    6.617      45.206
2022    2        6    22   5    6.9007   458.3    6.615      45.208
2022    2        6    22  11    6.8999   458.4    6.613      45.210
2022    2        6    22  16    6.8992   458.4    6.612      45.212
2022    2        6    22  21    6.8985   458.4    6.610      45.213
2022    2        6    22  27    6.8977   458.5    6.608      45.214
2022    2        6    22  32    6.8970   458.5    6.606      45.216
2022    2        6    22  37    6.8962   458.5    6.604      45.217
2022    2        6    22  42    6.8955   458.6    6.602      45.218
2022    2        6    22  48    6.8948   458.6    6.600      45.219
2022    2        6    22  53    6.8940   458.6    6.598      45.220
2022    2        6    22  58    6.8933   458.7    6.597      45.221
2022    2        6    23   4    6.8925   458.7    6.595      45.222
2022    2        6    23   9    6.8918   458.7    6.593      45.223
2022    2        6    23  14    6.8910   458.8    6.591      45.224
2022    2        6    23  20    6.8903   458.8    6.589      45.225
2022    2        6    23  25    6.8896   458.8    6.587      45.226
2022    2        6    23  30    6.8888   458.9    6.585      45.227
2022    2        6    23  35    6.8881   458.9    6.583      45.228
2022    2        6    23  41    6.8874   458.9    6.582      45.229
2022    2        6    23  46    6.8866   459.0    6.580      45.230
2022    2        6    23  51    6.8859   459.0    6.578      45.231
2022    2        6    23  57    6.8852   459.0    6.576      45.232
2022    2        7     0   2    6.8845   459.1    6.574      45.233
2022    2        7     0   7    6.8837   459.1    6.573      45.235
2022    2        7     0  13    6.8830   459.1    6.571      45.236
2022    2        7     0  18    6.8823   459.2    6.569      45.238
2022    2        7     0  23    6.8815   459.2    6.567      45.239
2022    2        7     0  28    6.8808   459.2    6.566      45.241
2022    2        7     0  34    6.8801   459.3    6.564      45.242
2022    2        7     0  39    6.8794   459.3    6.562      45.244
2022    2        7     0  44    6.8787   459.3    6.561      45.246
2022    2        7     0  50    6.8779   459.4    6.559      45.247
2022    2        7     0  55    6.8772   459.4    6.557      45.249
2022    2        7     1   0    6.8764   459.5    6.556      45.251
2022    2        7     1   5    6.8757   459.5    6.554      45.253
2022    2        7     1  11    6.8750   459.5    6.552      45.255
2022    2        7     1  16    6.8742   459.6    6.551      45.257
2022    2        7     1  21    6.8735   459.6    6.549      45.260
2022    2        7     1  27    6.8727   459.6    6.547      45.262
2022    2        7     1  32    6.8720   459.7    6.546      45.264
2022    2        7     1  37    6.8712   459.7    6.544      45.266
2022    2        7     1  43    6.8704   459.7    6.542      45.269
2022    2        7     1  48    6.8697   459.8    6.541      45.271
2022    2        7     1  53    6.8689   459.8    6.539      45.274
2022    2        7     1  58    6.8681   459.9    6.538      45.276
2022    2        7     2   4    6.8674   459.9    6.536      45.279
2022    2        7     2   9    6.8666   459.9    6.534      45.282
2022    2        7     2  14    6.8658   460.0    6.533      45.284
2022    2        7     2  20    6.8650   460.0    6.531      45.287
2022    2        7     2  25    6.8643   460.0    6.530      45.290
2022    2        7     2  30    6.8635   460.1    6.528      45.293
2022    2        7     2  36    6.8627   460.1    6.526      45.296
2022    2        7     2  41    6.8620   460.1    6.525      45.299
2022    2        7     2  46    6.8612   460.2    6.523      45.302
2022    2        7     2  51    6.8604   460.2    6.522      45.306
2022    2        7     2  57    6.8597   460.2    6.520      45.309
2022    2        7     3   2    6.8589   460.3    6.519      45.312
2022    2        7     3   7    6.8582   460.3    6.517      45.316
2022    2        7     3  13    6.8574   460.4    6.516      45.320
2022    2        7     3  18    6.8567   460.4    6.514      45.324
2022    2        7     3  23    6.8559   460.4    6.513      45.328
2022    2        7     3  29    6.8552   460.5    6.511      45.333
2022    2        7     3  34    6.8544   460.5    6.509      45.337
2022    2        7     3  39    6.8537   460.6    6.508      45.342
2022    2        7     3  44    6.8529   460.6    6.506      45.347
2022    2        7     3  50    6.8521   460.6    6.504      45.352
2022    2        7     3  55    6.8514   460.7    6.503      45.357
2022    2        7     4   0    6.8506   460.7    6.501      45.362
2022    2        7     4   6    6.8498   460.8    6.499      45.367
2022    2        7     4  11    6.8490   460.8    6.498      45.371
2022    2        7     4  16    6.8482   460.8    6.496      45.376
2022    2        7     4  22    6.8474   460.9    6.494      45.381
2022    2        7     4  27    6.8465   460.9    6.492      45.385
2022    2        7     4  32    6.8457   461.0    6.490      45.390
2022    2        7     4  37    6.8449   461.0    6.488      45.395
2022    2        7     4  43    6.8440   461.0    6.487      45.399
2022    2        7     4  48    6.8431   461.1    6.485      45.403
2022    2        7     4  53    6.8423   461.1    6.483      45.407
2022    2        7     4  59    6.8414   461.2    6.481      45.411
2022    2        7     5   4    6.8405   461.2    6.478      45.415
2022    2        7     5   9    6.8396   461.3    6.476      45.418
2022    2        7     5  15    6.8386   461.3    6.474      45.421
2022    2        7     5  20    6.8377   461.3    6.472      45.424
2022    2        7     5  25    6.8368   461.4    6.470      45.427
2022    2        7     5  30    6.8358   461.4    6.468      45.429
2022    2        7     5  36    6.8349   461.5    6.465      45.432
2022    2        7     5  41    6.8339   461.5    6.463      45.434
2022    2        7     5  46    6.8329   461.6    6.461      45.436
2022    2        7     5  52    6.8320   461.6    6.458      45.438
2022    2        7     5  57    6.8310   461.6    6.456      45.440
2022    2        7     6   2    6.8300   461.7    6.454      45.441
2022    2        7     6   8    6.8290   461.7    6.451      45.443
2022    2        7     6  13    6.8280   461.8    6.449      45.444
2022    2        7     6  18    6.8270   461.8    6.447      45.445
2022    2        7     6  23    6.8260   461.8    6.444      45.447
2022    2        7     6  29    6.8250   461.9    6.442      45.448
2022    2        7     6  34    6.8239   461.9    6.440      45.449
2022    2        7     6  39    6.8229   462.0    6.437      45.450
2022    2        7     6  45    6.8219   462.0    6.435      45.451
2022    2        7     6  50    6.8208   462.1    6.432      45.452
2022    2        7     6  55    6.8198   462.1    6.430      45.453
2022    2        7     7   1    6.8187   462.1    6.428      45.453
2022    2        7     7   6    6.8177   462.2    6.425      45.454
2022    2        7     7  11    6.8166   462.2    6.423      45.455
2022    2        7     7  16    6.8155   462.3    6.421      45.456
2022    2        7     7  22    6.8145   462.3    6.418      45.457
2022    2        7     7  27    6.8134   462.3    6.416      45.458
2022    2        7     7  32    6.8123   462.4    6.414      45.459
2022    2        7     7  38    6.8112   462.4    6.411      45.460
2022    2        7     7  43    6.8101   462.5    6.409      45.462
2022    2        7     7  48    6.8090   462.5    6.407      45.463
2022    2        7     7  54    6.8079   462.5    6.405      45.464
2022    2        7     7  59    6.8068   462.6    6.402      45.465
2022    2        7     8   4    6.8057   462.6    6.400      45.467
2022    2        7     8   9    6.8046   462.7    6.398      45.468
2022    2        7     8  15    6.8034   462.7    6.396      45.469
2022    2        7     8  20    6.8023   462.8    6.394      45.471
2022    2        7     8  25    6.8011   462.8    6.392      45.472
2022    2        7     8  31    6.8000   462.8    6.390      45.474
2022    2        7     8  36    6.7988   462.9    6.387      45.475
2022    2        7     8  41    6.7976   462.9    6.385      45.477
2022    2        7     8  47    6.7965   463.0    6.383      45.478
2022    2        7     8  52    6.7953   463.0    6.381      45.480
2022    2        7     8  57    6.7941   463.0    6.379      45.481
2022    2        7     9   2    6.7929   463.1    6.377      45.483
2022    2        7     9   8    6.7917   463.1    6.375      45.485
2022    2        7     9  13    6.7905   463.2    6.373      45.486
2022    2        7     9  18    6.7893   463.2    6.371      45.488
2022    2        7     9  24    6.7881   463.3    6.369      45.489
2022    2        7     9  29    6.7869   463.3    6.367      45.491
2022    2        7     9  34    6.7857   463.3    6.365      45.493
2022    2        7     9  40    6.7845   463.4    6.363      45.494
2022    2        7     9  45    6.7832   463.4    6.361      45.496
2022    2        7     9  50    6.7820   463.5    6.359      45.498
2022    2        7     9  55    6.7808   463.5    6.357      45.499
2022    2        7    10   1    6.7796   463.5    6.355      45.501
2022    2        7    10   6    6.7783   463.6    6.353      45.503
2022    2        7    10  11    6.7771   463.6    6.351      45.505
2022    2        7    10  17    6.7759   463.7    6.349      45.508
2022    2        7    10  22    6.7746   463.7    6.347      45.510
2022    2        7    10  27    6.7734   463.7    6.345      45.513
2022    2        7    10  32    6.7721   463.8    6.343      45.516
2022    2        7    10  38    6.7709   463.8    6.340      45.518
2022    2        7    10  43    6.7697   463.9    6.338      45.521
2022    2        7    10  48    6.7684   463.9    6.336      45.523
2022    2        7    10  54    6.7671   463.9    6.334      45.525
2022    2        7    10  59    6.7658   464.0    6.332      45.528
2022    2        7    11   4    6.7646   464.0    6.329      45.529
2022    2        7    11  10    6.7633   464.1    6.327      45.531
2022    2        7    11  15    6.7620   464.1    6.325      45.533
2022    2        7    11  20    6.7607   464.2    6.322      45.535
2022    2        7    11  25    6.7594   464.2    6.320      45.536
2022    2        7    11  31    6.7580   464.2    6.318      45.537
2022    2        7    11  36    6.7567   464.3    6.315      45.538
2022    2        7    11  41    6.7554   464.3    6.313      45.539
2022    2        7    11  47    6.7541   464.4    6.310      45.541
2022    2        7    11  52    6.7527   464.4    6.308      45.541
2022    2        7    11  57    6.7514   464.4    6.305      45.542
2022    2        7    12   3    6.7500   464.5    6.303      45.543
2022    2        7    12   8    6.7487   464.5    6.301      45.543
2022    2        7    12  13    6.7473   464.5    6.298      45.544
2022    2        7    12  18    6.7460   464.6    6.296      45.544
2022    2        7    12  24    6.7446   464.6    6.293      45.544
2022    2        7    12  29    6.7432   464.7    6.291      45.545
2022    2        7    12  34    6.7419   464.7    6.288      45.545
2022    2        7    12  40    6.7405   464.7    6.286      45.545
2022    2        7    12  45    6.7391   464.8    6.283      45.545
2022    2        7    12  50    6.7377   464.8    6.281      45.545
2022    2        7    12  56    6.7363   464.8    6.278      45.545
2022    2        7    13   1    6.7349   464.9    6.276      45.544
2022    2        7    13   6    6.7335   464.9    6.273      45.544
2022    2        7    13  11    6.7321   465.0    6.271      45.544
2022    2        7    13  17    6.7307   465.0    6.268      45.544
2022    2        7    13  22    6.7293   465.0    6.266      45.543
2022    2        7    13  27    6.7279   465.1    6.263      45.543
2022    2        7    13  33    6.7264   465.1    6.261      45.542
2022    2        7    13  38    6.7250   465.1    6.258      45.542
2022    2        7    13  43    6.7235   465.2    6.256      45.541
2022    2        7    13  49    6.7221   465.2    6.253      45.541
2022    2        7    13  54    6.7206   465.2    6.251      45.540
2022    2        7    13  59    6.7191   465.3    6.249      45.539
2022    2        7    14   4    6.7176   465.3    6.246      45.538
2022    2        7    14  10    6.7161   465.4    6.244      45.538
2022    2        7    14  15    6.7146   465.4    6.241      45.537
2022    2        7    14  20    6.7131   465.4    6.239      45.536
2022    2        7    14  26    6.7116   465.5    6.236      45.535
2022    2        7    14  31    6.7101   465.5    6.234      45.534
2022    2        7    14  36    6.7085   465.5    6.232      45.533
2022    2        7    14  42    6.7070   465.6    6.229      45.532
2022    2        7    14  47    6.7054   465.6    6.227      45.531
2022    2        7    14  52    6.7039   465.6    6.224      45.530
2022    2        7    14  57    6.7023   465.7    6.222      45.528
2022    2        7    15   3    6.7007   465.7    6.219      45.527
2022    2        7    15   8    6.6992   465.7    6.217      45.526
2022    2        7    15  13    6.6975   465.8    6.215      45.524
2022    2        7    15  19    6.6959   465.8    6.212      45.523
2022    2        7    15  24    6.6943   465.8    6.210      45.521
2022    2        7    15  29    6.6927   465.9    6.207      45.519
2022    2        7    15  35    6.6911   465.9    6.205      45.517
2022    2        7    15  40    6.6895   465.9    6.203      45.516
2022    2        7    15  45    6.6878   465.9    6.200      45.514
2022    2        7    15  50    6.6862   466.0    6.198      45.511
2022    2        7    15  56    6.6845   466.0    6.196      45.509
2022    2        7    16   1    6.6829   466.0    6.193      45.507
2022    2        7    16   6    6.6812   466.1    6.191      45.505
2022    2        7    16  12    6.6796   466.1    6.188      45.502
2022    2        7    16  17    6.6779   466.1    6.186      45.499
2022    2        7    16  22    6.6762   466.1    6.184      45.496
2022    2        7    16  28    6.6746   466.2    6.181      45.493
2022    2        7    16  33    6.6729   466.2    6.179      45.490
2022    2        7    16  38    6.6712   466.2    6.176      45.487
2022    2        7    16  43    6.6695   466.3    6.174      45.484
2022    2        7    16  49    6.6678   466.3    6.171      45.481
2022    2        7    16  54    6.6661   466.3    6.169      45.477
2022    2        7    16  59    6.6644   466.3    6.167      45.474
2022    2        7    17   5    6.6627   466.4    6.164      45.470
2022    2        7    17  10    6.6610   466.4    6.162      45.466
2022    2        7    17  15    6.6593   466.4    6.159      45.462
2022    2        7    17  21    6.6576   466.4    6.157      45.458
2022    2        7    17  26    6.6559   466.5    6.154      45.454
2022    2        7    17  31    6.6542   466.5    6.152      45.450
2022    2        7    17  36    6.6525   466.5    6.150      45.446
2022    2        7    17  42    6.6508   466.5    6.147      45.441
2022    2        7    17  47    6.6491   466.5    6.145      45.437
2022    2        7    17  52    6.6474   466.6    6.142      45.433
2022    2        7    17  58    6.6456   466.6    6.140      45.428
2022    2        7    18   3    6.6439   466.6    6.137      45.424
2022    2        7    18   8    6.6422   466.6    6.135      45.419
2022    2        7    18  14    6.6405   466.7    6.133      45.414
2022    2        7    18  19    6.6388   466.7    6.130      45.410
2022    2        7    18  24    6.6371   466.7    6.128      45.405
2022    2        7    18  29    6.6354   466.7    6.125      45.400
2022    2        7    18  35    6.6338   466.7    6.123      45.396
2022    2        7    18  40    6.6321   466.8    6.121      45.391
2022    2        7    18  45    6.6304   466.8    6.118      45.386
2022    2        7    18  51    6.6287   466.8    6.116      45.382
2022    2        7    18  56    6.6271   466.8    6.114      45.377
2022    2        7    19   1    6.6254   466.8    6.112      45.373
2022    2        7    19   7    6.6237   466.9    6.109      45.368
2022    2        7    19  12    6.6221   466.9    6.107      45.364
2022    2        7    19  17    6.6204   466.9    6.105      45.360
2022    2        7    19  22    6.6188   466.9    6.103      45.355
2022    2        7    19  28    6.6172   466.9    6.101      45.351
2022    2        7    19  33    6.6155   467.0    6.098      45.347
2022    2        7    19  38    6.6139   467.0    6.096      45.343
2022    2        7    19  44    6.6123   467.0    6.094      45.339
2022    2        7    19  49    6.6107   467.0    6.092      45.336
2022    2        7    19  54    6.6091   467.0    6.090      45.332
2022    2        7    20   0    6.6075   467.1    6.088      45.328
2022    2        7    20   5    6.6059   467.1    6.086      45.325
2022    2        7    20  10    6.6043   467.1    6.084      45.321
2022    2        7    20  15    6.6028   467.1    6.082      45.318
2022    2        7    20  21    6.6012   467.1    6.080      45.315
2022    2        7    20  26    6.5996   467.1    6.078      45.311
2022    2        7    20  31    6.5980   467.2    6.076      45.308
2022    2        7    20  37    6.5965   467.2    6.075      45.305
2022    2        7    20  42    6.5949   467.2    6.073      45.302
2022    2        7    20  47    6.5934   467.2    6.071      45.299
2022    2        7    20  53    6.5918   467.2    6.069      45.296
2022    2        7    20  58    6.5902   467.2    6.067      45.293
2022    2        7    21   3    6.5887   467.3    6.065      45.291
2022    2        7    21   8    6.5871   467.3    6.064      45.288
2022    2        7    21  14    6.5855   467.3    6.062      45.285
2022    2        7    21  19    6.5839   467.3    6.060      45.282
2022    2        7    21  24    6.5824   467.3    6.058      45.279
2022    2        7    21  30    6.5808   467.3    6.057      45.276
2022    2        7    21  35    6.5792   467.4    6.055      45.273
2022    2        7    21  40    6.5777   467.4    6.053      45.270
2022    2        7    21  46    6.5761   467.4    6.051      45.267
2022    2        7    21  51    6.5745   467.4    6.050      45.264
2022    2        7    21  56    6.5729   467.4    6.048      45.261
2022    2        7    22   1    6.5713   467.4    6.046      45.258
2022    2        7    22   7    6.5697   467.5    6.044      45.254
2022    2        7    22  12    6.5682   467.5    6.042      45.251
2022    2        7    22  17    6.5666   467.5    6.041      45.247
2022    2        7    22  23    6.5650   467.5    6.039      45.243
2022    2        7    22  28    6.5634   467.5    6.037      45.239
2022    2        7    22  33    6.5617   467.5    6.035      45.235
2022    2        7    22  38    6.5602   467.5    6.033      45.231
2022    2        7    22  44    6.5585   467.5    6.032      45.226
2022    2        7    22  49    6.5569   467.6    6.030      45.222
2022    2        7    22  54    6.5553   467.6    6.028      45.217
2022    2        7    23   0    6.5537   467.6    6.026      45.212
2022    2        7    23   5    6.5521   467.6    6.024      45.207
2022    2        7    23  10    6.5505   467.6    6.022      45.201
2022    2        7    23  16    6.5489   467.6    6.020      45.196
2022    2        7    23  21    6.5473   467.6    6.018      45.190
2022    2        7    23  26    6.5456   467.6    6.016      45.185
2022    2        7    23  31    6.5440   467.7    6.015      45.179
2022    2        7    23  37    6.5424   467.7    6.013      45.173
2022    2        7    23  42    6.5408   467.7    6.011      45.166
2022    2        7    23  47    6.5392   467.7    6.009      45.160
2022    2        7    23  53    6.5375   467.7    6.007      45.154
2022    2        7    23  58    6.5359   467.7    6.005      45.147
2022    2        8     0   3    6.5343   467.7    6.003      45.140
2022    2        8     0   9    6.5327   467.7    6.001      45.133
2022    2        8     0  14    6.5310   467.7    5.999      45.127
2022    2        8     0  19    6.5294   467.7    5.997      45.119
2022    2        8     0  24    6.5278   467.7    5.995      45.112
2022    2        8     0  30    6.5262   467.7    5.993      45.105
2022    2        8     0  35    6.5245   467.7    5.991      45.097
2022    2        8     0  40    6.5229   467.7    5.989      45.090
2022    2        8     0  46    6.5213   467.8    5.987      45.082
2022    2        8     0  51    6.5197   467.8    5.985      45.075
2022    2        8     0  56    6.5181   467.8    5.983      45.067
2022    2        8     1   2    6.5165   467.8    5.981      45.059
2022    2        8     1   7    6.5149   467.8    5.979      45.052
2022    2        8     1  12    6.5133   467.8    5.977      45.044
2022    2        8     1  17    6.5117   467.8    5.975      45.036
2022    2        8     1  23    6.5101   467.8    5.974      45.028
2022    2        8     1  28    6.5085   467.8    5.972      45.020
2022    2        8     1  33    6.5069   467.8    5.970      45.012
2022    2        8     1  39    6.5053   467.8    5.968      45.005
2022    2        8     1  44    6.5038   467.8    5.966      44.997
2022    2        8     1  49    6.5022   467.8    5.964      44.989
2022    2        8     1  55    6.5006   467.8    5.963      44.981
2022    2        8     2   0    6.4990   467.8    5.961      44.974
2022    2        8     2   5    6.4975   467.8    5.959      44.966
2022    2        8     2  10    6.4959   467.8    5.957      44.958
2022    2        8     2  16    6.4944   467.8    5.955      44.951
2022    2        8     2  21    6.4928   467.8    5.954      44.943
2022    2        8     2  26    6.4913   467.8    5.952      44.936
2022    2        8     2  32    6.4898   467.8    5.950      44.928
2022    2        8     2  37    6.4882   467.8    5.949      44.921
2022    2        8     2  42    6.4867   467.8    5.947      44.914
2022    2        8     2  48    6.4852   467.8    5.945      44.907
2022    2        8     2  53    6.4837   467.8    5.944      44.900
2022    2        8     2  58    6.4822   467.8    5.942      44.893
2022    2        8     3   3    6.4808   467.8    5.941      44.887
2022    2        8     3   9    6.4793   467.8    5.939      44.880
2022    2        8     3  14    6.4778   467.8    5.938      44.873
2022    2        8     3  19    6.4764   467.8    5.936      44.867
2022    2        8     3  25    6.4749   467.8    5.935      44.861
2022    2        8     3  30    6.4735   467.8    5.933      44.855
2022    2        8     3  35    6.4721   467.8    5.932      44.849
2022    2        8     3  41    6.4706   467.8    5.930      44.843
2022    2        8     3  46    6.4692   467.8    5.929      44.837
2022    2        8     3  51    6.4678   467.8    5.928      44.832
2022    2        8     3  56    6.4664   467.8    5.926      44.826
2022    2        8     4   2    6.4650   467.8    5.925      44.821
2022    2        8     4   7    6.4637   467.8    5.924      44.816
2022    2        8     4  12    6.4623   467.8    5.922      44.811
2022    2        8     4  18    6.4609   467.8    5.921      44.806
2022    2        8     4  23    6.4596   467.8    5.920      44.801
2022    2        8     4  28    6.4582   467.8    5.918      44.796
2022    2        8     4  34    6.4569   467.8    5.917      44.791
2022    2        8     4  39    6.4555   467.8    5.916      44.786
2022    2        8     4  44    6.4542   467.8    5.915      44.782
2022    2        8     4  49    6.4529   467.7    5.913      44.777
2022    2        8     4  55    6.4516   467.7    5.912      44.772
2022    2        8     5   0    6.4502   467.7    5.911      44.768
2022    2        8     5   5    6.4489   467.7    5.910      44.763
2022    2        8     5  11    6.4476   467.7    5.909      44.759
2022    2        8     5  16    6.4463   467.7    5.908      44.755
2022    2        8     5  21    6.4450   467.7    5.906      44.750
2022    2        8     5  27    6.4436   467.7    5.905      44.746
2022    2        8     5  32    6.4423   467.7    5.904      44.741
2022    2        8     5  37    6.4410   467.7    5.903      44.737
2022    2        8     5  42    6.4397   467.7    5.902      44.732
2022    2        8     5  48    6.4384   467.7    5.901      44.728
2022    2        8     5  53    6.4371   467.7    5.900      44.724
2022    2        8     5  58    6.4358   467.7    5.899      44.719
2022    2        8     6   4    6.4345   467.7    5.898      44.714
2022    2        8     6   9    6.4331   467.7    5.897      44.710
2022    2        8     6  14    6.4318   467.7    5.896      44.705
2022    2        8     6  20    6.4305   467.7    5.895      44.701
2022    2        8     6  25    6.4292   467.7    5.894      44.696
2022    2        8     6  30    6.4278   467.7    5.893      44.691
2022    2        8     6  35    6.4265   467.7    5.892      44.687
2022    2        8     6  41    6.4252   467.7    5.891      44.682
2022    2        8     6  46    6.4239   467.7    5.890      44.677
2022    2        8     6  51    6.4225   467.7    5.889      44.672
2022    2        8     6  57    6.4212   467.7    5.888      44.667
2022    2        8     7   2    6.4199   467.7    5.888      44.662
2022    2        8     7   7    6.4185   467.7    5.887      44.657
2022    2        8     7  13    6.4172   467.7    5.886      44.652
2022    2        8     7  18    6.4159   467.7    5.885      44.647
2022    2        8     7  23    6.4145   467.6    5.884      44.642
2022    2        8     7  28    6.4132   467.6    5.883      44.637
2022    2        8     7  34    6.4119   467.6    5.883      44.632
2022    2        8     7  39    6.4105   467.6    5.882      44.627
2022    2        8     7  44    6.4092   467.6    5.881      44.622
2022    2        8     7  50    6.4079   467.6    5.880      44.616
2022    2        8     7  55    6.4066   467.6    5.880      44.611
2022    2        8     8   0    6.4052   467.6    5.879      44.606
2022    2        8     8   6    6.4039   467.6    5.878      44.601
2022    2        8     8  11    6.4026   467.6    5.877      44.595
2022    2        8     8  16    6.4012   467.6    5.877      44.590
2022    2        8     8  21    6.3999   467.6    5.876      44.585
2022    2        8     8  27    6.3986   467.6    5.875      44.579
2022    2        8     8  32    6.3972   467.6    5.874      44.574
2022    2        8     8  37    6.3959   467.6    5.874      44.568
2022    2        8     8  43    6.3945   467.6    5.873      44.563
2022    2        8     8  48    6.3932   467.5    5.872      44.557
2022    2        8     8  53    6.3918   467.5    5.872      44.551
2022    2        8     8  59    6.3905   467.5    5.871      44.545
2022    2        8     9   4    6.3892   467.5    5.870      44.540
2022    2        8     9   9    6.3878   467.5    5.869      44.534
2022    2        8     9  14    6.3865   467.5    5.868      44.528
2022    2        8     9  20    6.3852   467.5    5.867      44.522
2022    2        8     9  25    6.3838   467.5    5.867      44.516
2022    2        8     9  30    6.3825   467.5    5.866      44.510
2022    2        8     9  36    6.3812   467.5    5.865      44.504
2022    2        8     9  41    6.3799   467.4    5.864      44.497
2022    2        8     9  46    6.3785   467.4    5.863      44.491
2022    2        8     9  52    6.3773   467.4    5.862      44.485
2022    2        8     9  57    6.3760   467.4    5.861      44.478
2022    2        8    10   2    6.3747   467.4    5.860      44.472
2022    2        8    10   7    6.3734   467.4    5.859      44.465
2022    2        8    10  13    6.3721   467.4    5.858      44.459
2022    2        8    10  18    6.3709   467.4    5.857      44.452
2022    2        8    10  23    6.3696   467.3    5.856      44.445
2022    2        8    10  29    6.3684   467.3    5.855      44.439
2022    2        8    10  34    6.3672   467.3    5.854      44.432
2022    2        8    10  39    6.3660   467.3    5.853      44.426
2022    2        8    10  45    6.3648   467.3    5.852      44.419
2022    2        8    10  50    6.3636   467.3    5.851      44.412
2022    2        8    10  55    6.3624   467.3    5.850      44.406
2022    2        8    11   0    6.3613   467.2    5.849      44.399
2022    2        8    11   6    6.3601   467.2    5.848      44.392
2022    2        8    11  11    6.3589   467.2    5.847      44.386
2022    2        8    11  16    6.3578   467.2    5.846      44.379
2022    2        8    11  22    6.3567   467.2    5.845      44.373
2022    2        8    11  27    6.3556   467.2    5.844      44.366
2022    2        8    11  32    6.3544   467.2    5.842      44.359
2022    2        8    11  38    6.3533   467.1    5.841      44.352
2022    2        8    11  43    6.3522   467.1    5.840      44.346
2022    2        8    11  48    6.3511   467.1    5.839      44.339
2022    2        8    11  53    6.3500   467.1    5.838      44.332
2022    2        8    11  59    6.3490   467.1    5.837      44.325
2022    2        8    12   4    6.3479   467.1    5.836      44.319
2022    2        8    12   9    6.3468   467.1    5.835      44.312
2022    2        8    12  15    6.3457   467.0    5.834      44.305
2022    2        8    12  20    6.3446   467.0    5.833      44.298
2022    2        8    12  25    6.3436   467.0    5.832      44.292
2022    2        8    12  31    6.3425   467.0    5.831      44.285
2022    2        8    12  36    6.3414   467.0    5.830      44.278
2022    2        8    12  41    6.3404   467.0    5.829      44.272
2022    2        8    12  46    6.3393   467.0    5.828      44.265
2022    2        8    12  52    6.3383   466.9    5.827      44.259
2022    2        8    12  57    6.3372   466.9    5.826      44.252
2022    2        8    13   2    6.3361   466.9    5.825      44.246
2022    2        8    13   8    6.3351   466.9    5.824      44.239
2022    2        8    13  13    6.3340   466.9    5.823      44.233
2022    2        8    13  18    6.3330   466.9    5.822      44.227
2022    2        8    13  24    6.3319   466.8    5.821      44.221
2022    2        8    13  29    6.3309   466.8    5.820      44.215
2022    2        8    13  34    6.3298   466.8    5.819      44.209
2022    2        8    13  39    6.3288   466.8    5.818      44.203
2022    2        8    13  45    6.3277   466.8    5.818      44.197
2022    2        8    13  50    6.3267   466.8    5.817      44.191
2022    2        8    13  55    6.3257   466.7    5.816      44.186
2022    2        8    14   1    6.3246   466.7    5.816      44.180
2022    2        8    14   6    6.3236   466.7    5.815      44.175
2022    2        8    14  11    6.3225   466.7    5.814      44.169
2022    2        8    14  17    6.3215   466.7    5.814      44.164
2022    2        8    14  22    6.3205   466.7    5.813      44.159
2022    2        8    14  27    6.3194   466.6    5.813      44.154
2022    2        8    14  32    6.3184   466.6    5.812      44.149
2022    2        8    14  38    6.3174   466.6    5.812      44.145
2022    2        8    14  43    6.3163   466.6    5.811      44.140
2022    2        8    14  48    6.3153   466.6    5.811      44.135
2022    2        8    14  54    6.3143   466.6    5.811      44.131
2022    2        8    14  59    6.3132   466.6    5.810      44.127
2022    2        8    15   4    6.3122   466.5    5.810      44.122
2022    2        8    15  10    6.3111   466.5    5.810      44.118
2022    2        8    15  15    6.3101   466.5    5.809      44.114
2022    2        8    15  20    6.3091   466.5    5.809      44.109
2022    2        8    15  25    6.3080   466.5    5.809      44.105
2022    2        8    15  31    6.3070   466.4    5.809      44.101
2022    2        8    15  36    6.3059   466.4    5.809      44.097
2022    2        8    15  41    6.3049   466.4    5.808      44.093
2022    2        8    15  47    6.3039   466.4    5.808      44.089
2022    2        8    15  52    6.3028   466.4    5.808      44.085
2022    2        8    15  57    6.3018   466.4    5.808      44.081
2022    2        8    16   3    6.3008   466.3    5.808      44.077
2022    2        8    16   8    6.2998   466.3    5.808      44.072
2022    2        8    16  13    6.2988   466.3    5.808      44.068
2022    2        8    16  18    6.2978   466.3    5.808      44.064
2022    2        8    16  24    6.2968   466.3    5.808      44.060
2022    2        8    16  29    6.2958   466.3    5.808      44.056
2022    2        8    16  34    6.2948   466.2    5.807      44.051
2022    2        8    16  40    6.2939   466.2    5.807      44.047
2022    2        8    16  45    6.2929   466.2    5.807      44.043
2022    2        8    16  50    6.2920   466.2    5.807      44.038
2022    2        8    16  56    6.2910   466.2    5.807      44.034
2022    2        8    17   1    6.2901   466.1    5.807      44.029
2022    2        8    17   6    6.2892   466.1    5.807      44.024
2022    2        8    17  11    6.2882   466.1    5.807      44.020
2022    2        8    17  17    6.2873   466.1    5.807      44.015
2022    2        8    17  22    6.2865   466.1    5.807      44.010
2022    2        8    17  27    6.2856   466.0    5.807      44.005
2022    2        8    17  33    6.2847   466.0    5.807      44.000
2022    2        8    17  38    6.2838   466.0    5.807      43.995
2022    2        8    17  43    6.2830   466.0    5.806      43.990
2022    2        8    17  49    6.2821   466.0    5.806      43.985
2022    2        8    17  54    6.2813   465.9    5.806      43.980
2022    2        8    17  59    6.2804   465.9    5.806      43.975
2022    2        8    18   4    6.2796   465.9    5.806      43.969
2022    2        8    18  10    6.2788   465.9    5.806      43.964
2022    2        8    18  15    6.2779   465.9    5.806      43.959
2022    2        8    18  20    6.2771   465.8    5.805      43.953
2022    2        8    18  26    6.2763   465.8    5.805      43.948
2022    2        8    18  31    6.2755   465.8    5.805      43.942
2022    2        8    18  36    6.2747   465.8    5.805      43.937
2022    2        8    18  42    6.2739   465.7    5.805      43.931
2022    2        8    18  47    6.2731   465.7    5.805      43.925
2022    2        8    18  52    6.2723   465.7    5.804      43.919
2022    2        8    18  57    6.2715   465.7    5.804      43.914
2022    2        8    19   3    6.2707   465.7    5.804      43.908
2022    2        8    19   8    6.2699   465.6    5.804      43.902
2022    2        8    19  13    6.2691   465.6    5.803      43.896
2022    2        8    19  19    6.2683   465.6    5.803      43.890
2022    2        8    19  24    6.2674   465.6    5.803      43.884
2022    2        8    19  29    6.2666   465.6    5.803      43.878
2022    2        8    19  35    6.2658   465.5    5.802      43.872
2022    2        8    19  40    6.2650   465.5    5.802      43.866
2022    2        8    19  45    6.2642   465.5    5.802      43.861
2022    2        8    19  50    6.2634   465.5    5.801      43.855
2022    2        8    19  56    6.2626   465.4    5.801      43.849
2022    2        8    20   1    6.2617   465.4    5.800      43.844
2022    2        8    20   6    6.2609   465.4    5.800      43.838
2022    2        8    20  12    6.2601   465.4    5.799      43.833
2022    2        8    20  17    6.2593   465.3    5.799      43.828
2022    2        8    20  22    6.2585   465.3    5.798      43.822
2022    2        8    20  28    6.2577   465.3    5.798      43.817
2022    2        8    20  33    6.2569   465.3    5.797      43.812
2022    2        8    20  38    6.2560   465.3    5.797      43.807
2022    2        8    20  43    6.2552   465.2    5.796      43.801
2022    2        8    20  49    6.2544   465.2    5.796      43.796
2022    2        8    20  54    6.2536   465.2    5.795      43.791
2022    2        8    20  59    6.2528   465.2    5.795      43.786
2022    2        8    21   5    6.2520   465.1    5.794      43.781
2022    2        8    21  10    6.2512   465.1    5.793      43.776
2022    2        8    21  15    6.2504   465.1    5.793      43.771
2022    2        8    21  21    6.2496   465.1    5.792      43.767
2022    2        8    21  26    6.2489   465.0    5.792      43.761
2022    2        8    21  31    6.2481   465.0    5.791      43.757
2022    2        8    21  36    6.2473   465.0    5.791      43.752
2022    2        8    21  42    6.2465   465.0    5.790      43.747
2022    2        8    21  47    6.2458   464.9    5.789      43.742
2022    2        8    21  52    6.2450   464.9    5.789      43.736
2022    2        8    21  58    6.2443   464.9    5.788      43.731
2022    2        8    22   3    6.2435   464.9    5.788      43.726
2022    2        8    22   8    6.2428   464.8    5.787      43.721
2022    2        8    22  14    6.2420   464.8    5.787      43.716
2022    2        8    22  19    6.2413   464.8    5.786      43.711
2022    2        8    22  24    6.2405   464.8    5.786      43.705
2022    2        8    22  29    6.2398   464.7    5.785      43.700
2022    2        8    22  35    6.2391   464.7    5.785      43.694
2022    2        8    22  40    6.2384   464.7    5.784      43.689
2022    2        8    22  45    6.2377   464.7    5.784      43.683
2022    2        8    22  51    6.2370   464.6    5.783      43.678
2022    2        8    22  56    6.2363   464.6    5.783      43.672
2022    2        8    23   1    6.2356   464.6    5.782      43.666
2022    2        8    23   7    6.2349   464.6    5.782      43.660
2022    2        8    23  12    6.2342   464.5    5.781      43.655
2022    2        8    23  17    6.2335   464.5    5.781      43.649
2022    2        8    23  22    6.2329   464.5    5.781      43.643
2022    2        8    23  28    6.2322   464.5    5.780      43.637
2022    2        8    23  33    6.2316   464.4    5.780      43.631
2022    2        8    23  38    6.2309   464.4    5.780      43.625
2022    2        8    23  44    6.2303   464.4    5.779      43.619
2022    2        8    23  49    6.2297   464.3    5.779      43.613
2022    2        8    23  54    6.2291   464.3    5.779      43.607
2022    2        9     0   0    6.2284   464.3    5.779      43.602
2022    2        9     0   5    6.2279   464.3    5.778      43.596
2022    2        9     0  10    6.2273   464.2    5.778      43.590
2022    2        9     0  15    6.2267   464.2    5.778      43.584
2022    2        9     0  21    6.2261   464.2    5.778      43.579
2022    2        9     0  26    6.2255   464.2    5.778      43.573
2022    2        9     0  31    6.2249   464.1    5.778      43.568
2022    2        9     0  37    6.2244   464.1    5.778      43.562
2022    2        9     0  42    6.2238   464.1    5.778      43.557
2022    2        9     0  47    6.2232   464.1    5.778      43.552
2022    2        9     0  52    6.2227   464.0    5.779      43.547
2022    2        9     0  58    6.2221   464.0    5.779      43.542
2022    2        9     1   3    6.2216   464.0    5.779      43.537
2022    2        9     1   8    6.2210   464.0    5.779      43.532
2022    2        9     1  14    6.2205   463.9    5.780      43.528
2022    2        9     1  19    6.2200   463.9    5.780      43.523
2022    2        9     1  24    6.2195   463.9    5.780      43.519
2022    2        9     1  30    6.2189   463.9    5.781      43.514
2022    2        9     1  35    6.2184   463.8    5.781      43.510
2022    2        9     1  40    6.2178   463.8    5.781      43.506
2022    2        9     1  45    6.2173   463.8    5.782      43.502
2022    2        9     1  51    6.2167   463.8    5.782      43.498
2022    2        9     1  56    6.2161   463.7    5.783      43.494
2022    2        9     2   1    6.2156   463.7    5.783      43.490
2022    2        9     2   7    6.2150   463.7    5.784      43.486
2022    2        9     2  12    6.2144   463.7    5.785      43.482
2022    2        9     2  17    6.2138   463.6    5.785      43.478
2022    2        9     2  23    6.2132   463.6    5.786      43.474
2022    2        9     2  28    6.2126   463.6    5.786      43.471
2022    2        9     2  33    6.2120   463.6    5.787      43.467
2022    2        9     2  38    6.2114   463.5    5.788      43.463
2022    2        9     2  44    6.2107   463.5    5.788      43.459
2022    2        9     2  49    6.2101   463.5    5.789      43.456
2022    2        9     2  54    6.2095   463.5    5.789      43.452
2022    2        9     3   0    6.2088   463.4    5.790      43.449
2022    2        9     3   5    6.2082   463.4    5.790      43.446
2022    2        9     3  10    6.2076   463.4    5.791      43.442
2022    2        9     3  16    6.2070   463.4    5.791      43.439
2022    2        9     3  21    6.2063   463.3    5.792      43.435
2022    2        9     3  26    6.2057   463.3    5.792      43.432
2022    2        9     3  31    6.2051   463.3    5.793      43.429
2022    2        9     3  37    6.2045   463.2    5.793      43.425
2022    2        9     3  42    6.2039   463.2    5.794      43.422
2022    2        9     3  47    6.2033   463.2    5.794      43.419
2022    2        9     3  53    6.2027   463.2    5.794      43.416
2022    2        9     3  58    6.2021   463.1    5.795      43.413
2022    2        9     4   3    6.2015   463.1    5.795      43.410
2022    2        9     4   9    6.2009   463.1    5.796      43.407
2022    2        9     4  14    6.2004   463.0    5.796      43.404
2022    2        9     4  19    6.1999   463.0    5.796      43.401
2022    2        9     4  24    6.1993   463.0    5.797      43.398
2022    2        9     4  30    6.1988   463.0    5.797      43.395
2022    2        9     4  35    6.1983   462.9    5.797      43.392
2022    2        9     4  40    6.1978   462.9    5.798      43.389
2022    2        9     4  46    6.1973   462.9    5.798      43.386
2022    2        9     4  51    6.1969   462.8    5.798      43.383
2022    2        9     4  56    6.1964   462.8    5.798      43.379
2022    2        9     5   2    6.1959   462.8    5.799      43.376
2022    2        9     5   7    6.1955   462.8    5.799      43.373
2022    2        9     5  12    6.1951   462.7    5.799      43.370
2022    2        9     5  17    6.1946   462.7    5.799      43.367
2022    2        9     5  23    6.1942   462.7    5.799      43.363
2022    2        9     5  28    6.1938   462.6    5.799      43.360
2022    2        9     5  33    6.1934   462.6    5.799      43.357
2022    2        9     5  39    6.1930   462.6    5.800      43.354
2022    2        9     5  44    6.1926   462.5    5.799      43.350
2022    2        9     5  49    6.1922   462.5    5.799      43.347
2022    2        9     5  55    6.1918   462.5    5.799      43.344
2022    2        9     6   0    6.1914   462.5    5.799      43.340
2022    2        9     6   5    6.1910   462.4    5.799      43.337
2022    2        9     6  10    6.1906   462.4    5.799      43.333
2022    2        9     6  16    6.1902   462.4    5.799      43.330
2022    2        9     6  21    6.1898   462.3    5.799      43.326
2022    2        9     6  26    6.1894   462.3    5.798      43.322
2022    2        9     6  32    6.1890   462.3    5.798      43.318
2022    2        9     6  37    6.1886   462.2    5.798      43.314
2022    2        9     6  42    6.1883   462.2    5.798      43.309
2022    2        9     6  48    6.1879   462.2    5.797      43.305
2022    2        9     6  53    6.1875   462.2    5.797      43.300
2022    2        9     6  58    6.1871   462.1    5.797      43.295
2022    2        9     7   3    6.1867   462.1    5.796      43.290
2022    2        9     7   9    6.1863   462.1    5.796      43.285
2022    2        9     7  14    6.1859   462.0    5.796      43.280
2022    2        9     7  19    6.1855   462.0    5.795      43.275
2022    2        9     7  25    6.1851   462.0    5.795      43.270
2022    2        9     7  30    6.1847   461.9    5.795      43.264
2022    2        9     7  35    6.1842   461.9    5.795      43.258
2022    2        9     7  41    6.1838   461.9    5.794      43.253
2022    2        9     7  46    6.1834   461.8    5.794      43.247
2022    2        9     7  51    6.1830   461.8    5.794      43.241
2022    2        9     7  57    6.1826   461.8    5.794      43.235
2022    2        9     8   2    6.1822   461.7    5.793      43.229
2022    2        9     8   7    6.1818   461.7    5.793      43.223
2022    2        9     8  12    6.1814   461.7    5.793      43.217
2022    2        9     8  18    6.1810   461.6    5.793      43.211
2022    2        9     8  23    6.1805   461.6    5.793      43.205
2022    2        9     8  28    6.1801   461.6    5.792      43.199
2022    2        9     8  34    6.1797   461.5    5.792      43.193
2022    2        9     8  39    6.1792   461.5    5.792      43.186
2022    2        9     8  44    6.1788   461.5    5.792      43.180
2022    2        9     8  50    6.1784   461.4    5.792      43.173
2022    2        9     8  55    6.1779   461.4    5.792      43.167
2022    2        9     9   0    6.1775   461.4    5.792      43.160
2022    2        9     9   5    6.1771   461.4    5.792      43.154
2022    2        9     9  11    6.1766   461.3    5.792      43.147
2022    2        9     9  16    6.1762   461.3    5.792      43.140
2022    2        9     9  21    6.1757   461.2    5.792      43.133
2022    2        9     9  27    6.1753   461.2    5.792      43.127
2022    2        9     9  32    6.1748   461.2    5.792      43.120
2022    2        9     9  37    6.1744   461.1    5.792      43.113
2022    2        9     9  43    6.1739   461.1    5.792      43.106
2022    2        9     9  48    6.1735   461.1    5.792      43.100
2022    2        9     9  53    6.1730   461.0    5.792      43.093
2022    2        9     9  58    6.1726   461.0    5.792      43.086
2022    2        9    10   4    6.1722   461.0    5.792      43.080
2022    2        9    10   9    6.1718   460.9    5.793      43.073
2022    2        9    10  14    6.1714   460.9    5.793      43.067
2022    2        9    10  20    6.1710   460.8    5.793      43.060
2022    2        9    10  25    6.1706   460.8    5.794      43.054
2022    2        9    10  30    6.1702   460.8    5.794      43.048
2022    2        9    10  36    6.1699   460.7    5.794      43.042
2022    2        9    10  41    6.1695   460.7    5.795      43.037
2022    2        9    10  46    6.1692   460.7    5.795      43.031
2022    2        9    10  51    6.1689   460.6    5.796      43.026
2022    2        9    10  57    6.1686   460.6    5.797      43.021
2022    2        9    11   2    6.1684   460.5    5.797      43.016
2022    2        9    11   7    6.1681   460.5    5.798      43.012
2022    2        9    11  13    6.1679   460.5    5.799      43.008
2022    2        9    11  18    6.1677   460.4    5.800      43.004
2022    2        9    11  23    6.1675   460.4    5.801      43.000
2022    2        9    11  29    6.1673   460.4    5.802      42.997
2022    2        9    11  34    6.1672   460.3    5.803      42.994
2022    2        9    11  39    6.1670   460.3    5.804      42.991
2022    2        9    11  44    6.1669   460.3    5.805      42.988
2022    2        9    11  50    6.1668   460.2    5.806      42.986
2022    2        9    11  55    6.1667   460.2    5.807      42.984
2022    2        9    12   0    6.1666   460.1    5.809      42.982
2022    2        9    12   6    6.1665   460.1    5.810      42.980
2022    2        9    12  11    6.1665   460.1    5.811      42.979
2022    2        9    12  16    6.1664   460.0    5.813      42.977
2022    2        9    12  22    6.1664   460.0    5.814      42.976
2022    2        9    12  27    6.1664   460.0    5.816      42.976
2022    2        9    12  32    6.1663   459.9    5.817      42.975
2022    2        9    12  37    6.1663   459.9    5.819      42.975
2022    2        9    12  43    6.1663   459.9    5.820      42.974
2022    2        9    12  48    6.1663   459.9    5.821      42.974
2022    2        9    12  53    6.1662   459.8    5.823      42.975
2022    2        9    12  59    6.1662   459.8    5.824      42.975
2022    2        9    13   4    6.1662   459.8    5.826      42.976
2022    2        9    13   9    6.1662   459.7    5.827      42.976
2022    2        9    13  15    6.1661   459.7    5.828      42.977
2022    2        9    13  20    6.1661   459.7    5.830      42.978
2022    2        9    13  25    6.1660   459.6    5.831      42.978
2022    2        9    13  30    6.1659   459.6    5.832      42.979
2022    2        9    13  36    6.1659   459.6    5.834      42.980
2022    2        9    13  41    6.1658   459.5    5.835      42.981
2022    2        9    13  46    6.1657   459.5    5.836      42.981
2022    2        9    13  52    6.1657   459.5    5.837      42.982
2022    2        9    13  57    6.1656   459.4    5.839      42.983
2022    2        9    14   2    6.1655   459.4    5.840      42.983
2022    2        9    14   8    6.1654   459.4    5.841      42.983
2022    2        9    14  13    6.1654   459.3    5.842      42.983
2022    2        9    14  18    6.1653   459.3    5.843      42.984
2022    2        9    14  23    6.1652   459.2    5.844      42.984
2022    2        9    14  29    6.1651   459.2    5.845      42.984
2022    2        9    14  34    6.1650   459.2    5.846      42.984
2022    2        9    14  39    6.1649   459.1    5.847      42.984
2022    2        9    14  45    6.1649   459.1    5.847      42.983
2022    2        9    14  50    6.1648   459.1    5.848      42.983
2022    2        9    14  55    6.1647   459.0    5.849      42.983
2022    2        9    15   1    6.1646   459.0    5.850      42.982
2022    2        9    15   6    6.1645   459.0    5.850      42.981
2022    2        9    15  11    6.1644   458.9    5.851      42.980
2022    2        9    15  16    6.1644   458.9    5.851      42.979
2022    2        9    15  22    6.1643   458.9    5.852      42.977
2022    2        9    15  27    6.1642   458.8    5.853      42.976
2022    2        9    15  32    6.1642   458.8    5.853      42.974
2022    2        9    15  38    6.1641   458.8    5.854      42.973
2022    2        9    15  43    6.1641   458.7    5.854      42.971
2022    2        9    15  48    6.1640   458.7    5.854      42.969
2022    2        9    15  54    6.1640   458.6    5.855      42.967
2022    2        9    15  59    6.1639   458.6    5.855      42.964
2022    2        9    16   4    6.1639   458.6    5.855      42.962
2022    2        9    16   9    6.1639   458.5    5.856      42.959
2022    2        9    16  15    6.1639   458.5    5.856      42.956
2022    2        9    16  20    6.1639   458.5    5.856      42.953
2022    2        9    16  25    6.1639   458.4    5.856      42.950
2022    2        9    16  31    6.1639   458.4    5.857      42.947
2022    2        9    16  36    6.1639   458.4    5.857      42.944
2022    2        9    16  41    6.1639   458.3    5.857      42.940
2022    2        9    16  47    6.1639   458.3    5.857      42.937
2022    2        9    16  52    6.1640   458.2    5.857      42.933
2022    2        9    16  57    6.1640   458.2    5.858      42.929
2022    2        9    17   2    6.1641   458.2    5.858      42.925
2022    2        9    17   8    6.1641   458.1    5.858      42.921
2022    2        9    17  13    6.1642   458.1    5.858      42.917
2022    2        9    17  18    6.1643   458.1    5.858      42.913
2022    2        9    17  24    6.1644   458.0    5.859      42.909
2022    2        9    17  29    6.1645   458.0    5.859      42.905
2022    2        9    17  34    6.1646   458.0    5.859      42.901
2022    2        9    17  40    6.1647   457.9    5.859      42.897
2022    2        9    17  45    6.1649   457.9    5.860      42.893
2022    2        9    17  50    6.1650   457.8    5.860      42.890
2022    2        9    17  55    6.1652   457.8    5.860      42.886
2022    2        9    18   1    6.1654   457.8    5.861      42.882
2022    2        9    18   6    6.1655   457.7    5.861      42.878
2022    2        9    18  11    6.1657   457.7    5.862      42.875
2022    2        9    18  17    6.1659   457.7    5.862      42.871
2022    2        9    18  22    6.1661   457.6    5.863      42.868
2022    2        9    18  27    6.1664   457.6    5.864      42.865
2022    2        9    18  33    6.1666   457.6    5.864      42.862
2022    2        9    18  38    6.1668   457.5    5.865      42.860
2022    2        9    18  43    6.1671   457.5    5.866      42.857
2022    2        9    18  48    6.1673   457.5    5.867      42.855
2022    2        9    18  54    6.1676   457.4    5.868      42.853
2022    2        9    18  59    6.1679   457.4    5.869      42.851
2022    2        9    19   4    6.1682   457.4    5.870      42.849
2022    2        9    19  10    6.1684   457.3    5.871      42.847
2022    2        9    19  15    6.1687   457.3    5.872      42.846
2022    2        9    19  20    6.1691   457.3    5.873      42.845
2022    2        9    19  26    6.1694   457.2    5.875      42.844
2022    2        9    19  31    6.1697   457.2    5.876      42.844
2022    2        9    19  36    6.1700   457.2    5.877      42.844
2022    2        9    19  41    6.1704   457.1    5.879      42.844
2022    2        9    19  47    6.1707   457.1    5.880      42.844
2022    2        9    19  52    6.1711   457.1    5.882      42.844
2022    2        9    19  57    6.1714   457.0    5.884      42.845
2022    2        9    20   3    6.1718   457.0    5.885      42.846
2022    2        9    20   8    6.1722   457.0    5.887      42.847
2022    2        9    20  13    6.1725   456.9    5.889      42.849
2022    2        9    20  19    6.1729   456.9    5.891      42.850
2022    2        9    20  24    6.1733   456.9    5.893      42.852
2022    2        9    20  29    6.1737   456.9    5.895      42.855
2022    2        9    20  34    6.1742   456.8    5.897      42.857
2022    2        9    20  40    6.1746   456.8    5.899      42.860
2022    2        9    20  45    6.1750   456.8    5.901      42.863
2022    2        9    20  50    6.1754   456.7    5.903      42.866
2022    2        9    20  56    6.1758   456.7    5.905      42.869
2022    2        9    21   1    6.1763   456.7    5.907      42.873
2022    2        9    21   6    6.1767   456.7    5.909      42.876
2022    2        9    21  12    6.1771   456.6    5.911      42.880
2022    2        9    21  17    6.1776   456.6    5.913      42.885
2022    2        9    21  22    6.1780   456.6    5.915      42.889
2022    2        9    21  27    6.1784   456.5    5.917      42.894
2022    2        9    21  33    6.1789   456.5    5.919      42.899
2022    2        9    21  38    6.1793   456.5    5.921      42.904
2022    2        9    21  43    6.1797   456.5    5.923      42.909
2022    2        9    21  49    6.1802   456.4    5.925      42.914
2022    2        9    21  54    6.1806   456.4    5.927      42.920
2022    2        9    21  59    6.1810   456.4    5.929      42.925
2022    2        9    22   5    6.1815   456.3    5.931      42.930
2022    2        9    22  10    6.1819   456.3    5.933      42.935
2022    2        9    22  15    6.1823   456.3    5.934      42.941
2022    2        9    22  20    6.1828   456.3    5.936      42.946
2022    2        9    22  26    6.1832   456.2    5.938      42.951
2022    2        9    22  31    6.1837   456.2    5.940      42.956
2022    2        9    22  36    6.1841   456.2    5.941      42.961
2022    2        9    22  42    6.1845   456.1    5.943      42.966
2022    2        9    22  47    6.1850   456.1    5.945      42.971
2022    2        9    22  52    6.1854   456.1    5.946      42.976
2022    2        9    22  58    6.1859   456.1    5.948      42.980
2022    2        9    23   3    6.1864   456.0    5.949      42.985
2022    2        9    23   8    6.1868   456.0    5.951      42.990
2022    2        9    23  13    6.1873   456.0    5.952      42.994
2022    2        9    23  19    6.1878   456.0    5.953      42.999
2022    2        9    23  24    6.1882   455.9    5.955      43.003
2022    2        9    23  29    6.1887   455.9    5.956      43.007
2022    2        9    23  35    6.1892   455.9    5.957      43.012
2022    2        9    23  40    6.1897   455.8    5.958      43.016
2022    2        9    23  45    6.1902   455.8    5.960      43.020
2022    2        9    23  51    6.1907   455.8    5.961      43.024
2022    2        9    23  56    6.1912   455.8    5.962      43.027
2022    2       10     0   1    6.1917   455.7    5.963      43.031
