year    month   day   hour  minute  B_enl V_enl   n_enl       T_enl
[year] [month] [day] [hour][minute] [nT]  [km/s]  [cm-3]      [kK]
2014    5        8     0   4    5.45   507.6    4.8      45.644
2014    5        8     0   9    5.45   507.5    4.8      45.653
2014    5        8     0  15    5.46   507.5    4.8      45.662
2014    5        8     0  20    5.46   507.5    4.9      45.670
2014    5        8     0  25    5.46   507.5    4.9      45.679
2014    5        8     0  30    5.46   507.4    4.9      45.688
2014    5        8     0  35    5.46   507.4    4.9      45.697
2014    5        8     0  40    5.46   507.4    4.9      45.706
2014    5        8     0  45    5.47   507.4    4.9      45.715
2014    5        8     0  50    5.47   507.4    4.9      45.724
2014    5        8     0  56    5.47   507.3    4.9      45.733
2014    5        8     1   1    5.47   507.3    4.9      45.742
2014    5        8     1   6    5.47   507.3    4.9      45.751
2014    5        8     1  11    5.47   507.3    4.9      45.761
2014    5        8     1  16    5.48   507.2    4.9      45.770
2014    5        8     1  21    5.48   507.2    4.9      45.780
2014    5        8     1  27    5.48   507.2    4.9      45.790
2014    5        8     1  32    5.48   507.2    4.9      45.800
2014    5        8     1  37    5.48   507.2    4.9      45.810
2014    5        8     1  42    5.48   507.1    4.9      45.821
2014    5        8     1  47    5.49   507.1    4.9      45.832
2014    5        8     1  53    5.49   507.1    4.9      45.843
2014    5        8     1  58    5.49   507.1    4.9      45.855
2014    5        8     2   3    5.49   507.1    4.9      45.867
2014    5        8     2   8    5.49   507.1    4.9      45.879
2014    5        8     2  14    5.49   507.0    4.9      45.892
2014    5        8     2  19    5.50   507.0    4.9      45.905
2014    5        8     2  24    5.50   507.0    4.9      45.919
2014    5        8     2  30    5.50   507.0    4.9      45.935
2014    5        8     2  35    5.50   507.0    4.9      45.951
2014    5        8     2  40    5.50   507.0    4.9      45.968
2014    5        8     2  46    5.50   507.0    4.9      45.985
2014    5        8     2  51    5.51   507.0    4.9      46.003
2014    5        8     2  57    5.51   507.0    4.9      46.021
2014    5        8     3   2    5.51   507.0    4.9      46.039
2014    5        8     3   7    5.51   507.0    4.9      46.056
2014    5        8     3  13    5.51   507.0    4.9      46.074
2014    5        8     3  18    5.51   506.9    4.9      46.091
2014    5        8     3  24    5.52   506.9    4.9      46.107
2014    5        8     3  29    5.52   506.9    4.9      46.123
2014    5        8     3  34    5.52   506.9    4.9      46.139
2014    5        8     3  40    5.52   506.9    4.9      46.155
2014    5        8     3  45    5.52   506.9    4.9      46.170
2014    5        8     3  51    5.52   506.9    4.9      46.185
2014    5        8     3  56    5.52   506.9    4.9      46.200
2014    5        8     4   1    5.53   506.9    5.0      46.215
2014    5        8     4   7    5.53   506.9    5.0      46.230
2014    5        8     4  12    5.53   506.9    5.0      46.245
2014    5        8     4  18    5.53   506.9    5.0      46.260
2014    5        8     4  23    5.53   506.9    5.0      46.276
2014    5        8     4  29    5.53   506.9    5.0      46.292
2014    5        8     4  34    5.53   506.9    5.0      46.307
2014    5        8     4  39    5.53   506.9    5.0      46.322
2014    5        8     4  45    5.54   506.9    5.0      46.337
2014    5        8     4  50    5.54   506.9    5.0      46.352
2014    5        8     4  56    5.54   507.0    5.0      46.366
2014    5        8     5   1    5.54   507.0    5.0      46.380
2014    5        8     5   6    5.54   507.0    5.0      46.394
2014    5        8     5  12    5.54   507.0    5.0      46.408
2014    5        8     5  17    5.54   507.0    5.0      46.421
2014    5        8     5  23    5.54   507.0    5.0      46.435
2014    5        8     5  28    5.55   507.0    5.0      46.448
2014    5        8     5  33    5.55   507.0    5.0      46.461
2014    5        8     5  39    5.55   507.0    5.0      46.474
2014    5        8     5  44    5.55   507.0    5.0      46.487
2014    5        8     5  50    5.55   507.0    5.0      46.500
2014    5        8     5  55    5.55   507.0    5.0      46.512
2014    5        8     6   1    5.55   507.0    5.0      46.525
2014    5        8     6   6    5.55   507.0    5.0      46.539
2014    5        8     6  11    5.56   507.1    5.0      46.552
2014    5        8     6  17    5.56   507.1    5.0      46.565
2014    5        8     6  22    5.56   507.1    5.0      46.578
2014    5        8     6  28    5.56   507.1    5.0      46.592
2014    5        8     6  33    5.56   507.1    5.0      46.605
2014    5        8     6  38    5.56   507.1    5.0      46.618
2014    5        8     6  44    5.56   507.1    5.0      46.631
2014    5        8     6  49    5.56   507.2    5.0      46.643
2014    5        8     6  55    5.56   507.2    5.0      46.656
2014    5        8     7   0    5.57   507.2    5.0      46.669
2014    5        8     7   6    5.57   507.2    5.0      46.681
2014    5        8     7  11    5.57   507.2    5.0      46.693
2014    5        8     7  16    5.57   507.3    5.0      46.706
2014    5        8     7  22    5.57   507.3    5.0      46.717
2014    5        8     7  27    5.57   507.3    5.0      46.728
2014    5        8     7  33    5.57   507.3    5.0      46.739
2014    5        8     7  38    5.57   507.3    5.0      46.750
2014    5        8     7  43    5.57   507.4    5.0      46.760
2014    5        8     7  49    5.57   507.4    5.0      46.770
2014    5        8     7  54    5.58   507.4    5.0      46.780
2014    5        8     8   0    5.58   507.4    5.0      46.789
2014    5        8     8   5    5.58   507.4    5.0      46.799
2014    5        8     8  10    5.58   507.5    5.0      46.808
2014    5        8     8  16    5.58   507.5    5.0      46.817
2014    5        8     8  21    5.58   507.5    5.0      46.825
2014    5        8     8  27    5.58   507.5    5.0      46.834
2014    5        8     8  32    5.58   507.6    5.0      46.843
2014    5        8     8  38    5.58   507.6    5.0      46.851
2014    5        8     8  43    5.58   507.6    5.0      46.860
2014    5        8     8  48    5.58   507.6    5.0      46.868
2014    5        8     8  54    5.58   507.6    5.0      46.877
2014    5        8     8  59    5.59   507.7    5.0      46.886
2014    5        8     9   5    5.59   507.7    5.0      46.894
2014    5        8     9  10    5.59   507.7    5.0      46.903
2014    5        8     9  15    5.59   507.7    5.0      46.912
2014    5        8     9  21    5.59   507.8    5.0      46.921
2014    5        8     9  26    5.59   507.8    5.0      46.930
2014    5        8     9  32    5.59   507.8    5.0      46.940
2014    5        8     9  37    5.59   507.8    5.0      46.950
2014    5        8     9  43    5.59   507.8    5.0      46.960
2014    5        8     9  48    5.59   507.9    5.0      46.972
2014    5        8     9  53    5.59   507.9    5.0      46.984
2014    5        8     9  59    5.59   507.9    5.0      46.996
2014    5        8    10   4    5.59   507.9    5.0      47.010
2014    5        8    10  10    5.59   508.0    5.0      47.023
2014    5        8    10  15    5.59   508.0    5.0      47.036
2014    5        8    10  20    5.60   508.0    5.0      47.049
2014    5        8    10  26    5.60   508.1    5.0      47.062
2014    5        8    10  31    5.60   508.1    5.0      47.076
2014    5        8    10  37    5.60   508.1    5.0      47.090
2014    5        8    10  42    5.60   508.1    5.0      47.104
2014    5        8    10  47    5.60   508.2    5.0      47.118
2014    5        8    10  53    5.60   508.2    5.0      47.133
2014    5        8    10  58    5.60   508.2    5.0      47.147
2014    5        8    11   4    5.60   508.3    5.0      47.162
2014    5        8    11   9    5.60   508.3    5.0      47.176
2014    5        8    11  15    5.60   508.3    5.0      47.190
2014    5        8    11  20    5.60   508.4    5.0      47.203
2014    5        8    11  25    5.60   508.4    5.0      47.215
2014    5        8    11  31    5.60   508.4    5.0      47.227
2014    5        8    11  36    5.60   508.5    5.0      47.239
2014    5        8    11  42    5.60   508.5    5.0      47.251
2014    5        8    11  47    5.60   508.5    5.0      47.262
2014    5        8    11  52    5.60   508.6    5.0      47.273
2014    5        8    11  58    5.60   508.6    5.0      47.284
2014    5        8    12   3    5.60   508.6    5.0      47.294
2014    5        8    12   9    5.60   508.7    5.0      47.304
2014    5        8    12  14    5.60   508.7    5.0      47.314
2014    5        8    12  19    5.60   508.7    5.0      47.324
2014    5        8    12  25    5.60   508.8    5.0      47.333
2014    5        8    12  30    5.60   508.8    5.0      47.343
2014    5        8    12  36    5.60   508.8    5.0      47.352
2014    5        8    12  41    5.60   508.8    5.0      47.362
2014    5        8    12  47    5.60   508.9    5.0      47.371
2014    5        8    12  52    5.60   508.9    5.0      47.380
2014    5        8    12  57    5.60   508.9    5.0      47.389
2014    5        8    13   3    5.60   509.0    5.0      47.398
2014    5        8    13   8    5.60   509.0    5.0      47.407
2014    5        8    13  14    5.60   509.0    5.0      47.417
2014    5        8    13  19    5.60   509.1    5.0      47.426
2014    5        8    13  24    5.61   509.1    5.0      47.436
2014    5        8    13  30    5.61   509.2    5.0      47.445
2014    5        8    13  35    5.61   509.2    5.0      47.454
2014    5        8    13  41    5.61   509.2    5.0      47.464
2014    5        8    13  46    5.61   509.3    5.0      47.473
2014    5        8    13  52    5.61   509.3    5.0      47.482
2014    5        8    13  57    5.61   509.3    5.0      47.490
2014    5        8    14   2    5.61   509.4    5.0      47.498
2014    5        8    14   8    5.61   509.4    5.0      47.505
2014    5        8    14  13    5.61   509.5    5.0      47.512
2014    5        8    14  19    5.61   509.5    5.0      47.518
2014    5        8    14  24    5.61   509.5    5.0      47.524
2014    5        8    14  29    5.61   509.6    5.0      47.530
2014    5        8    14  35    5.61   509.6    5.0      47.535
2014    5        8    14  40    5.61   509.7    5.0      47.540
2014    5        8    14  46    5.61   509.7    5.0      47.544
2014    5        8    14  51    5.61   509.7    5.0      47.548
2014    5        8    14  56    5.61   509.8    5.0      47.552
2014    5        8    15   2    5.61   509.8    5.0      47.555
2014    5        8    15   7    5.60   509.9    5.0      47.558
2014    5        8    15  13    5.60   509.9    5.0      47.561
2014    5        8    15  18    5.60   509.9    5.0      47.564
2014    5        8    15  24    5.60   510.0    5.0      47.566
2014    5        8    15  29    5.60   510.0    5.0      47.568
2014    5        8    15  34    5.60   510.0    5.0      47.570
2014    5        8    15  40    5.60   510.1    5.0      47.571
2014    5        8    15  45    5.60   510.1    5.0      47.573
2014    5        8    15  51    5.60   510.2    5.0      47.574
2014    5        8    15  56    5.60   510.2    5.0      47.575
2014    5        8    16   1    5.60   510.2    5.0      47.576
2014    5        8    16   7    5.60   510.3    5.0      47.576
2014    5        8    16  12    5.60   510.3    5.0      47.577
2014    5        8    16  18    5.60   510.4    5.0      47.577
2014    5        8    16  23    5.60   510.4    5.0      47.578
2014    5        8    16  29    5.60   510.4    5.0      47.578
2014    5        8    16  34    5.60   510.5    5.0      47.578
2014    5        8    16  39    5.60   510.5    5.0      47.578
2014    5        8    16  45    5.60   510.5    5.0      47.577
2014    5        8    16  50    5.60   510.6    5.0      47.577
2014    5        8    16  56    5.60   510.6    5.0      47.576
2014    5        8    17   1    5.60   510.6    5.0      47.576
2014    5        8    17   6    5.60   510.7    5.0      47.575
2014    5        8    17  12    5.60   510.7    5.0      47.575
2014    5        8    17  17    5.60   510.8    5.0      47.574
2014    5        8    17  23    5.59   510.8    5.0      47.574
2014    5        8    17  28    5.59   510.8    5.0      47.573
2014    5        8    17  33    5.59   510.9    5.0      47.573
2014    5        8    17  39    5.59   510.9    5.0      47.572
2014    5        8    17  44    5.59   510.9    5.0      47.572
2014    5        8    17  50    5.59   511.0    5.0      47.572
2014    5        8    17  55    5.59   511.0    5.0      47.573
2014    5        8    18   1    5.59   511.0    5.0      47.574
2014    5        8    18   6    5.59   511.1    5.0      47.577
2014    5        8    18  11    5.59   511.1    5.0      47.579
2014    5        8    18  17    5.59   511.1    5.0      47.582
2014    5        8    18  22    5.59   511.2    5.0      47.585
2014    5        8    18  28    5.59   511.2    5.0      47.588
2014    5        8    18  33    5.59   511.2    5.0      47.591
2014    5        8    18  38    5.58   511.3    5.0      47.593
2014    5        8    18  44    5.58   511.3    5.0      47.596
2014    5        8    18  49    5.58   511.3    5.0      47.598
2014    5        8    18  55    5.58   511.4    5.0      47.601
2014    5        8    19   0    5.58   511.4    5.0      47.603
2014    5        8    19   6    5.58   511.4    5.0      47.605
2014    5        8    19  11    5.58   511.5    5.0      47.607
2014    5        8    19  16    5.58   511.5    5.0      47.609
2014    5        8    19  22    5.58   511.5    5.0      47.611
2014    5        8    19  27    5.58   511.5    5.0      47.613
2014    5        8    19  33    5.57   511.6    5.0      47.615
2014    5        8    19  38    5.57   511.6    5.0      47.617
2014    5        8    19  43    5.57   511.6    5.0      47.619
2014    5        8    19  49    5.57   511.7    5.0      47.621
2014    5        8    19  54    5.57   511.7    5.0      47.623
2014    5        8    20   0    5.57   511.7    5.0      47.625
2014    5        8    20   5    5.57   511.8    5.0      47.627
2014    5        8    20  10    5.57   511.8    5.0      47.629
2014    5        8    20  16    5.57   511.8    5.0      47.631
2014    5        8    20  21    5.57   511.8    5.0      47.633
2014    5        8    20  27    5.56   511.9    5.0      47.635
2014    5        8    20  32    5.56   511.9    4.9      47.637
2014    5        8    20  38    5.56   511.9    4.9      47.639
2014    5        8    20  43    5.56   511.9    4.9      47.641
2014    5        8    20  48    5.56   512.0    4.9      47.643
2014    5        8    20  54    5.56   512.0    4.9      47.645
2014    5        8    20  59    5.56   512.0    4.9      47.646
2014    5        8    21   5    5.56   512.1    4.9      47.648
2014    5        8    21  10    5.55   512.1    4.9      47.649
2014    5        8    21  15    5.55   512.1    4.9      47.649
2014    5        8    21  21    5.55   512.1    4.9      47.650
2014    5        8    21  26    5.55   512.2    4.9      47.650
2014    5        8    21  32    5.55   512.2    4.9      47.649
2014    5        8    21  37    5.55   512.2    4.9      47.648
2014    5        8    21  43    5.55   512.2    4.9      47.647
2014    5        8    21  48    5.55   512.3    4.9      47.645
2014    5        8    21  53    5.55   512.3    4.9      47.643
2014    5        8    21  59    5.54   512.3    4.9      47.640
2014    5        8    22   4    5.54   512.3    4.9      47.637
2014    5        8    22  10    5.54   512.3    4.9      47.634
2014    5        8    22  15    5.54   512.4    4.9      47.629
2014    5        8    22  20    5.54   512.4    4.9      47.625
2014    5        8    22  26    5.54   512.4    4.9      47.620
2014    5        8    22  31    5.54   512.4    4.9      47.615
2014    5        8    22  37    5.53   512.5    4.9      47.609
2014    5        8    22  42    5.53   512.5    4.9      47.603
2014    5        8    22  47    5.53   512.5    4.9      47.597
2014    5        8    22  53    5.53   512.5    4.9      47.590
2014    5        8    22  58    5.53   512.6    4.9      47.583
2014    5        8    23   4    5.53   512.6    4.9      47.575
2014    5        8    23   9    5.53   512.6    4.9      47.568
2014    5        8    23  15    5.52   512.6    4.9      47.560
2014    5        8    23  20    5.52   512.7    4.9      47.551
2014    5        8    23  25    5.52   512.7    4.9      47.542
2014    5        8    23  31    5.52   512.7    4.9      47.533
2014    5        8    23  36    5.52   512.7    4.9      47.524
2014    5        8    23  42    5.52   512.7    4.9      47.514
2014    5        8    23  47    5.51   512.8    4.9      47.503
2014    5        8    23  52    5.51   512.8    4.9      47.493
2014    5        8    23  58    5.51   512.8    4.9      47.482
2014    5        9     0   3    5.51   512.8    4.9      47.470
2014    5        9     0   9    5.51   512.9    4.9      47.459
2014    5        9     0  14    5.51   512.9    4.9      47.447
2014    5        9     0  20    5.50   512.9    4.9      47.434
2014    5        9     0  25    5.50   512.9    4.9      47.422
2014    5        9     0  30    5.50   512.9    4.9      47.409
2014    5        9     0  36    5.50   512.9    4.9      47.395
2014    5        9     0  41    5.50   513.0    4.9      47.382
2014    5        9     0  47    5.49   513.0    4.9      47.368
2014    5        9     0  52    5.49   513.0    4.9      47.354
2014    5        9     0  57    5.49   513.0    4.9      47.340
2014    5        9     1   3    5.49   513.0    4.9      47.325
2014    5        9     1   8    5.49   513.1    4.9      47.310
2014    5        9     1  14    5.48   513.1    4.9      47.295
2014    5        9     1  19    5.48   513.1    4.9      47.280
2014    5        9     1  24    5.48   513.1    4.9      47.264
2014    5        9     1  30    5.48   513.1    4.9      47.249
2014    5        9     1  35    5.47   513.1    4.8      47.233
2014    5        9     1  41    5.47   513.1    4.8      47.217
2014    5        9     1  46    5.47   513.1    4.8      47.201
2014    5        9     1  52    5.47   513.1    4.8      47.185
2014    5        9     1  57    5.47   513.1    4.8      47.169
2014    5        9     2   2    5.46   513.2    4.8      47.153
2014    5        9     2   8    5.46   513.2    4.8      47.137
2014    5        9     2  13    5.46   513.2    4.8      47.121
2014    5        9     2  19    5.46   513.2    4.8      47.105
2014    5        9     2  24    5.46   513.2    4.8      47.089
2014    5        9     2  29    5.45   513.2    4.8      47.073
2014    5        9     2  35    5.45   513.2    4.8      47.058
2014    5        9     2  40    5.45   513.2    4.8      47.042
2014    5        9     2  46    5.45   513.2    4.8      47.027
2014    5        9     2  51    5.44   513.2    4.8      47.012
2014    5        9     2  56    5.44   513.2    4.8      46.997
2014    5        9     3   2    5.44   513.2    4.8      46.983
2014    5        9     3   7    5.44   513.2    4.8      46.969
2014    5        9     3  13    5.43   513.1    4.8      46.955
2014    5        9     3  18    5.43   513.1    4.8      46.941
2014    5        9     3  24    5.43   513.1    4.8      46.928
2014    5        9     3  29    5.43   513.1    4.8      46.914
2014    5        9     3  34    5.43   513.1    4.8      46.901
2014    5        9     3  40    5.42   513.1    4.8      46.889
2014    5        9     3  45    5.42   513.1    4.8      46.876
2014    5        9     3  51    5.42   513.1    4.8      46.864
2014    5        9     3  56    5.42   513.1    4.8      46.851
2014    5        9     4   1    5.41   513.1    4.8      46.839
2014    5        9     4   7    5.41   513.1    4.8      46.827
2014    5        9     4  12    5.41   513.0    4.8      46.815
2014    5        9     4  18    5.41   513.0    4.8      46.802
2014    5        9     4  23    5.41   513.0    4.8      46.790
2014    5        9     4  29    5.40   513.0    4.8      46.777
2014    5        9     4  34    5.40   513.0    4.8      46.764
2014    5        9     4  39    5.40   513.0    4.8      46.751
2014    5        9     4  45    5.40   512.9    4.8      46.737
2014    5        9     4  50    5.39   512.9    4.8      46.723
2014    5        9     4  56    5.39   512.9    4.8      46.709
2014    5        9     5   1    5.39   512.9    4.8      46.694
2014    5        9     5   6    5.39   512.9    4.8      46.679
2014    5        9     5  12    5.39   512.8    4.8      46.664
2014    5        9     5  17    5.38   512.8    4.8      46.648
2014    5        9     5  23    5.38   512.8    4.8      46.632
2014    5        9     5  28    5.38   512.8    4.8      46.616
2014    5        9     5  33    5.38   512.8    4.8      46.599
2014    5        9     5  39    5.37   512.7    4.8      46.582
2014    5        9     5  44    5.37   512.7    4.8      46.564
2014    5        9     5  50    5.37   512.7    4.8      46.546
2014    5        9     5  55    5.37   512.7    4.8      46.529
2014    5        9     6   0    5.36   512.6    4.8      46.511
2014    5        9     6   6    5.36   512.6    4.8      46.493
2014    5        9     6  11    5.36   512.6    4.8      46.476
2014    5        9     6  16    5.36   512.6    4.8      46.458
2014    5        9     6  21    5.36   512.5    4.8      46.441
2014    5        9     6  26    5.35   512.5    4.8      46.423
2014    5        9     6  31    5.35   512.5    4.8      46.406
2014    5        9     6  36    5.35   512.5    4.8      46.388
2014    5        9     6  41    5.35   512.4    4.8      46.370
2014    5        9     6  46    5.34   512.4    4.8      46.353
2014    5        9     6  51    5.34   512.4    4.8      46.335
2014    5        9     6  56    5.34   512.4    4.8      46.317
2014    5        9     7   1    5.34   512.3    4.8      46.299
2014    5        9     7   6    5.34   512.3    4.8      46.281
2014    5        9     7  11    5.33   512.3    4.8      46.263
2014    5        9     7  16    5.33   512.3    4.8      46.245
2014    5        9     7  21    5.33   512.2    4.8      46.227
2014    5        9     7  26    5.33   512.2    4.8      46.208
2014    5        9     7  30    5.32   512.2    4.8      46.190
2014    5        9     7  35    5.32   512.1    4.8      46.171
2014    5        9     7  40    5.32   512.1    4.8      46.153
2014    5        9     7  45    5.32   512.1    4.7      46.134
2014    5        9     7  50    5.32   512.1    4.7      46.115
2014    5        9     7  55    5.31   512.0    4.7      46.096
2014    5        9     8   0    5.31   512.0    4.7      46.077
2014    5        9     8   5    5.31   512.0    4.7      46.057
2014    5        9     8  10    5.31   511.9    4.7      46.037
2014    5        9     8  15    5.30   511.9    4.7      46.017
2014    5        9     8  20    5.30   511.9    4.7      45.997
2014    5        9     8  24    5.30   511.9    4.7      45.977
2014    5        9     8  29    5.30   511.8    4.7      45.956
2014    5        9     8  34    5.30   511.8    4.7      45.935
2014    5        9     8  39    5.29   511.8    4.7      45.913
2014    5        9     8  44    5.29   511.7    4.7      45.892
2014    5        9     8  49    5.29   511.7    4.7      45.870
2014    5        9     8  54    5.29   511.7    4.7      45.848
2014    5        9     8  59    5.28   511.6    4.7      45.826
2014    5        9     9   4    5.28   511.6    4.7      45.804
2014    5        9     9   9    5.28   511.6    4.7      45.781
2014    5        9     9  14    5.28   511.5    4.7      45.759
2014    5        9     9  18    5.27   511.5    4.7      45.736
2014    5        9     9  23    5.27   511.5    4.7      45.713
2014    5        9     9  28    5.27   511.4    4.7      45.690
2014    5        9     9  33    5.27   511.4    4.7      45.666
2014    5        9     9  38    5.26   511.4    4.7      45.643
2014    5        9     9  43    5.26   511.3    4.7      45.619
2014    5        9     9  48    5.26   511.3    4.7      45.595
2014    5        9     9  53    5.26   511.2    4.7      45.571
2014    5        9     9  58    5.26   511.2    4.7      45.546
2014    5        9    10   2    5.25   511.2    4.7      45.522
2014    5        9    10   7    5.25   511.1    4.7      45.498
2014    5        9    10  12    5.25   511.1    4.7      45.473
2014    5        9    10  17    5.25   511.0    4.7      45.448
2014    5        9    10  22    5.24   511.0    4.7      45.423
2014    5        9    10  27    5.24   511.0    4.7      45.398
2014    5        9    10  32    5.24   510.9    4.7      45.373
2014    5        9    10  37    5.24   510.9    4.7      45.348
2014    5        9    10  42    5.23   510.8    4.7      45.323
2014    5        9    10  47    5.23   510.8    4.7      45.297
2014    5        9    10  52    5.23   510.7    4.7      45.272
2014    5        9    10  57    5.23   510.7    4.7      45.246
2014    5        9    11   2    5.22   510.6    4.7      45.220
2014    5        9    11   6    5.22   510.6    4.7      45.194
2014    5        9    11  11    5.22   510.5    4.7      45.168
2014    5        9    11  16    5.22   510.5    4.7      45.142
2014    5        9    11  21    5.22   510.4    4.7      45.115
2014    5        9    11  26    5.21   510.4    4.7      45.089
2014    5        9    11  31    5.21   510.3    4.7      45.062
2014    5        9    11  36    5.21   510.3    4.7      45.035
2014    5        9    11  41    5.21   510.2    4.7      45.008
2014    5        9    11  46    5.20   510.2    4.7      44.981
2014    5        9    11  51    5.20   510.1    4.7      44.953
2014    5        9    11  56    5.20   510.1    4.7      44.925
2014    5        9    12   1    5.20   510.0    4.7      44.897
2014    5        9    12   6    5.19   510.0    4.7      44.869
2014    5        9    12  11    5.19   509.9    4.7      44.840
2014    5        9    12  16    5.19   509.8    4.7      44.811
2014    5        9    12  21    5.19   509.8    4.7      44.782
2014    5        9    12  26    5.19   509.7    4.7      44.753
2014    5        9    12  31    5.18   509.6    4.7      44.723
2014    5        9    12  36    5.18   509.6    4.7      44.693
2014    5        9    12  41    5.18   509.5    4.7      44.663
2014    5        9    12  46    5.18   509.5    4.7      44.633
2014    5        9    12  51    5.17   509.4    4.7      44.602
2014    5        9    12  56    5.17   509.3    4.7      44.572
2014    5        9    13   1    5.17   509.3    4.7      44.541
2014    5        9    13   6    5.17   509.2    4.7      44.511
2014    5        9    13  11    5.17   509.1    4.7      44.479
2014    5        9    13  16    5.16   509.1    4.7      44.448
2014    5        9    13  21    5.16   509.0    4.7      44.417
2014    5        9    13  26    5.16   508.9    4.7      44.386
2014    5        9    13  31    5.16   508.8    4.7      44.354
2014    5        9    13  36    5.15   508.8    4.7      44.323
2014    5        9    13  41    5.15   508.7    4.7      44.291
2014    5        9    13  46    5.15   508.6    4.7      44.260
2014    5        9    13  51    5.15   508.6    4.7      44.228
2014    5        9    13  56    5.15   508.5    4.7      44.196
2014    5        9    14   1    5.14   508.4    4.7      44.164
2014    5        9    14   6    5.14   508.3    4.7      44.133
2014    5        9    14  11    5.14   508.3    4.7      44.101
2014    5        9    14  16    5.14   508.2    4.7      44.069
2014    5        9    14  22    5.13   508.1    4.7      44.037
2014    5        9    14  27    5.13   508.0    4.7      44.006
2014    5        9    14  32    5.13   508.0    4.7      43.974
2014    5        9    14  37    5.13   507.9    4.7      43.943
2014    5        9    14  42    5.13   507.8    4.7      43.911
2014    5        9    14  47    5.12   507.7    4.7      43.880
2014    5        9    14  52    5.12   507.6    4.7      43.849
2014    5        9    14  58    5.12   507.6    4.7      43.818
2014    5        9    15   3    5.12   507.5    4.7      43.786
2014    5        9    15   8    5.11   507.4    4.7      43.755
2014    5        9    15  13    5.11   507.3    4.7      43.724
2014    5        9    15  18    5.11   507.3    4.7      43.692
2014    5        9    15  23    5.11   507.2    4.7      43.660
2014    5        9    15  29    5.11   507.1    4.7      43.628
2014    5        9    15  34    5.10   507.0    4.7      43.596
2014    5        9    15  39    5.10   506.9    4.7      43.564
2014    5        9    15  44    5.10   506.9    4.7      43.531
2014    5        9    15  50    5.10   506.8    4.7      43.498
2014    5        9    15  55    5.09   506.7    4.7      43.465
2014    5        9    16   0    5.09   506.6    4.7      43.431
2014    5        9    16   5    5.09   506.5    4.7      43.397
2014    5        9    16  11    5.09   506.4    4.7      43.363
2014    5        9    16  16    5.08   506.4    4.7      43.327
2014    5        9    16  21    5.08   506.3    4.7      43.292
2014    5        9    16  27    5.08   506.2    4.7      43.256
2014    5        9    16  32    5.08   506.1    4.7      43.219
2014    5        9    16  37    5.08   506.0    4.7      43.182
2014    5        9    16  43    5.07   505.9    4.7      43.145
2014    5        9    16  48    5.07   505.8    4.7      43.108
2014    5        9    16  54    5.07   505.7    4.7      43.071
2014    5        9    16  59    5.07   505.7    4.7      43.033
2014    5        9    17   5    5.06   505.6    4.7      42.995
2014    5        9    17  10    5.06   505.5    4.7      42.958
2014    5        9    17  15    5.06   505.4    4.7      42.920
2014    5        9    17  21    5.06   505.3    4.7      42.882
2014    5        9    17  26    5.06   505.2    4.7      42.844
2014    5        9    17  32    5.05   505.1    4.7      42.805
2014    5        9    17  37    5.05   505.0    4.7      42.766
2014    5        9    17  42    5.05   505.0    4.7      42.727
2014    5        9    17  48    5.05   504.9    4.7      42.687
2014    5        9    17  53    5.04   504.8    4.7      42.647
2014    5        9    17  59    5.04   504.7    4.7      42.606
2014    5        9    18   4    5.04   504.6    4.7      42.564
2014    5        9    18   9    5.04   504.5    4.7      42.522
2014    5        9    18  15    5.04   504.4    4.7      42.479
2014    5        9    18  20    5.03   504.3    4.7      42.436
2014    5        9    18  26    5.03   504.2    4.7      42.393
2014    5        9    18  31    5.03   504.1    4.7      42.349
2014    5        9    18  37    5.03   504.0    4.7      42.305
2014    5        9    18  42    5.02   503.9    4.6      42.261
2014    5        9    18  47    5.02   503.8    4.6      42.216
2014    5        9    18  53    5.02   503.8    4.6      42.171
2014    5        9    18  58    5.02   503.7    4.6      42.126
2014    5        9    19   4    5.02   503.6    4.6      42.080
2014    5        9    19   9    5.01   503.5    4.6      42.034
2014    5        9    19  14    5.01   503.4    4.6      41.988
2014    5        9    19  20    5.01   503.3    4.6      41.942
2014    5        9    19  25    5.01   503.2    4.6      41.896
2014    5        9    19  31    5.00   503.1    4.6      41.849
2014    5        9    19  36    5.00   502.9    4.6      41.802
2014    5        9    19  41    5.00   502.8    4.6      41.755
2014    5        9    19  47    5.00   502.7    4.6      41.708
2014    5        9    19  52    5.00   502.6    4.6      41.661
2014    5        9    19  58    4.99   502.5    4.6      41.613
2014    5        9    20   3    4.99   502.4    4.6      41.566
2014    5        9    20   9    4.99   502.3    4.6      41.518
2014    5        9    20  14    4.99   502.2    4.6      41.471
2014    5        9    20  19    4.98   502.1    4.6      41.423
2014    5        9    20  25    4.98   502.0    4.6      41.375
2014    5        9    20  30    4.98   501.9    4.6      41.328
2014    5        9    20  36    4.98   501.8    4.6      41.280
2014    5        9    20  41    4.98   501.7    4.6      41.233
2014    5        9    20  46    4.97   501.6    4.6      41.185
2014    5        9    20  52    4.97   501.5    4.6      41.138
2014    5        9    20  57    4.97   501.3    4.6      41.090
2014    5        9    21   3    4.97   501.2    4.6      41.043
2014    5        9    21   8    4.97   501.1    4.6      40.996
2014    5        9    21  14    4.96   501.0    4.6      40.949
2014    5        9    21  19    4.96   500.9    4.6      40.902
2014    5        9    21  24    4.96   500.8    4.6      40.856
2014    5        9    21  30    4.96   500.7    4.6      40.809
2014    5        9    21  35    4.96   500.6    4.6      40.763
2014    5        9    21  41    4.95   500.4    4.6      40.716
2014    5        9    21  46    4.95   500.3    4.6      40.670
2014    5        9    21  51    4.95   500.2    4.6      40.625
2014    5        9    21  57    4.95   500.1    4.6      40.579
2014    5        9    22   2    4.95   500.0    4.6      40.533
2014    5        9    22   8    4.94   499.9    4.6      40.487
2014    5        9    22  13    4.94   499.7    4.6      40.442
2014    5        9    22  18    4.94   499.6    4.6      40.396
2014    5        9    22  24    4.94   499.5    4.6      40.350
2014    5        9    22  29    4.94   499.4    4.6      40.304
2014    5        9    22  35    4.93   499.3    4.6      40.259
2014    5        9    22  40    4.93   499.1    4.6      40.213
2014    5        9    22  46    4.93   499.0    4.6      40.167
2014    5        9    22  51    4.93   498.9    4.6      40.121
2014    5        9    22  56    4.93   498.8    4.6      40.075
2014    5        9    23   2    4.92   498.6    4.6      40.029
2014    5        9    23   7    4.92   498.5    4.6      39.983
2014    5        9    23  13    4.92   498.4    4.6      39.938
2014    5        9    23  18    4.92   498.2    4.6      39.892
2014    5        9    23  23    4.92   498.1    4.6      39.847
2014    5        9    23  29    4.92   498.0    4.6      39.801
2014    5        9    23  34    4.91   497.9    4.6      39.756
2014    5        9    23  40    4.91   497.7    4.6      39.711
2014    5        9    23  45    4.91   497.6    4.6      39.666
2014    5        9    23  51    4.91   497.5    4.6      39.622
2014    5        9    23  56    4.91   497.3    4.6      39.577
2014    5       10     0   1    4.90   497.2    4.6      39.533
2014    5       10     0   7    4.90   497.1    4.6      39.489
2014    5       10     0  12    4.90   496.9    4.6      39.445
2014    5       10     0  18    4.90   496.8    4.6      39.401
2014    5       10     0  23    4.90   496.6    4.6      39.358
2014    5       10     0  28    4.90   496.5    4.6      39.315
2014    5       10     0  34    4.89   496.4    4.6      39.272
2014    5       10     0  39    4.89   496.2    4.6      39.230
2014    5       10     0  45    4.89   496.1    4.6      39.187
2014    5       10     0  50    4.89   496.0    4.6      39.144
2014    5       10     0  56    4.89   495.8    4.6      39.101
2014    5       10     1   1    4.89   495.7    4.6      39.057
2014    5       10     1   6    4.88   495.6    4.6      39.014
2014    5       10     1  12    4.88   495.4    4.6      38.970
2014    5       10     1  17    4.88   495.3    4.6      38.926
2014    5       10     1  23    4.88   495.1    4.6      38.882
2014    5       10     1  28    4.88   495.0    4.6      38.837
2014    5       10     1  33    4.88   494.9    4.6      38.793
2014    5       10     1  39    4.88   494.7    4.6      38.749
2014    5       10     1  44    4.87   494.6    4.6      38.704
2014    5       10     1  50    4.87   494.4    4.6      38.659
2014    5       10     1  55    4.87   494.3    4.6      38.615
2014    5       10     2   0    4.87   494.2    4.6      38.570
2014    5       10     2   6    4.87   494.0    4.6      38.526
2014    5       10     2  11    4.87   493.9    4.6      38.482
2014    5       10     2  17    4.86   493.7    4.6      38.437
2014    5       10     2  22    4.86   493.6    4.6      38.393
2014    5       10     2  28    4.86   493.4    4.6      38.348
2014    5       10     2  33    4.86   493.3    4.6      38.304
2014    5       10     2  38    4.86   493.2    4.6      38.259
2014    5       10     2  44    4.86   493.0    4.6      38.215
2014    5       10     2  49    4.86   492.9    4.6      38.170
2014    5       10     2  55    4.85   492.7    4.6      38.125
2014    5       10     3   0    4.85   492.6    4.6      38.081
2014    5       10     3   5    4.85   492.4    4.6      38.036
2014    5       10     3  11    4.85   492.3    4.6      37.992
2014    5       10     3  16    4.85   492.1    4.6      37.947
2014    5       10     3  22    4.85   492.0    4.6      37.902
2014    5       10     3  27    4.85   491.8    4.6      37.858
2014    5       10     3  33    4.84   491.7    4.6      37.813
2014    5       10     3  38    4.84   491.5    4.6      37.768
2014    5       10     3  43    4.84   491.4    4.6      37.724
2014    5       10     3  49    4.84   491.2    4.6      37.679
2014    5       10     3  54    4.84   491.1    4.6      37.634
2014    5       10     4   0    4.84   490.9    4.6      37.589
2014    5       10     4   5    4.83   490.8    4.6      37.544
2014    5       10     4  10    4.83   490.6    4.6      37.499
2014    5       10     4  16    4.83   490.5    4.6      37.455
2014    5       10     4  21    4.83   490.3    4.6      37.410
2014    5       10     4  27    4.83   490.2    4.6      37.365
2014    5       10     4  32    4.83   490.0    4.6      37.320
2014    5       10     4  37    4.83   489.9    4.6      37.275
2014    5       10     4  43    4.82   489.7    4.6      37.231
2014    5       10     4  48    4.82   489.5    4.6      37.186
2014    5       10     4  54    4.82   489.4    4.6      37.141
2014    5       10     4  59    4.82   489.2    4.6      37.097
2014    5       10     5   5    4.82   489.1    4.6      37.053
2014    5       10     5  10    4.82   488.9    4.7      37.008
2014    5       10     5  15    4.82   488.7    4.7      36.964
2014    5       10     5  21    4.81   488.6    4.7      36.920
2014    5       10     5  26    4.81   488.4    4.7      36.876
2014    5       10     5  32    4.81   488.2    4.7      36.833
2014    5       10     5  37    4.81   488.1    4.7      36.789
2014    5       10     5  42    4.81   487.9    4.7      36.746
2014    5       10     5  48    4.81   487.7    4.7      36.703
2014    5       10     5  53    4.81   487.6    4.7      36.660
2014    5       10     5  59    4.80   487.4    4.7      36.617
2014    5       10     6   4    4.80   487.2    4.7      36.575
2014    5       10     6  10    4.80   487.0    4.7      36.532
2014    5       10     6  15    4.80   486.9    4.7      36.490
2014    5       10     6  20    4.80   486.7    4.7      36.448
2014    5       10     6  26    4.80   486.5    4.7      36.407
2014    5       10     6  31    4.80   486.3    4.7      36.366
2014    5       10     6  37    4.80   486.2    4.7      36.325
2014    5       10     6  42    4.79   486.0    4.7      36.284
2014    5       10     6  47    4.79   485.8    4.7      36.243
2014    5       10     6  53    4.79   485.6    4.7      36.203
2014    5       10     6  58    4.79   485.5    4.7      36.163
2014    5       10     7   4    4.79   485.3    4.7      36.123
2014    5       10     7   9    4.79   485.1    4.7      36.084
2014    5       10     7  15    4.79   484.9    4.7      36.045
2014    5       10     7  20    4.79   484.7    4.7      36.006
2014    5       10     7  25    4.79   484.6    4.7      35.967
2014    5       10     7  31    4.78   484.4    4.7      35.928
2014    5       10     7  36    4.78   484.2    4.7      35.890
2014    5       10     7  42    4.78   484.0    4.7      35.852
2014    5       10     7  47    4.78   483.8    4.7      35.814
2014    5       10     7  52    4.78   483.6    4.7      35.777
2014    5       10     7  58    4.78   483.4    4.7      35.740
2014    5       10     8   3    4.78   483.3    4.7      35.702
2014    5       10     8   9    4.78   483.1    4.7      35.666
2014    5       10     8  14    4.78   482.9    4.7      35.629
2014    5       10     8  20    4.78   482.7    4.7      35.593
2014    5       10     8  25    4.77   482.5    4.7      35.557
2014    5       10     8  30    4.77   482.3    4.7      35.521
2014    5       10     8  36    4.77   482.1    4.7      35.485
2014    5       10     8  41    4.77   481.9    4.7      35.450
2014    5       10     8  47    4.77   481.7    4.7      35.414
2014    5       10     8  52    4.77   481.5    4.7      35.379
2014    5       10     8  57    4.77   481.3    4.7      35.345
2014    5       10     9   3    4.77   481.1    4.7      35.310
2014    5       10     9   8    4.77   480.9    4.7      35.276
2014    5       10     9  14    4.77   480.7    4.7      35.242
2014    5       10     9  19    4.77   480.6    4.7      35.208
2014    5       10     9  24    4.77   480.4    4.7      35.174
2014    5       10     9  30    4.77   480.2    4.7      35.141
2014    5       10     9  35    4.76   480.0    4.7      35.107
2014    5       10     9  41    4.76   479.8    4.7      35.074
2014    5       10     9  46    4.76   479.6    4.7      35.041
2014    5       10     9  52    4.76   479.4    4.7      35.008
2014    5       10     9  57    4.76   479.2    4.7      34.975
2014    5       10    10   2    4.76   479.0    4.7      34.943
2014    5       10    10   8    4.76   478.8    4.7      34.910
2014    5       10    10  13    4.76   478.6    4.7      34.878
2014    5       10    10  19    4.76   478.4    4.7      34.845
2014    5       10    10  24    4.76   478.2    4.7      34.813
2014    5       10    10  29    4.76   478.0    4.7      34.781
2014    5       10    10  35    4.76   477.8    4.7      34.749
2014    5       10    10  40    4.76   477.5    4.7      34.717
2014    5       10    10  46    4.76   477.3    4.8      34.685
2014    5       10    10  51    4.76   477.1    4.8      34.654
2014    5       10    10  57    4.76   476.9    4.8      34.622
2014    5       10    11   2    4.76   476.7    4.8      34.591
2014    5       10    11   7    4.76   476.5    4.8      34.559
2014    5       10    11  13    4.75   476.3    4.8      34.528
2014    5       10    11  18    4.75   476.1    4.8      34.496
2014    5       10    11  24    4.75   475.9    4.8      34.465
2014    5       10    11  29    4.75   475.7    4.8      34.433
2014    5       10    11  34    4.75   475.5    4.8      34.402
2014    5       10    11  40    4.75   475.3    4.8      34.371
2014    5       10    11  45    4.75   475.1    4.8      34.340
2014    5       10    11  51    4.75   474.9    4.8      34.309
2014    5       10    11  56    4.75   474.7    4.8      34.278
2014    5       10    12   2    4.75   474.4    4.8      34.247
2014    5       10    12   7    4.75   474.2    4.8      34.216
2014    5       10    12  12    4.75   474.0    4.8      34.185
2014    5       10    12  18    4.75   473.8    4.8      34.154
2014    5       10    12  23    4.75   473.6    4.8      34.123
2014    5       10    12  29    4.75   473.4    4.8      34.093
2014    5       10    12  34    4.75   473.2    4.8      34.062
2014    5       10    12  39    4.75   473.0    4.8      34.032
2014    5       10    12  45    4.75   472.7    4.8      34.001
2014    5       10    12  50    4.75   472.5    4.8      33.971
2014    5       10    12  56    4.75   472.3    4.8      33.941
2014    5       10    13   1    4.75   472.1    4.8      33.912
2014    5       10    13   7    4.75   471.9    4.8      33.882
2014    5       10    13  12    4.75   471.7    4.8      33.853
2014    5       10    13  17    4.75   471.4    4.8      33.824
2014    5       10    13  23    4.75   471.2    4.8      33.795
2014    5       10    13  28    4.75   471.0    4.8      33.766
2014    5       10    13  34    4.75   470.8    4.8      33.738
2014    5       10    13  39    4.75   470.6    4.8      33.709
2014    5       10    13  44    4.75   470.4    4.8      33.681
2014    5       10    13  50    4.75   470.2    4.8      33.654
2014    5       10    13  55    4.75   469.9    4.8      33.626
2014    5       10    14   1    4.75   469.7    4.8      33.599
2014    5       10    14   6    4.75   469.5    4.8      33.572
2014    5       10    14  12    4.75   469.3    4.8      33.545
2014    5       10    14  17    4.75   469.1    4.9      33.519
2014    5       10    14  22    4.75   468.9    4.9      33.492
2014    5       10    14  28    4.76   468.6    4.9      33.466
2014    5       10    14  33    4.76   468.4    4.9      33.440
2014    5       10    14  39    4.76   468.2    4.9      33.415
2014    5       10    14  44    4.76   468.0    4.9      33.389
2014    5       10    14  49    4.76   467.8    4.9      33.364
2014    5       10    14  55    4.76   467.6    4.9      33.339
2014    5       10    15   0    4.76   467.3    4.9      33.314
2014    5       10    15   6    4.76   467.1    4.9      33.289
2014    5       10    15  11    4.76   466.9    4.9      33.264
2014    5       10    15  17    4.76   466.7    4.9      33.239
2014    5       10    15  22    4.76   466.5    4.9      33.215
2014    5       10    15  27    4.76   466.3    4.9      33.190
2014    5       10    15  33    4.76   466.1    4.9      33.166
2014    5       10    15  38    4.77   465.8    4.9      33.142
2014    5       10    15  44    4.77   465.6    4.9      33.117
2014    5       10    15  49    4.77   465.4    4.9      33.093
2014    5       10    15  54    4.77   465.2    4.9      33.070
2014    5       10    16   0    4.77   465.0    4.9      33.046
2014    5       10    16   5    4.77   464.8    4.9      33.022
2014    5       10    16  11    4.77   464.5    4.9      32.999
2014    5       10    16  16    4.77   464.3    4.9      32.975
2014    5       10    16  22    4.77   464.1    4.9      32.952
2014    5       10    16  27    4.77   463.9    4.9      32.929
2014    5       10    16  32    4.78   463.7    4.9      32.906
2014    5       10    16  38    4.78   463.5    4.9      32.883
2014    5       10    16  43    4.78   463.2    5.0      32.861
2014    5       10    16  49    4.78   463.0    5.0      32.838
2014    5       10    16  54    4.78   462.8    5.0      32.816
2014    5       10    16  59    4.78   462.6    5.0      32.794
2014    5       10    17   5    4.78   462.4    5.0      32.772
2014    5       10    17  10    4.79   462.2    5.0      32.750
2014    5       10    17  16    4.79   462.0    5.0      32.729
2014    5       10    17  21    4.79   461.7    5.0      32.707
2014    5       10    17  27    4.79   461.5    5.0      32.686
2014    5       10    17  32    4.79   461.3    5.0      32.665
2014    5       10    17  37    4.79   461.1    5.0      32.644
2014    5       10    17  43    4.79   460.9    5.0      32.624
2014    5       10    17  48    4.80   460.7    5.0      32.603
2014    5       10    17  54    4.80   460.5    5.0      32.583
2014    5       10    17  59    4.80   460.2    5.0      32.563
2014    5       10    18   4    4.80   460.0    5.0      32.543
2014    5       10    18  10    4.80   459.8    5.0      32.524
2014    5       10    18  15    4.81   459.6    5.0      32.504
2014    5       10    18  21    4.81   459.4    5.0      32.485
2014    5       10    18  26    4.81   459.2    5.0      32.466
2014    5       10    18  32    4.81   459.0    5.0      32.447
2014    5       10    18  37    4.81   458.8    5.0      32.428
2014    5       10    18  42    4.81   458.5    5.1      32.409
2014    5       10    18  48    4.82   458.3    5.1      32.391
2014    5       10    18  53    4.82   458.1    5.1      32.372
2014    5       10    18  59    4.82   457.9    5.1      32.354
2014    5       10    19   4    4.82   457.7    5.1      32.336
2014    5       10    19   9    4.83   457.5    5.1      32.318
2014    5       10    19  15    4.83   457.3    5.1      32.301
2014    5       10    19  20    4.83   457.1    5.1      32.283
2014    5       10    19  26    4.83   456.9    5.1      32.265
2014    5       10    19  31    4.83   456.7    5.1      32.248
2014    5       10    19  37    4.84   456.5    5.1      32.231
2014    5       10    19  42    4.84   456.3    5.1      32.214
2014    5       10    19  47    4.84   456.1    5.1      32.197
2014    5       10    19  53    4.84   455.9    5.1      32.180
2014    5       10    19  58    4.85   455.7    5.1      32.163
2014    5       10    20   4    4.85   455.5    5.1      32.146
2014    5       10    20   9    4.85   455.3    5.1      32.130
2014    5       10    20  14    4.85   455.1    5.1      32.114
2014    5       10    20  20    4.86   454.9    5.1      32.097
2014    5       10    20  25    4.86   454.7    5.1      32.081
2014    5       10    20  31    4.86   454.5    5.2      32.065
2014    5       10    20  36    4.87   454.3    5.2      32.049
2014    5       10    20  42    4.87   454.1    5.2      32.033
2014    5       10    20  47    4.87   453.9    5.2      32.018
2014    5       10    20  52    4.87   453.7    5.2      32.002
2014    5       10    20  58    4.88   453.5    5.2      31.987
2014    5       10    21   3    4.88   453.3    5.2      31.971
2014    5       10    21   9    4.88   453.1    5.2      31.956
2014    5       10    21  14    4.89   452.9    5.2      31.941
2014    5       10    21  19    4.89   452.7    5.2      31.926
2014    5       10    21  25    4.89   452.5    5.2      31.911
2014    5       10    21  30    4.89   452.3    5.2      31.897
2014    5       10    21  36    4.90   452.1    5.2      31.882
2014    5       10    21  41    4.90   452.0    5.2      31.868
2014    5       10    21  47    4.90   451.8    5.2      31.853
2014    5       10    21  52    4.91   451.6    5.2      31.839
2014    5       10    21  57    4.91   451.4    5.2      31.825
2014    5       10    22   3    4.91   451.2    5.2      31.811
2014    5       10    22   8    4.92   451.0    5.2      31.798
2014    5       10    22  14    4.92   450.9    5.2      31.784
2014    5       10    22  19    4.92   450.7    5.2      31.771
2014    5       10    22  24    4.93   450.5    5.3      31.757
2014    5       10    22  30    4.93   450.3    5.3      31.744
2014    5       10    22  35    4.93   450.1    5.3      31.731
2014    5       10    22  41    4.94   450.0    5.3      31.718
2014    5       10    22  46    4.94   449.8    5.3      31.705
2014    5       10    22  52    4.94   449.6    5.3      31.693
2014    5       10    22  57    4.94   449.4    5.3      31.680
2014    5       10    23   2    4.95   449.3    5.3      31.668
2014    5       10    23   8    4.95   449.1    5.3      31.656
2014    5       10    23  13    4.95   448.9    5.3      31.644
2014    5       10    23  19    4.96   448.7    5.3      31.632
2014    5       10    23  24    4.96   448.6    5.3      31.620
2014    5       10    23  29    4.96   448.4    5.3      31.609
2014    5       10    23  35    4.97   448.2    5.3      31.598
2014    5       10    23  40    4.97   448.1    5.3      31.587
2014    5       10    23  46    4.98   447.9    5.3      31.576
2014    5       10    23  51    4.98   447.7    5.3      31.565
2014    5       10    23  57    4.98   447.6    5.3      31.554
2014    5       11     0   2    4.99   447.4    5.3      31.544
2014    5       11     0   7    4.99   447.2    5.3      31.534
2014    5       11     0  13    4.99   447.1    5.3      31.524
2014    5       11     0  18    5.00   446.9    5.4      31.514
2014    5       11     0  24    5.00   446.7    5.4      31.504
2014    5       11     0  29    5.00   446.6    5.4      31.495
2014    5       11     0  34    5.01   446.4    5.4      31.486
2014    5       11     0  40    5.01   446.3    5.4      31.476
2014    5       11     0  45    5.01   446.1    5.4      31.467
2014    5       11     0  51    5.02   445.9    5.4      31.459
2014    5       11     0  56    5.02   445.8    5.4      31.450
2014    5       11     1   2    5.03   445.6    5.4      31.441
2014    5       11     1   7    5.03   445.5    5.4      31.433
2014    5       11     1  12    5.03   445.3    5.4      31.424
2014    5       11     1  18    5.04   445.2    5.4      31.416
2014    5       11     1  23    5.04   445.0    5.4      31.408
2014    5       11     1  29    5.05   444.9    5.4      31.400
2014    5       11     1  34    5.05   444.7    5.4      31.392
2014    5       11     1  39    5.05   444.6    5.4      31.385
2014    5       11     1  45    5.06   444.4    5.4      31.377
2014    5       11     1  50    5.06   444.2    5.4      31.369
2014    5       11     1  56    5.07   444.1    5.4      31.362
2014    5       11     2   1    5.07   443.9    5.4      31.355
2014    5       11     2   7    5.07   443.8    5.4      31.348
2014    5       11     2  12    5.08   443.6    5.4      31.341
2014    5       11     2  17    5.08   443.5    5.5      31.334
2014    5       11     2  23    5.09   443.4    5.5      31.327
2014    5       11     2  28    5.09   443.2    5.5      31.321
2014    5       11     2  34    5.09   443.1    5.5      31.314
2014    5       11     2  39    5.10   442.9    5.5      31.308
2014    5       11     2  44    5.10   442.8    5.5      31.302
2014    5       11     2  50    5.11   442.6    5.5      31.296
2014    5       11     2  55    5.11   442.5    5.5      31.290
2014    5       11     3   1    5.12   442.3    5.5      31.284
2014    5       11     3   6    5.12   442.2    5.5      31.279
2014    5       11     3  12    5.13   442.1    5.5      31.273
2014    5       11     3  17    5.13   441.9    5.5      31.268
2014    5       11     3  22    5.13   441.8    5.5      31.262
2014    5       11     3  28    5.14   441.6    5.5      31.257
2014    5       11     3  33    5.14   441.5    5.5      31.252
2014    5       11     3  39    5.15   441.4    5.5      31.247
2014    5       11     3  44    5.15   441.2    5.5      31.242
2014    5       11     3  49    5.16   441.1    5.5      31.238
2014    5       11     3  55    5.16   441.0    5.5      31.233
2014    5       11     4   0    5.17   440.8    5.5      31.229
2014    5       11     4   6    5.17   440.7    5.5      31.224
2014    5       11     4  11    5.18   440.6    5.5      31.220
2014    5       11     4  17    5.18   440.4    5.5      31.216
2014    5       11     4  22    5.19   440.3    5.5      31.212
2014    5       11     4  27    5.19   440.2    5.6      31.209
2014    5       11     4  33    5.20   440.0    5.6      31.205
2014    5       11     4  38    5.20   439.9    5.6      31.202
2014    5       11     4  44    5.21   439.8    5.6      31.199
2014    5       11     4  49    5.21   439.6    5.6      31.197
2014    5       11     4  54    5.22   439.5    5.6      31.194
2014    5       11     5   0    5.22   439.4    5.6      31.193
2014    5       11     5   5    5.23   439.2    5.6      31.191
2014    5       11     5  11    5.23   439.1    5.6      31.190
2014    5       11     5  16    5.24   439.0    5.6      31.189
2014    5       11     5  22    5.24   438.9    5.6      31.189
2014    5       11     5  27    5.25   438.8    5.6      31.189
2014    5       11     5  32    5.25   438.6    5.6      31.190
2014    5       11     5  38    5.26   438.5    5.6      31.191
2014    5       11     5  43    5.26   438.4    5.6      31.192
2014    5       11     5  49    5.27   438.3    5.6      31.194
2014    5       11     5  54    5.27   438.2    5.6      31.197
2014    5       11     5  59    5.28   438.0    5.6      31.200
2014    5       11     6   5    5.29   437.9    5.6      31.203
2014    5       11     6  10    5.29   437.8    5.7      31.207
2014    5       11     6  16    5.30   437.7    5.7      31.211
2014    5       11     6  21    5.30   437.6    5.7      31.216
2014    5       11     6  27    5.31   437.5    5.7      31.221
2014    5       11     6  32    5.31   437.4    5.7      31.227
2014    5       11     6  37    5.32   437.3    5.7      31.233
2014    5       11     6  43    5.32   437.2    5.7      31.240
2014    5       11     6  48    5.33   437.1    5.7      31.247
2014    5       11     6  54    5.34   437.0    5.7      31.255
2014    5       11     6  59    5.34   436.9    5.7      31.264
2014    5       11     7   4    5.35   436.8    5.7      31.274
2014    5       11     7  10    5.35   436.7    5.7      31.284
2014    5       11     7  15    5.36   436.6    5.8      31.296
2014    5       11     7  21    5.36   436.5    5.8      31.308
2014    5       11     7  26    5.37   436.4    5.8      31.321
2014    5       11     7  32    5.37   436.3    5.8      31.336
2014    5       11     7  37    5.38   436.2    5.8      31.351
2014    5       11     7  42    5.39   436.1    5.8      31.368
2014    5       11     7  48    5.39   436.1    5.8      31.384
2014    5       11     7  53    5.40   436.0    5.8      31.402
2014    5       11     7  59    5.40   435.9    5.8      31.420
2014    5       11     8   4    5.41   435.8    5.8      31.438
2014    5       11     8  10    5.41   435.7    5.9      31.457
2014    5       11     8  15    5.42   435.6    5.9      31.476
2014    5       11     8  20    5.42   435.5    5.9      31.495
2014    5       11     8  26    5.43   435.5    5.9      31.513
2014    5       11     8  31    5.43   435.4    5.9      31.532
2014    5       11     8  37    5.44   435.3    5.9      31.551
2014    5       11     8  42    5.44   435.2    5.9      31.571
2014    5       11     8  47    5.45   435.1    5.9      31.590
2014    5       11     8  53    5.45   435.1    5.9      31.610
2014    5       11     8  58    5.46   435.0    5.9      31.629
2014    5       11     9   4    5.47   434.9    6.0      31.648
2014    5       11     9   9    5.47   434.8    6.0      31.668
2014    5       11     9  15    5.48   434.7    6.0      31.688
2014    5       11     9  20    5.48   434.7    6.0      31.708
2014    5       11     9  25    5.49   434.6    6.0      31.729
2014    5       11     9  31    5.49   434.5    6.0      31.751
2014    5       11     9  36    5.50   434.4    6.0      31.775
2014    5       11     9  42    5.50   434.4    6.0      31.800
2014    5       11     9  47    5.51   434.3    6.0      31.826
2014    5       11     9  52    5.51   434.2    6.1      31.852
2014    5       11     9  58    5.52   434.2    6.1      31.880
2014    5       11    10   3    5.52   434.1    6.1      31.908
2014    5       11    10   9    5.53   434.0    6.1      31.936
2014    5       11    10  14    5.53   434.0    6.1      31.963
2014    5       11    10  20    5.54   433.9    6.1      31.991
2014    5       11    10  25    5.54   433.9    6.1      32.019
2014    5       11    10  30    5.55   433.8    6.1      32.047
2014    5       11    10  36    5.55   433.7    6.1      32.075
2014    5       11    10  41    5.55   433.7    6.2      32.105
2014    5       11    10  47    5.56   433.6    6.2      32.134
2014    5       11    10  52    5.56   433.6    6.2      32.165
2014    5       11    10  57    5.57   433.5    6.2      32.195
2014    5       11    11   3    5.57   433.5    6.2      32.226
2014    5       11    11   8    5.58   433.4    6.2      32.256
2014    5       11    11  14    5.58   433.4    6.2      32.287
2014    5       11    11  19    5.59   433.3    6.2      32.316
2014    5       11    11  25    5.59   433.3    6.2      32.345
2014    5       11    11  30    5.60   433.2    6.2      32.373
2014    5       11    11  35    5.60   433.2    6.2      32.400
2014    5       11    11  41    5.61   433.1    6.2      32.426
2014    5       11    11  46    5.61   433.1    6.3      32.452
2014    5       11    11  52    5.61   433.1    6.3      32.477
2014    5       11    11  57    5.62   433.0    6.3      32.502
2014    5       11    12   2    5.62   433.0    6.3      32.525
2014    5       11    12   8    5.63   432.9    6.3      32.548
2014    5       11    12  13    5.63   432.9    6.3      32.570
2014    5       11    12  19    5.64   432.8    6.3      32.591
2014    5       11    12  24    5.64   432.8    6.3      32.611
2014    5       11    12  30    5.64   432.7    6.3      32.631
2014    5       11    12  35    5.65   432.7    6.3      32.650
2014    5       11    12  40    5.65   432.6    6.3      32.669
2014    5       11    12  46    5.66   432.6    6.3      32.687
2014    5       11    12  51    5.66   432.5    6.3      32.704
2014    5       11    12  57    5.67   432.5    6.3      32.721
2014    5       11    13   2    5.67   432.4    6.3      32.737
2014    5       11    13   7    5.68   432.4    6.3      32.752
2014    5       11    13  13    5.68   432.3    6.3      32.767
2014    5       11    13  18    5.68   432.3    6.3      32.782
2014    5       11    13  24    5.69   432.2    6.3      32.795
2014    5       11    13  29    5.69   432.2    6.3      32.809
2014    5       11    13  35    5.70   432.1    6.3      32.822
2014    5       11    13  40    5.70   432.1    6.4      32.834
2014    5       11    13  45    5.71   432.0    6.4      32.846
2014    5       11    13  51    5.71   432.0    6.4      32.858
2014    5       11    13  56    5.72   431.9    6.4      32.869
2014    5       11    14   2    5.72   431.9    6.4      32.880
2014    5       11    14   7    5.72   431.8    6.4      32.891
2014    5       11    14  12    5.73   431.8    6.4      32.901
2014    5       11    14  18    5.73   431.7    6.4      32.911
2014    5       11    14  23    5.74   431.7    6.4      32.921
2014    5       11    14  29    5.74   431.6    6.4      32.930
2014    5       11    14  34    5.75   431.6    6.4      32.939
2014    5       11    14  40    5.75   431.5    6.4      32.948
2014    5       11    14  45    5.76   431.5    6.4      32.957
2014    5       11    14  50    5.76   431.5    6.4      32.965
2014    5       11    14  56    5.77   431.4    6.4      32.973
2014    5       11    15   1    5.77   431.4    6.4      32.981
2014    5       11    15   7    5.78   431.3    6.4      32.989
2014    5       11    15  12    5.78   431.3    6.4      32.997
2014    5       11    15  18    5.79   431.2    6.4      33.004
2014    5       11    15  23    5.79   431.2    6.4      33.012
2014    5       11    15  28    5.79   431.1    6.4      33.019
2014    5       11    15  34    5.80   431.1    6.4      33.026
2014    5       11    15  39    5.80   431.0    6.4      33.033
2014    5       11    15  45    5.81   431.0    6.4      33.040
2014    5       11    15  50    5.81   430.9    6.4      33.047
2014    5       11    15  55    5.82   430.9    6.4      33.054
2014    5       11    16   1    5.82   430.8    6.4      33.062
2014    5       11    16   6    5.83   430.8    6.4      33.069
2014    5       11    16  12    5.83   430.8    6.4      33.076
2014    5       11    16  17    5.84   430.7    6.4      33.083
2014    5       11    16  23    5.85   430.7    6.4      33.090
2014    5       11    16  28    5.85   430.6    6.4      33.097
2014    5       11    16  33    5.86   430.6    6.4      33.105
2014    5       11    16  39    5.86   430.5    6.5      33.112
2014    5       11    16  44    5.87   430.5    6.5      33.120
2014    5       11    16  50    5.87   430.5    6.5      33.128
2014    5       11    16  55    5.88   430.4    6.5      33.136
2014    5       11    17   0    5.88   430.4    6.5      33.144
2014    5       11    17   6    5.89   430.4    6.5      33.152
2014    5       11    17  11    5.89   430.3    6.5      33.160
2014    5       11    17  17    5.90   430.3    6.5      33.169
2014    5       11    17  22    5.90   430.3    6.5      33.178
2014    5       11    17  28    5.91   430.2    6.5      33.187
2014    5       11    17  33    5.91   430.2    6.5      33.196
2014    5       11    17  38    5.92   430.2    6.5      33.206
2014    5       11    17  44    5.92   430.1    6.5      33.216
2014    5       11    17  49    5.93   430.1    6.5      33.226
2014    5       11    17  55    5.94   430.1    6.5      33.236
2014    5       11    18   0    5.94   430.0    6.5      33.247
2014    5       11    18   5    5.95   430.0    6.5      33.258
2014    5       11    18  11    5.95   430.0    6.5      33.269
2014    5       11    18  16    5.96   430.0    6.5      33.281
2014    5       11    18  22    5.96   429.9    6.5      33.292
2014    5       11    18  27    5.97   429.9    6.5      33.305
2014    5       11    18  33    5.97   429.9    6.5      33.317
2014    5       11    18  38    5.98   429.9    6.5      33.330
2014    5       11    18  43    5.98   429.8    6.6      33.344
2014    5       11    18  49    5.99   429.8    6.6      33.357
2014    5       11    18  54    5.99   429.8    6.6      33.371
2014    5       11    19   0    6.00   429.8    6.6      33.386
2014    5       11    19   5    6.01   429.7    6.6      33.401
2014    5       11    19  10    6.01   429.7    6.6      33.416
2014    5       11    19  16    6.02   429.7    6.6      33.432
2014    5       11    19  21    6.02   429.7    6.6      33.449
2014    5       11    19  27    6.03   429.7    6.6      33.466
2014    5       11    19  32    6.03   429.6    6.6      33.483
2014    5       11    19  38    6.04   429.6    6.6      33.502
2014    5       11    19  43    6.04   429.6    6.6      33.521
2014    5       11    19  48    6.05   429.6    6.6      33.541
2014    5       11    19  54    6.05   429.6    6.6      33.562
2014    5       11    19  59    6.06   429.6    6.6      33.585
2014    5       11    20   5    6.06   429.6    6.7      33.608
2014    5       11    20  10    6.07   429.6    6.7      33.634
2014    5       11    20  15    6.07   429.6    6.7      33.661
2014    5       11    20  21    6.08   429.6    6.7      33.689
2014    5       11    20  26    6.08   429.6    6.7      33.718
2014    5       11    20  32    6.09   429.6    6.7      33.749
2014    5       11    20  37    6.09   429.6    6.7      33.781
2014    5       11    20  43    6.10   429.7    6.7      33.814
2014    5       11    20  48    6.10   429.7    6.7      33.848
2014    5       11    20  53    6.11   429.7    6.7      33.883
2014    5       11    20  59    6.11   429.7    6.7      33.918
2014    5       11    21   4    6.12   429.7    6.7      33.954
2014    5       11    21  10    6.12   429.7    6.7      33.989
2014    5       11    21  15    6.13   429.7    6.8      34.026
2014    5       11    21  20    6.13   429.7    6.8      34.062
2014    5       11    21  26    6.14   429.7    6.8      34.098
2014    5       11    21  31    6.14   429.7    6.8      34.135
2014    5       11    21  37    6.15   429.8    6.8      34.172
2014    5       11    21  42    6.15   429.8    6.8      34.209
2014    5       11    21  48    6.16   429.8    6.8      34.246
2014    5       11    21  53    6.16   429.8    6.8      34.284
2014    5       11    21  58    6.16   429.8    6.8      34.322
2014    5       11    22   4    6.17   429.8    6.8      34.361
2014    5       11    22   9    6.17   429.9    6.8      34.400
2014    5       11    22  15    6.18   429.9    6.8      34.439
2014    5       11    22  20    6.18   429.9    6.8      34.480
2014    5       11    22  25    6.19   429.9    6.8      34.520
2014    5       11    22  31    6.19   430.0    6.8      34.561
2014    5       11    22  36    6.19   430.0    6.9      34.602
2014    5       11    22  42    6.20   430.0    6.9      34.644
2014    5       11    22  47    6.20   430.0    6.9      34.685
2014    5       11    22  53    6.21   430.1    6.9      34.727
2014    5       11    22  58    6.21   430.1    6.9      34.769
2014    5       11    23   3    6.21   430.1    6.9      34.810
2014    5       11    23   9    6.22   430.1    6.9      34.852
2014    5       11    23  14    6.22   430.2    6.9      34.893
2014    5       11    23  20    6.23   430.2    6.9      34.934
2014    5       11    23  25    6.23   430.2    6.9      34.974
2014    5       11    23  31    6.23   430.2    6.9      35.014
2014    5       11    23  36    6.24   430.3    6.9      35.054
2014    5       11    23  41    6.24   430.3    6.9      35.093
2014    5       11    23  47    6.25   430.3    6.9      35.132
2014    5       11    23  52    6.25   430.3    6.9      35.170
2014    5       11    23  58    6.25   430.3    6.9      35.209
2014    5       12     0   3    6.26   430.4    6.9      35.247
2014    5       12     0   8    6.26   430.4    6.9      35.284
2014    5       12     0  14    6.27   430.4    6.9      35.322
2014    5       12     0  19    6.27   430.4    6.9      35.358
2014    5       12     0  25    6.27   430.5    7.0      35.395
2014    5       12     0  30    6.28   430.5    7.0      35.431
2014    5       12     0  36    6.28   430.5    7.0      35.468
2014    5       12     0  41    6.29   430.5    7.0      35.504
2014    5       12     0  46    6.29   430.6    7.0      35.540
2014    5       12     0  52    6.29   430.6    7.0      35.576
2014    5       12     0  57    6.30   430.6    7.0      35.612
2014    5       12     1   3    6.30   430.6    7.0      35.648
2014    5       12     1   8    6.31   430.7    7.0      35.684
2014    5       12     1  13    6.31   430.7    7.0      35.720
2014    5       12     1  19    6.31   430.7    7.0      35.755
2014    5       12     1  24    6.32   430.8    7.0      35.789
2014    5       12     1  30    6.32   430.8    7.0      35.823
2014    5       12     1  35    6.33   430.8    7.0      35.857
2014    5       12     1  41    6.33   430.8    7.0      35.890
2014    5       12     1  46    6.33   430.9    7.0      35.923
2014    5       12     1  51    6.34   430.9    7.0      35.956
2014    5       12     1  57    6.34   430.9    7.0      35.988
2014    5       12     2   2    6.35   431.0    7.0      36.020
2014    5       12     2   8    6.35   431.0    7.0      36.051
2014    5       12     2  13    6.35   431.0    7.0      36.082
2014    5       12     2  18    6.36   431.1    7.0      36.113
2014    5       12     2  24    6.36   431.1    7.0      36.143
2014    5       12     2  29    6.37   431.1    7.0      36.173
2014    5       12     2  35    6.37   431.2    7.0      36.203
2014    5       12     2  40    6.38   431.2    7.0      36.232
2014    5       12     2  46    6.38   431.2    7.0      36.261
2014    5       12     2  51    6.38   431.3    7.0      36.290
2014    5       12     2  56    6.39   431.3    7.0      36.318
2014    5       12     3   2    6.39   431.4    7.0      36.346
2014    5       12     3   7    6.40   431.4    7.1      36.374
2014    5       12     3  13    6.40   431.4    7.1      36.402
2014    5       12     3  18    6.40   431.5    7.1      36.429
2014    5       12     3  23    6.41   431.5    7.1      36.457
2014    5       12     3  29    6.41   431.5    7.1      36.484
2014    5       12     3  34    6.42   431.6    7.1      36.510
2014    5       12     3  40    6.42   431.6    7.1      36.537
2014    5       12     3  45    6.43   431.7    7.1      36.563
2014    5       12     3  51    6.43   431.7    7.1      36.589
2014    5       12     3  56    6.43   431.7    7.1      36.615
2014    5       12     4   1    6.44   431.8    7.1      36.641
2014    5       12     4   7    6.44   431.8    7.1      36.667
2014    5       12     4  12    6.45   431.9    7.1      36.692
2014    5       12     4  18    6.45   431.9    7.1      36.718
2014    5       12     4  23    6.45   431.9    7.1      36.744
2014    5       12     4  28    6.46   432.0    7.1      36.769
2014    5       12     4  34    6.46   432.0    7.1      36.795
2014    5       12     4  39    6.47   432.1    7.1      36.821
2014    5       12     4  45    6.47   432.1    7.1      36.846
2014    5       12     4  50    6.47   432.1    7.1      36.872
2014    5       12     4  56    6.48   432.2    7.1      36.898
2014    5       12     5   1    6.48   432.2    7.1      36.924
2014    5       12     5   6    6.49   432.3    7.1      36.950
2014    5       12     5  12    6.49   432.3    7.1      36.976
2014    5       12     5  17    6.50   432.4    7.1      37.003
2014    5       12     5  23    6.50   432.4    7.1      37.029
2014    5       12     5  28    6.50   432.4    7.1      37.055
2014    5       12     5  34    6.51   432.5    7.1      37.082
2014    5       12     5  39    6.51   432.5    7.1      37.109
2014    5       12     5  44    6.52   432.6    7.1      37.136
2014    5       12     5  50    6.52   432.6    7.1      37.164
2014    5       12     5  55    6.52   432.7    7.1      37.192
2014    5       12     6   1    6.53   432.7    7.1      37.221
2014    5       12     6   6    6.53   432.8    7.1      37.250
2014    5       12     6  11    6.54   432.8    7.1      37.280
2014    5       12     6  17    6.54   432.9    7.1      37.311
2014    5       12     6  22    6.54   432.9    7.1      37.342
2014    5       12     6  28    6.55   433.0    7.1      37.373
2014    5       12     6  33    6.55   433.1    7.1      37.405
2014    5       12     6  39    6.55   433.1    7.1      37.437
2014    5       12     6  44    6.56   433.2    7.1      37.468
2014    5       12     6  49    6.56   433.2    7.2      37.499
2014    5       12     6  55    6.57   433.3    7.2      37.531
2014    5       12     7   0    6.57   433.3    7.2      37.562
2014    5       12     7   6    6.57   433.4    7.2      37.593
2014    5       12     7  11    6.58   433.5    7.2      37.624
2014    5       12     7  16    6.58   433.5    7.2      37.655
2014    5       12     7  22    6.58   433.6    7.2      37.686
2014    5       12     7  27    6.59   433.6    7.2      37.716
2014    5       12     7  33    6.59   433.7    7.2      37.747
2014    5       12     7  38    6.59   433.8    7.2      37.778
2014    5       12     7  44    6.60   433.8    7.2      37.809
2014    5       12     7  49    6.60   433.9    7.2      37.839
2014    5       12     7  54    6.60   434.0    7.2      37.870
2014    5       12     8   0    6.61   434.0    7.2      37.901
2014    5       12     8   5    6.61   434.1    7.2      37.931
2014    5       12     8  11    6.61   434.1    7.2      37.962
2014    5       12     8  16    6.62   434.2    7.2      37.993
2014    5       12     8  21    6.62   434.3    7.2      38.023
2014    5       12     8  27    6.62   434.3    7.2      38.054
2014    5       12     8  32    6.63   434.4    7.2      38.084
2014    5       12     8  38    6.63   434.5    7.2      38.114
2014    5       12     8  43    6.63   434.5    7.2      38.144
2014    5       12     8  49    6.64   434.6    7.2      38.175
2014    5       12     8  54    6.64   434.7    7.2      38.205
2014    5       12     8  59    6.64   434.7    7.2      38.235
2014    5       12     9   5    6.65   434.8    7.2      38.265
2014    5       12     9  10    6.65   434.8    7.2      38.295
2014    5       12     9  16    6.65   434.9    7.2      38.325
2014    5       12     9  21    6.66   435.0    7.2      38.355
2014    5       12     9  26    6.66   435.0    7.2      38.385
2014    5       12     9  32    6.66   435.1    7.2      38.415
2014    5       12     9  37    6.67   435.2    7.2      38.445
2014    5       12     9  43    6.67   435.2    7.2      38.476
2014    5       12     9  48    6.67   435.3    7.2      38.507
2014    5       12     9  54    6.68   435.4    7.2      38.539
2014    5       12     9  59    6.68   435.5    7.2      38.571
2014    5       12    10   4    6.68   435.5    7.2      38.604
2014    5       12    10  10    6.69   435.6    7.2      38.638
2014    5       12    10  15    6.69   435.7    7.2      38.672
2014    5       12    10  21    6.69   435.8    7.2      38.707
2014    5       12    10  26    6.69   435.8    7.2      38.743
2014    5       12    10  31    6.70   435.9    7.2      38.779
2014    5       12    10  37    6.70   436.0    7.2      38.816
2014    5       12    10  42    6.70   436.1    7.2      38.853
2014    5       12    10  48    6.71   436.1    7.2      38.890
2014    5       12    10  53    6.71   436.2    7.2      38.928
2014    5       12    10  59    6.71   436.3    7.2      38.965
2014    5       12    11   4    6.71   436.4    7.2      39.004
2014    5       12    11   9    6.72   436.5    7.2      39.042
2014    5       12    11  15    6.72   436.5    7.2      39.081
2014    5       12    11  20    6.72   436.6    7.2      39.121
2014    5       12    11  26    6.72   436.7    7.2      39.160
2014    5       12    11  31    6.73   436.8    7.2      39.199
2014    5       12    11  36    6.73   436.9    7.2      39.238
2014    5       12    11  42    6.73   437.0    7.2      39.276
2014    5       12    11  47    6.74   437.0    7.2      39.314
2014    5       12    11  53    6.74   437.1    7.2      39.352
2014    5       12    11  58    6.74   437.2    7.2      39.389
2014    5       12    12   4    6.74   437.3    7.2      39.426
2014    5       12    12   9    6.75   437.4    7.2      39.463
2014    5       12    12  14    6.75   437.4    7.2      39.500
2014    5       12    12  20    6.75   437.5    7.2      39.536
2014    5       12    12  25    6.75   437.6    7.2      39.571
2014    5       12    12  31    6.75   437.7    7.2      39.607
2014    5       12    12  36    6.76   437.8    7.2      39.641
2014    5       12    12  41    6.76   437.8    7.2      39.676
2014    5       12    12  47    6.76   437.9    7.2      39.710
2014    5       12    12  52    6.76   438.0    7.2      39.744
2014    5       12    12  58    6.77   438.1    7.2      39.778
2014    5       12    13   3    6.77   438.2    7.2      39.811
2014    5       12    13   9    6.77   438.2    7.2      39.844
2014    5       12    13  14    6.77   438.3    7.2      39.877
2014    5       12    13  19    6.78   438.4    7.2      39.910
2014    5       12    13  25    6.78   438.5    7.2      39.942
2014    5       12    13  30    6.78   438.6    7.2      39.974
2014    5       12    13  36    6.78   438.6    7.2      40.006
2014    5       12    13  41    6.79   438.7    7.2      40.038
2014    5       12    13  47    6.79   438.8    7.2      40.070
2014    5       12    13  52    6.79   438.9    7.2      40.101
2014    5       12    13  57    6.79   439.0    7.2      40.132
2014    5       12    14   3    6.80   439.0    7.2      40.163
2014    5       12    14   8    6.80   439.1    7.2      40.194
2014    5       12    14  14    6.80   439.2    7.2      40.225
2014    5       12    14  19    6.80   439.3    7.2      40.255
2014    5       12    14  24    6.81   439.4    7.2      40.285
2014    5       12    14  30    6.81   439.5    7.2      40.315
2014    5       12    14  35    6.81   439.5    7.2      40.345
2014    5       12    14  41    6.81   439.6    7.2      40.375
2014    5       12    14  46    6.82   439.7    7.2      40.405
2014    5       12    14  52    6.82   439.8    7.2      40.434
2014    5       12    14  57    6.82   439.9    7.2      40.464
2014    5       12    15   2    6.82   439.9    7.2      40.493
2014    5       12    15   8    6.83   440.0    7.2      40.523
2014    5       12    15  13    6.83   440.1    7.2      40.552
2014    5       12    15  19    6.83   440.2    7.2      40.581
2014    5       12    15  24    6.83   440.3    7.2      40.611
2014    5       12    15  29    6.84   440.3    7.2      40.640
2014    5       12    15  35    6.84   440.4    7.2      40.670
2014    5       12    15  40    6.84   440.5    7.2      40.700
2014    5       12    15  46    6.84   440.6    7.2      40.730
2014    5       12    15  51    6.85   440.7    7.2      40.761
2014    5       12    15  57    6.85   440.7    7.2      40.793
2014    5       12    16   2    6.85   440.8    7.2      40.825
2014    5       12    16   7    6.86   440.9    7.2      40.858
2014    5       12    16  13    6.86   441.0    7.2      40.890
2014    5       12    16  18    6.86   441.1    7.2      40.924
2014    5       12    16  24    6.86   441.2    7.2      40.957
2014    5       12    16  29    6.87   441.3    7.2      40.991
2014    5       12    16  34    6.87   441.4    7.2      41.024
2014    5       12    16  40    6.87   441.5    7.2      41.058
2014    5       12    16  45    6.88   441.6    7.2      41.092
2014    5       12    16  51    6.88   441.7    7.2      41.126
2014    5       12    16  56    6.88   441.8    7.2      41.159
2014    5       12    17   2    6.88   441.9    7.2      41.192
2014    5       12    17   7    6.89   442.0    7.2      41.225
2014    5       12    17  12    6.89   442.1    7.2      41.257
2014    5       12    17  18    6.89   442.2    7.2      41.289
2014    5       12    17  23    6.90   442.3    7.2      41.320
2014    5       12    17  29    6.90   442.4    7.2      41.350
2014    5       12    17  34    6.90   442.5    7.2      41.380
2014    5       12    17  39    6.90   442.6    7.2      41.410
2014    5       12    17  45    6.91   442.7    7.2      41.439
2014    5       12    17  50    6.91   442.8    7.2      41.468
2014    5       12    17  56    6.91   442.9    7.2      41.496
2014    5       12    18   1    6.91   443.0    7.2      41.524
2014    5       12    18   7    6.92   443.1    7.2      41.551
2014    5       12    18  12    6.92   443.2    7.2      41.579
2014    5       12    18  17    6.92   443.3    7.2      41.605
2014    5       12    18  23    6.92   443.4    7.2      41.632
2014    5       12    18  28    6.93   443.5    7.2      41.658
2014    5       12    18  34    6.93   443.6    7.2      41.684
2014    5       12    18  39    6.93   443.7    7.2      41.710
2014    5       12    18  44    6.93   443.8    7.2      41.736
2014    5       12    18  50    6.94   443.9    7.2      41.762
2014    5       12    18  55    6.94   444.0    7.2      41.787
2014    5       12    19   1    6.94   444.1    7.2      41.812
2014    5       12    19   6    6.94   444.2    7.2      41.837
2014    5       12    19  12    6.95   444.4    7.2      41.862
2014    5       12    19  17    6.95   444.5    7.2      41.887
2014    5       12    19  22    6.95   444.6    7.2      41.912
2014    5       12    19  28    6.96   444.7    7.2      41.936
2014    5       12    19  33    6.96   444.8    7.2      41.961
2014    5       12    19  39    6.96   444.9    7.2      41.985
2014    5       12    19  44    6.96   445.0    7.2      42.009
2014    5       12    19  49    6.97   445.1    7.2      42.033
2014    5       12    19  55    6.97   445.2    7.2      42.057
2014    5       12    20   0    6.97   445.3    7.2      42.081
2014    5       12    20   6    6.97   445.4    7.2      42.104
2014    5       12    20  11    6.98   445.5    7.2      42.128
2014    5       12    20  17    6.98   445.7    7.2      42.152
2014    5       12    20  22    6.98   445.8    7.2      42.176
2014    5       12    20  27    6.98   445.9    7.2      42.200
2014    5       12    20  33    6.99   446.0    7.2      42.225
2014    5       12    20  38    6.99   446.1    7.2      42.249
2014    5       12    20  44    6.99   446.2    7.2      42.274
2014    5       12    20  49    6.99   446.4    7.2      42.299
2014    5       12    20  54    7.00   446.5    7.2      42.324
2014    5       12    21   0    7.00   446.6    7.2      42.349
2014    5       12    21   5    7.00   446.7    7.2      42.373
2014    5       12    21  11    7.00   446.8    7.2      42.398
2014    5       12    21  16    7.00   447.0    7.2      42.421
2014    5       12    21  22    7.01   447.1    7.2      42.445
2014    5       12    21  27    7.01   447.2    7.2      42.468
2014    5       12    21  32    7.01   447.3    7.2      42.491
2014    5       12    21  38    7.01   447.5    7.2      42.514
2014    5       12    21  43    7.02   447.6    7.2      42.536
2014    5       12    21  49    7.02   447.7    7.2      42.558
2014    5       12    21  54    7.02   447.8    7.2      42.580
2014    5       12    22   0    7.02   448.0    7.2      42.601
2014    5       12    22   5    7.02   448.1    7.2      42.622
2014    5       12    22  10    7.03   448.2    7.2      42.643
2014    5       12    22  16    7.03   448.3    7.2      42.664
2014    5       12    22  21    7.03   448.5    7.2      42.684
2014    5       12    22  27    7.03   448.6    7.2      42.704
2014    5       12    22  32    7.03   448.7    7.2      42.724
2014    5       12    22  37    7.04   448.8    7.2      42.744
2014    5       12    22  43    7.04   448.9    7.2      42.763
2014    5       12    22  48    7.04   449.1    7.2      42.783
2014    5       12    22  54    7.04   449.2    7.2      42.802
2014    5       12    22  59    7.04   449.3    7.2      42.821
2014    5       12    23   5    7.04   449.4    7.2      42.839
2014    5       12    23  10    7.05   449.6    7.2      42.858
2014    5       12    23  15    7.05   449.7    7.2      42.876
2014    5       12    23  21    7.05   449.8    7.2      42.894
2014    5       12    23  26    7.05   449.9    7.2      42.912
2014    5       12    23  32    7.05   450.0    7.2      42.930
2014    5       12    23  37    7.06   450.2    7.2      42.948
2014    5       12    23  42    7.06   450.3    7.2      42.966
2014    5       12    23  48    7.06   450.4    7.2      42.983
2014    5       12    23  53    7.06   450.5    7.2      43.001
2014    5       12    23  59    7.06   450.7    7.1      43.018
2014    5       13     0   4    7.07   450.8    7.1      43.036
2014    5       13     0  10    7.07   450.9    7.1      43.054
2014    5       13     0  15    7.07   451.0    7.1      43.071
2014    5       13     0  20    7.07   451.2    7.1      43.089
2014    5       13     0  26    7.07   451.3    7.1      43.108
2014    5       13     0  31    7.07   451.4    7.1      43.126
2014    5       13     0  37    7.08   451.5    7.1      43.144
2014    5       13     0  42    7.08   451.6    7.1      43.163
2014    5       13     0  47    7.08   451.8    7.1      43.181
2014    5       13     0  53    7.08   451.9    7.1      43.200
2014    5       13     0  58    7.08   452.0    7.1      43.219
2014    5       13     1   4    7.09   452.1    7.1      43.238
2014    5       13     1   9    7.09   452.3    7.1      43.257
2014    5       13     1  15    7.09   452.4    7.1      43.277
2014    5       13     1  20    7.09   452.5    7.1      43.297
2014    5       13     1  25    7.09   452.7    7.1      43.318
2014    5       13     1  31    7.10   452.8    7.1      43.338
2014    5       13     1  36    7.10   452.9    7.1      43.359
2014    5       13     1  42    7.10   453.0    7.1      43.380
2014    5       13     1  47    7.10   453.2    7.1      43.400
2014    5       13     1  52    7.10   453.3    7.1      43.421
2014    5       13     1  58    7.10   453.4    7.1      43.442
2014    5       13     2   3    7.11   453.5    7.1      43.463
2014    5       13     2   9    7.11   453.7    7.1      43.484
2014    5       13     2  14    7.11   453.8    7.1      43.507
2014    5       13     2  20    7.11   453.9    7.1      43.531
2014    5       13     2  25    7.11   454.1    7.1      43.557
2014    5       13     2  30    7.12   454.2    7.1      43.583
2014    5       13     2  36    7.12   454.4    7.1      43.610
2014    5       13     2  41    7.12   454.5    7.1      43.638
2014    5       13     2  47    7.12   454.6    7.1      43.666
2014    5       13     2  52    7.12   454.8    7.1      43.695
2014    5       13     2  57    7.12   454.9    7.1      43.722
2014    5       13     3   3    7.13   455.1    7.1      43.750
2014    5       13     3   8    7.13   455.2    7.1      43.777
2014    5       13     3  14    7.13   455.4    7.1      43.804
2014    5       13     3  19    7.13   455.5    7.1      43.831
2014    5       13     3  25    7.13   455.7    7.1      43.858
2014    5       13     3  30    7.13   455.8    7.1      43.885
2014    5       13     3  35    7.13   455.9    7.1      43.911
2014    5       13     3  41    7.14   456.1    7.1      43.937
2014    5       13     3  46    7.14   456.2    7.1      43.962
2014    5       13     3  52    7.14   456.4    7.1      43.988
2014    5       13     3  57    7.14   456.5    7.1      44.013
2014    5       13     4   2    7.14   456.7    7.1      44.038
2014    5       13     4   8    7.14   456.8    7.1      44.063
2014    5       13     4  13    7.14   457.0    7.1      44.088
2014    5       13     4  19    7.15   457.1    7.1      44.112
2014    5       13     4  24    7.15   457.3    7.1      44.137
2014    5       13     4  30    7.15   457.4    7.1      44.161
2014    5       13     4  35    7.15   457.6    7.1      44.185
2014    5       13     4  40    7.15   457.7    7.1      44.210
2014    5       13     4  46    7.15   457.9    7.1      44.234
2014    5       13     4  51    7.15   458.0    7.1      44.258
2014    5       13     4  57    7.16   458.2    7.1      44.282
2014    5       13     5   2    7.16   458.3    7.1      44.307
2014    5       13     5   7    7.16   458.5    7.1      44.331
2014    5       13     5  13    7.16   458.6    7.1      44.355
2014    5       13     5  18    7.16   458.8    7.1      44.380
2014    5       13     5  24    7.16   458.9    7.1      44.404
2014    5       13     5  29    7.16   459.1    7.1      44.428
2014    5       13     5  35    7.17   459.2    7.1      44.453
2014    5       13     5  40    7.17   459.4    7.1      44.478
2014    5       13     5  45    7.17   459.5    7.1      44.503
2014    5       13     5  51    7.17   459.7    7.1      44.528
2014    5       13     5  56    7.17   459.9    7.1      44.554
2014    5       13     6   2    7.17   460.0    7.1      44.580
2014    5       13     6   7    7.17   460.2    7.1      44.606
2014    5       13     6  12    7.17   460.3    7.1      44.632
2014    5       13     6  18    7.18   460.5    7.1      44.659
2014    5       13     6  23    7.18   460.6    7.1      44.686
2014    5       13     6  29    7.18   460.8    7.0      44.713
2014    5       13     6  34    7.18   460.9    7.0      44.740
2014    5       13     6  40    7.18   461.1    7.0      44.767
2014    5       13     6  45    7.18   461.3    7.0      44.794
2014    5       13     6  50    7.18   461.4    7.0      44.821
2014    5       13     6  56    7.18   461.6    7.0      44.847
2014    5       13     7   1    7.18   461.7    7.0      44.874
2014    5       13     7   7    7.19   461.9    7.0      44.901
2014    5       13     7  12    7.19   462.0    7.0      44.927
2014    5       13     7  17    7.19   462.2    7.0      44.954
2014    5       13     7  23    7.19   462.4    7.0      44.980
2014    5       13     7  28    7.19   462.5    7.0      45.007
2014    5       13     7  34    7.19   462.7    7.0      45.033
2014    5       13     7  39    7.19   462.8    7.0      45.060
2014    5       13     7  45    7.19   463.0    7.0      45.086
2014    5       13     7  50    7.19   463.2    7.0      45.111
2014    5       13     7  55    7.19   463.3    7.0      45.137
2014    5       13     8   1    7.20   463.5    7.0      45.162
2014    5       13     8   6    7.20   463.6    7.0      45.187
2014    5       13     8  12    7.20   463.8    7.0      45.211
2014    5       13     8  17    7.20   464.0    7.0      45.235
2014    5       13     8  22    7.20   464.1    7.0      45.259
2014    5       13     8  28    7.20   464.3    6.9      45.283
2014    5       13     8  33    7.20   464.4    6.9      45.307
2014    5       13     8  39    7.20   464.6    6.9      45.330
2014    5       13     8  44    7.20   464.8    6.9      45.353
2014    5       13     8  50    7.20   464.9    6.9      45.376
2014    5       13     8  55    7.20   465.1    6.9      45.398
2014    5       13     9   0    7.20   465.2    6.9      45.421
2014    5       13     9   6    7.20   465.4    6.9      45.443
2014    5       13     9  11    7.20   465.6    6.9      45.466
2014    5       13     9  17    7.20   465.7    6.9      45.488
2014    5       13     9  22    7.20   465.9    6.9      45.509
2014    5       13     9  27    7.20   466.0    6.9      45.531
2014    5       13     9  33    7.20   466.2    6.9      45.553
2014    5       13     9  38    7.20   466.4    6.9      45.574
2014    5       13     9  44    7.21   466.5    6.9      45.595
2014    5       13     9  49    7.21   466.7    6.9      45.616
2014    5       13     9  55    7.21   466.8    6.9      45.636
2014    5       13    10   0    7.21   467.0    6.9      45.657
2014    5       13    10   5    7.21   467.1    6.9      45.677
2014    5       13    10  11    7.21   467.3    6.8      45.697
2014    5       13    10  16    7.21   467.5    6.8      45.717
2014    5       13    10  22    7.21   467.6    6.8      45.737
2014    5       13    10  27    7.21   467.8    6.8      45.757
2014    5       13    10  32    7.21   467.9    6.8      45.776
2014    5       13    10  38    7.21   468.1    6.8      45.795
2014    5       13    10  43    7.21   468.3    6.8      45.814
2014    5       13    10  49    7.21   468.4    6.8      45.833
2014    5       13    10  54    7.21   468.6    6.8      45.852
2014    5       13    11   0    7.21   468.7    6.8      45.870
2014    5       13    11   5    7.21   468.9    6.8      45.889
2014    5       13    11  10    7.21   469.0    6.8      45.907
2014    5       13    11  16    7.21   469.2    6.8      45.925
2014    5       13    11  21    7.21   469.4    6.8      45.944
2014    5       13    11  27    7.21   469.5    6.8      45.962
2014    5       13    11  32    7.21   469.7    6.8      45.980
2014    5       13    11  37    7.21   469.8    6.8      45.998
2014    5       13    11  43    7.21   470.0    6.7      46.016
2014    5       13    11  48    7.21   470.1    6.7      46.034
2014    5       13    11  54    7.21   470.3    6.7      46.052
2014    5       13    11  59    7.21   470.4    6.7      46.071
2014    5       13    12   5    7.21   470.6    6.7      46.089
2014    5       13    12  10    7.21   470.7    6.7      46.108
2014    5       13    12  15    7.21   470.9    6.7      46.127
2014    5       13    12  21    7.21   471.0    6.7      46.146
2014    5       13    12  26    7.21   471.2    6.7      46.165
2014    5       13    12  32    7.21   471.4    6.7      46.185
2014    5       13    12  37    7.21   471.5    6.7      46.206
2014    5       13    12  42    7.21   471.7    6.7      46.226
2014    5       13    12  48    7.20   471.8    6.7      46.247
2014    5       13    12  53    7.20   472.0    6.7      46.269
2014    5       13    12  59    7.20   472.1    6.7      46.290
2014    5       13    13   4    7.20   472.3    6.7      46.312
2014    5       13    13  10    7.20   472.4    6.7      46.335
2014    5       13    13  15    7.20   472.6    6.7      46.358
2014    5       13    13  20    7.20   472.7    6.7      46.381
2014    5       13    13  26    7.20   472.9    6.6      46.405
2014    5       13    13  31    7.20   473.0    6.6      46.430
2014    5       13    13  37    7.20   473.2    6.6      46.455
2014    5       13    13  42    7.20   473.4    6.6      46.480
2014    5       13    13  47    7.20   473.5    6.6      46.505
2014    5       13    13  53    7.20   473.7    6.6      46.531
2014    5       13    13  58    7.20   473.8    6.6      46.557
2014    5       13    14   4    7.20   474.0    6.6      46.582
2014    5       13    14   9    7.20   474.1    6.6      46.608
2014    5       13    14  15    7.20   474.3    6.6      46.634
2014    5       13    14  20    7.20   474.4    6.6      46.660
2014    5       13    14  25    7.20   474.6    6.6      46.686
2014    5       13    14  31    7.20   474.8    6.6      46.712
2014    5       13    14  36    7.20   474.9    6.6      46.738
2014    5       13    14  42    7.20   475.1    6.6      46.763
2014    5       13    14  47    7.20   475.2    6.6      46.789
2014    5       13    14  52    7.20   475.4    6.6      46.815
2014    5       13    14  58    7.20   475.5    6.6      46.840
2014    5       13    15   3    7.20   475.7    6.6      46.865
2014    5       13    15   9    7.20   475.8    6.6      46.891
2014    5       13    15  14    7.20   476.0    6.6      46.916
2014    5       13    15  20    7.19   476.1    6.5      46.941
2014    5       13    15  25    7.19   476.3    6.5      46.965
2014    5       13    15  30    7.19   476.4    6.5      46.990
2014    5       13    15  36    7.19   476.6    6.5      47.014
2014    5       13    15  41    7.19   476.7    6.5      47.039
2014    5       13    15  47    7.19   476.9    6.5      47.063
2014    5       13    15  52    7.19   477.1    6.5      47.087
2014    5       13    15  57    7.19   477.2    6.5      47.111
2014    5       13    16   3    7.19   477.4    6.5      47.135
2014    5       13    16   8    7.19   477.5    6.5      47.158
2014    5       13    16  14    7.19   477.7    6.5      47.182
2014    5       13    16  19    7.19   477.8    6.5      47.205
2014    5       13    16  25    7.19   478.0    6.5      47.228
2014    5       13    16  30    7.19   478.1    6.5      47.252
2014    5       13    16  35    7.19   478.3    6.5      47.275
2014    5       13    16  41    7.18   478.4    6.5      47.298
2014    5       13    16  46    7.18   478.6    6.5      47.321
2014    5       13    16  52    7.18   478.7    6.5      47.344
2014    5       13    16  57    7.18   478.9    6.5      47.367
2014    5       13    17   2    7.18   479.0    6.4      47.390
2014    5       13    17   8    7.18   479.2    6.4      47.414
2014    5       13    17  13    7.18   479.3    6.4      47.437
2014    5       13    17  19    7.18   479.5    6.4      47.460
2014    5       13    17  24    7.18   479.6    6.4      47.483
2014    5       13    17  30    7.18   479.8    6.4      47.507
2014    5       13    17  35    7.18   479.9    6.4      47.530
2014    5       13    17  40    7.18   480.0    6.4      47.553
2014    5       13    17  46    7.18   480.2    6.4      47.577
2014    5       13    17  51    7.18   480.3    6.4      47.601
2014    5       13    17  57    7.17   480.5    6.4      47.625
2014    5       13    18   2    7.17   480.6    6.4      47.650
2014    5       13    18   7    7.17   480.8    6.4      47.674
2014    5       13    18  13    7.17   480.9    6.4      47.699
2014    5       13    18  18    7.17   481.1    6.4      47.724
2014    5       13    18  24    7.17   481.2    6.4      47.749
2014    5       13    18  29    7.17   481.4    6.4      47.774
2014    5       13    18  35    7.17   481.5    6.4      47.799
2014    5       13    18  40    7.17   481.7    6.4      47.824
2014    5       13    18  45    7.17   481.8    6.4      47.848
2014    5       13    18  51    7.17   482.0    6.4      47.873
2014    5       13    18  56    7.17   482.1    6.3      47.897
2014    5       13    19   2    7.17   482.3    6.3      47.922
2014    5       13    19   7    7.17   482.4    6.3      47.947
2014    5       13    19  12    7.17   482.6    6.3      47.971
2014    5       13    19  18    7.17   482.7    6.3      47.996
2014    5       13    19  23    7.17   482.9    6.3      48.020
2014    5       13    19  29    7.17   483.0    6.3      48.045
2014    5       13    19  34    7.16   483.2    6.3      48.069
2014    5       13    19  40    7.16   483.3    6.3      48.093
2014    5       13    19  45    7.16   483.5    6.3      48.118
2014    5       13    19  50    7.16   483.6    6.3      48.142
2014    5       13    19  56    7.16   483.8    6.3      48.166
2014    5       13    20   1    7.16   483.9    6.3      48.191
2014    5       13    20   7    7.16   484.1    6.3      48.215
2014    5       13    20  12    7.16   484.2    6.3      48.239
2014    5       13    20  17    7.16   484.4    6.3      48.264
2014    5       13    20  23    7.16   484.5    6.3      48.288
2014    5       13    20  28    7.16   484.7    6.3      48.313
2014    5       13    20  34    7.16   484.8    6.3      48.337
2014    5       13    20  39    7.16   484.9    6.3      48.362
2014    5       13    20  45    7.16   485.1    6.3      48.387
2014    5       13    20  50    7.16   485.2    6.3      48.412
2014    5       13    20  55    7.16   485.4    6.2      48.436
2014    5       13    21   1    7.16   485.5    6.2      48.461
2014    5       13    21   6    7.16   485.7    6.2      48.486
2014    5       13    21  12    7.16   485.8    6.2      48.512
2014    5       13    21  17    7.15   486.0    6.2      48.537
2014    5       13    21  22    7.15   486.1    6.2      48.562
2014    5       13    21  28    7.15   486.3    6.2      48.588
2014    5       13    21  33    7.15   486.4    6.2      48.613
2014    5       13    21  39    7.15   486.6    6.2      48.639
2014    5       13    21  44    7.15   486.7    6.2      48.664
2014    5       13    21  50    7.15   486.9    6.2      48.690
2014    5       13    21  55    7.15   487.0    6.2      48.715
2014    5       13    22   0    7.15   487.2    6.2      48.741
2014    5       13    22   6    7.15   487.3    6.2      48.767
2014    5       13    22  11    7.15   487.5    6.2      48.793
2014    5       13    22  17    7.15   487.6    6.2      48.818
2014    5       13    22  22    7.15   487.8    6.2      48.844
2014    5       13    22  27    7.15   487.9    6.2      48.870
2014    5       13    22  33    7.15   488.1    6.2      48.896
2014    5       13    22  38    7.15   488.2    6.2      48.922
2014    5       13    22  44    7.15   488.4    6.2      48.948
2014    5       13    22  49    7.15   488.5    6.2      48.975
2014    5       13    22  54    7.15   488.7    6.2      49.001
2014    5       13    23   0    7.15   488.8    6.2      49.028
2014    5       13    23   5    7.14   489.0    6.1      49.054
2014    5       13    23  11    7.14   489.1    6.1      49.081
2014    5       13    23  16    7.14   489.3    6.1      49.108
2014    5       13    23  22    7.14   489.4    6.1      49.135
2014    5       13    23  27    7.14   489.6    6.1      49.162
2014    5       13    23  32    7.14   489.7    6.1      49.189
2014    5       13    23  38    7.14   489.9    6.1      49.215
2014    5       13    23  43    7.14   490.0    6.1      49.242
2014    5       13    23  49    7.14   490.2    6.1      49.269
2014    5       13    23  54    7.14   490.3    6.1      49.295
2014    5       14    24   0    7.14   490.5    6.1      49.322
2014    5       14     0   5    7.14   490.6    6.1      49.349
2014    5       14     0  10    7.14   490.8    6.1      49.375
2014    5       14     0  16    7.14   490.9    6.1      49.402
2014    5       14     0  21    7.14   491.1    6.1      49.429
2014    5       14     0  27    7.14   491.2    6.1      49.456
2014    5       14     0  32    7.14   491.4    6.1      49.483
2014    5       14     0  37    7.14   491.5    6.1      49.510
2014    5       14     0  43    7.13   491.7    6.1      49.537
2014    5       14     0  48    7.13   491.8    6.1      49.565
2014    5       14     0  54    7.13   492.0    6.1      49.592
2014    5       14     0  59    7.13   492.1    6.1      49.620
2014    5       14     1   4    7.13   492.3    6.1      49.649
2014    5       14     1  10    7.13   492.4    6.1      49.678
2014    5       14     1  15    7.13   492.6    6.0      49.706
2014    5       14     1  21    7.13   492.7    6.0      49.736
2014    5       14     1  26    7.13   492.9    6.0      49.765
2014    5       14     1  32    7.13   493.0    6.0      49.795
2014    5       14     1  37    7.13   493.2    6.0      49.826
2014    5       14     1  42    7.13   493.3    6.0      49.857
2014    5       14     1  48    7.13   493.5    6.0      49.889
2014    5       14     1  53    7.13   493.7    6.0      49.920
2014    5       14     1  59    7.13   493.8    6.0      49.953
2014    5       14     2   4    7.13   494.0    6.0      49.985
2014    5       14     2   9    7.13   494.1    6.0      50.018
2014    5       14     2  15    7.13   494.3    6.0      50.050
2014    5       14     2  20    7.13   494.4    6.0      50.083
2014    5       14     2  26    7.13   494.6    6.0      50.115
2014    5       14     2  31    7.13   494.8    6.0      50.148
2014    5       14     2  37    7.13   494.9    6.0      50.180
2014    5       14     2  42    7.13   495.1    6.0      50.213
2014    5       14     2  47    7.13   495.3    6.0      50.245
2014    5       14     2  53    7.13   495.4    6.0      50.278
2014    5       14     2  58    7.13   495.6    6.0      50.310
2014    5       14     3   4    7.13   495.7    6.0      50.342
2014    5       14     3   9    7.13   495.9    6.0      50.373
2014    5       14     3  14    7.13   496.1    6.0      50.405
2014    5       14     3  20    7.13   496.2    6.0      50.435
2014    5       14     3  25    7.13   496.4    6.0      50.466
2014    5       14     3  31    7.13   496.6    6.0      50.496
2014    5       14     3  36    7.13   496.7    6.0      50.526
2014    5       14     3  42    7.13   496.9    6.0      50.556
2014    5       14     3  47    7.13   497.0    5.9      50.585
2014    5       14     3  52    7.13   497.2    5.9      50.615
2014    5       14     3  58    7.13   497.4    5.9      50.644
2014    5       14     4   3    7.13   497.5    5.9      50.672
2014    5       14     4   9    7.13   497.7    5.9      50.701
2014    5       14     4  14    7.13   497.9    5.9      50.730
2014    5       14     4  19    7.13   498.0    5.9      50.758
2014    5       14     4  25    7.13   498.2    5.9      50.786
2014    5       14     4  30    7.13   498.3    5.9      50.815
2014    5       14     4  36    7.13   498.5    5.9      50.843
2014    5       14     4  41    7.13   498.7    5.9      50.871
2014    5       14     4  47    7.13   498.8    5.9      50.900
2014    5       14     4  52    7.13   499.0    5.9      50.928
2014    5       14     4  57    7.13   499.2    5.9      50.956
2014    5       14     5   3    7.13   499.3    5.9      50.985
2014    5       14     5   8    7.13   499.5    5.9      51.014
2014    5       14     5  14    7.13   499.7    5.9      51.043
2014    5       14     5  19    7.13   499.8    5.9      51.072
2014    5       14     5  24    7.13   500.0    5.9      51.102
2014    5       14     5  30    7.13   500.2    5.9      51.131
2014    5       14     5  35    7.13   500.3    5.9      51.161
2014    5       14     5  41    7.13   500.5    5.9      51.192
2014    5       14     5  46    7.13   500.7    5.9      51.222
2014    5       14     5  52    7.13   500.8    5.9      51.253
2014    5       14     5  57    7.13   501.0    5.9      51.284
2014    5       14     6   2    7.13   501.2    5.9      51.316
2014    5       14     6   8    7.13   501.3    5.8      51.347
2014    5       14     6  13    7.13   501.5    5.8      51.379
2014    5       14     6  19    7.13   501.7    5.8      51.412
2014    5       14     6  24    7.13   501.8    5.8      51.444
2014    5       14     6  29    7.13   502.0    5.8      51.477
2014    5       14     6  35    7.13   502.2    5.8      51.511
2014    5       14     6  40    7.13   502.4    5.8      51.544
2014    5       14     6  46    7.13   502.5    5.8      51.578
2014    5       14     6  51    7.13   502.7    5.8      51.612
2014    5       14     6  57    7.13   502.9    5.8      51.647
2014    5       14     7   2    7.13   503.0    5.8      51.682
2014    5       14     7   7    7.13   503.2    5.8      51.717
2014    5       14     7  13    7.13   503.4    5.8      51.753
2014    5       14     7  18    7.13   503.6    5.8      51.789
2014    5       14     7  24    7.13   503.7    5.8      51.825
2014    5       14     7  29    7.13   503.9    5.8      51.861
2014    5       14     7  34    7.13   504.1    5.8      51.898
2014    5       14     7  40    7.13   504.3    5.8      51.934
2014    5       14     7  45    7.13   504.5    5.8      51.971
2014    5       14     7  51    7.13   504.6    5.8      52.007
2014    5       14     7  56    7.13   504.8    5.8      52.044
2014    5       14     8   1    7.13   505.0    5.8      52.081
2014    5       14     8   7    7.13   505.2    5.8      52.118
2014    5       14     8  12    7.13   505.4    5.8      52.155
2014    5       14     8  18    7.13   505.5    5.8      52.192
2014    5       14     8  23    7.13   505.7    5.8      52.229
2014    5       14     8  29    7.13   505.9    5.8      52.266
2014    5       14     8  34    7.13   506.1    5.8      52.303
2014    5       14     8  39    7.13   506.3    5.7      52.339
2014    5       14     8  45    7.13   506.4    5.7      52.376
2014    5       14     8  50    7.13   506.6    5.7      52.412
2014    5       14     8  56    7.13   506.8    5.7      52.449
2014    5       14     9   1    7.13   507.0    5.7      52.485
2014    5       14     9   6    7.13   507.2    5.7      52.521
2014    5       14     9  12    7.13   507.3    5.7      52.558
2014    5       14     9  17    7.13   507.5    5.7      52.594
2014    5       14     9  23    7.13   507.7    5.7      52.630
2014    5       14     9  28    7.13   507.9    5.7      52.666
2014    5       14     9  34    7.13   508.1    5.7      52.702
2014    5       14     9  39    7.13   508.3    5.7      52.738
2014    5       14     9  44    7.13   508.4    5.7      52.775
2014    5       14     9  50    7.13   508.6    5.7      52.811
2014    5       14     9  55    7.13   508.8    5.7      52.847
2014    5       14    10   1    7.13   509.0    5.7      52.883
2014    5       14    10   6    7.13   509.2    5.7      52.919
2014    5       14    10  11    7.13   509.3    5.7      52.956
2014    5       14    10  17    7.13   509.5    5.7      52.992
2014    5       14    10  22    7.13   509.7    5.7      53.028
2014    5       14    10  28    7.13   509.9    5.7      53.065
2014    5       14    10  33    7.13   510.1    5.7      53.102
2014    5       14    10  39    7.13   510.3    5.7      53.138
2014    5       14    10  44    7.13   510.5    5.7      53.175
2014    5       14    10  49    7.13   510.6    5.7      53.212
2014    5       14    10  55    7.13   510.8    5.7      53.249
2014    5       14    11   0    7.13   511.0    5.6      53.286
2014    5       14    11   6    7.13   511.2    5.6      53.323
2014    5       14    11  11    7.13   511.4    5.6      53.360
2014    5       14    11  16    7.13   511.6    5.6      53.397
2014    5       14    11  22    7.13   511.8    5.6      53.435
2014    5       14    11  27    7.13   512.0    5.6      53.473
2014    5       14    11  33    7.13   512.2    5.6      53.510
2014    5       14    11  38    7.13   512.4    5.6      53.548
2014    5       14    11  44    7.13   512.5    5.6      53.586
2014    5       14    11  49    7.13   512.7    5.6      53.625
2014    5       14    11  54    7.13   512.9    5.6      53.663
2014    5       14    12   0    7.13   513.1    5.6      53.701
2014    5       14    12   5    7.13   513.3    5.6      53.740
2014    5       14    12  11    7.13   513.5    5.6      53.779
2014    5       14    12  16    7.13   513.7    5.6      53.819
2014    5       14    12  21    7.13   513.9    5.6      53.859
2014    5       14    12  27    7.13   514.1    5.6      53.899
2014    5       14    12  32    7.13   514.3    5.6      53.940
2014    5       14    12  38    7.13   514.5    5.6      53.980
2014    5       14    12  43    7.13   514.7    5.6      54.021
2014    5       14    12  49    7.13   514.9    5.6      54.062
2014    5       14    12  54    7.14   515.1    5.6      54.103
2014    5       14    12  59    7.14   515.3    5.6      54.145
2014    5       14    13   5    7.14   515.5    5.6      54.186
2014    5       14    13  10    7.14   515.7    5.6      54.228
2014    5       14    13  16    7.14   515.9    5.6      54.269
2014    5       14    13  21    7.14   516.1    5.6      54.311
2014    5       14    13  26    7.14   516.3    5.5      54.354
2014    5       14    13  32    7.14   516.5    5.5      54.397
2014    5       14    13  37    7.14   516.7    5.5      54.441
2014    5       14    13  43    7.14   516.9    5.5      54.486
2014    5       14    13  48    7.14   517.1    5.5      54.531
2014    5       14    13  54    7.14   517.3    5.5      54.576
2014    5       14    13  59    7.14   517.5    5.5      54.622
2014    5       14    14   4    7.14   517.8    5.5      54.668
2014    5       14    14  10    7.14   518.0    5.5      54.714
2014    5       14    14  15    7.14   518.2    5.5      54.760
2014    5       14    14  21    7.14   518.4    5.5      54.806
2014    5       14    14  26    7.14   518.6    5.5      54.851
2014    5       14    14  31    7.14   518.8    5.5      54.896
2014    5       14    14  37    7.14   519.0    5.5      54.941
2014    5       14    14  42    7.14   519.2    5.5      54.985
2014    5       14    14  48    7.14   519.5    5.5      55.029
2014    5       14    14  53    7.14   519.7    5.5      55.073
2014    5       14    14  58    7.14   519.9    5.5      55.118
2014    5       14    15   4    7.14   520.1    5.5      55.161
2014    5       14    15   9    7.14   520.3    5.5      55.205
2014    5       14    15  15    7.14   520.5    5.5      55.249
2014    5       14    15  20    7.14   520.7    5.5      55.292
2014    5       14    15  26    7.14   521.0    5.5      55.336
2014    5       14    15  31    7.14   521.2    5.5      55.379
2014    5       14    15  36    7.14   521.4    5.5      55.422
2014    5       14    15  42    7.14   521.6    5.4      55.464
2014    5       14    15  47    7.14   521.8    5.4      55.507
2014    5       14    15  53    7.14   522.0    5.4      55.549
2014    5       14    15  58    7.14   522.3    5.4      55.590
2014    5       14    16   3    7.14   522.5    5.4      55.631
2014    5       14    16   9    7.14   522.7    5.4      55.672
2014    5       14    16  14    7.14   522.9    5.4      55.713
2014    5       14    16  20    7.14   523.1    5.4      55.754
2014    5       14    16  25    7.14   523.4    5.4      55.794
2014    5       14    16  31    7.14   523.6    5.4      55.834
2014    5       14    16  36    7.14   523.8    5.4      55.874
2014    5       14    16  41    7.14   524.0    5.4      55.914
2014    5       14    16  47    7.14   524.2    5.4      55.954
2014    5       14    16  52    7.14   524.4    5.4      55.994
2014    5       14    16  58    7.14   524.7    5.4      56.034
2014    5       14    17   3    7.14   524.9    5.4      56.074
2014    5       14    17   8    7.14   525.1    5.4      56.115
2014    5       14    17  14    7.14   525.3    5.4      56.155
2014    5       14    17  19    7.14   525.5    5.4      56.196
2014    5       14    17  25    7.14   525.8    5.4      56.238
2014    5       14    17  30    7.14   526.0    5.4      56.279
2014    5       14    17  36    7.14   526.2    5.4      56.321
2014    5       14    17  41    7.14   526.4    5.3      56.364
2014    5       14    17  46    7.14   526.7    5.3      56.407
2014    5       14    17  52    7.14   526.9    5.3      56.450
2014    5       14    17  57    7.14   527.1    5.3      56.495
2014    5       14    18   3    7.14   527.3    5.3      56.539
2014    5       14    18   8    7.14   527.6    5.3      56.584
2014    5       14    18  13    7.14   527.8    5.3      56.630
2014    5       14    18  19    7.14   528.0    5.3      56.676
2014    5       14    18  24    7.14   528.3    5.3      56.723
2014    5       14    18  30    7.14   528.5    5.3      56.770
2014    5       14    18  35    7.14   528.7    5.3      56.818
2014    5       14    18  41    7.14   529.0    5.3      56.866
2014    5       14    18  46    7.14   529.2    5.3      56.915
2014    5       14    18  51    7.14   529.4    5.3      56.964
2014    5       14    18  57    7.14   529.7    5.3      57.013
2014    5       14    19   2    7.14   529.9    5.3      57.063
2014    5       14    19   8    7.14   530.1    5.3      57.113
2014    5       14    19  13    7.14   530.4    5.3      57.165
2014    5       14    19  18    7.14   530.6    5.3      57.217
2014    5       14    19  24    7.14   530.8    5.3      57.269
2014    5       14    19  29    7.14   531.1    5.3      57.323
2014    5       14    19  35    7.14   531.3    5.3      57.377
2014    5       14    19  40    7.14   531.6    5.3      57.433
2014    5       14    19  45    7.14   531.8    5.3      57.491
2014    5       14    19  51    7.14   532.1    5.3      57.550
2014    5       14    19  56    7.14   532.3    5.3      57.610
2014    5       14    20   2    7.14   532.6    5.2      57.672
2014    5       14    20   7    7.14   532.8    5.2      57.734
2014    5       14    20  13    7.14   533.1    5.2      57.797
2014    5       14    20  18    7.14   533.3    5.2      57.859
2014    5       14    20  23    7.14   533.6    5.2      57.921
2014    5       14    20  29    7.13   533.8    5.2      57.982
2014    5       14    20  34    7.13   534.1    5.2      58.044
2014    5       14    20  40    7.13   534.3    5.2      58.106
2014    5       14    20  45    7.13   534.6    5.2      58.168
2014    5       14    20  50    7.13   534.8    5.2      58.230
2014    5       14    20  56    7.13   535.1    5.2      58.291
2014    5       14    21   1    7.13   535.4    5.2      58.353
2014    5       14    21   7    7.13   535.6    5.2      58.413
2014    5       14    21  12    7.13   535.9    5.2      58.473
2014    5       14    21  18    7.13   536.1    5.2      58.532
2014    5       14    21  23    7.13   536.4    5.2      58.590
2014    5       14    21  28    7.13   536.7    5.2      58.648
2014    5       14    21  34    7.13   536.9    5.2      58.704
2014    5       14    21  39    7.13   537.2    5.2      58.760
2014    5       14    21  45    7.13   537.5    5.2      58.815
2014    5       14    21  50    7.13   537.7    5.2      58.869
2014    5       14    21  55    7.13   538.0    5.2      58.922
2014    5       14    22   1    7.13   538.3    5.1      58.975
2014    5       14    22   6    7.13   538.6    5.1      59.027
2014    5       14    22  12    7.13   538.8    5.1      59.078
2014    5       14    22  17    7.13   539.1    5.1      59.129
2014    5       14    22  23    7.12   539.4    5.1      59.179
2014    5       14    22  28    7.12   539.6    5.1      59.229
2014    5       14    22  33    7.12   539.9    5.1      59.278
2014    5       14    22  39    7.12   540.2    5.1      59.327
2014    5       14    22  44    7.12   540.5    5.1      59.375
2014    5       14    22  50    7.12   540.7    5.1      59.423
2014    5       14    22  55    7.12   541.0    5.1      59.470
2014    5       14    23   0    7.12   541.3    5.1      59.517
2014    5       14    23   6    7.12   541.6    5.1      59.564
2014    5       14    23  11    7.12   541.8    5.1      59.610
2014    5       14    23  17    7.12   542.1    5.1      59.656
2014    5       14    23  22    7.12   542.4    5.1      59.702
2014    5       14    23  27    7.12   542.7    5.1      59.747
2014    5       14    23  33    7.11   542.9    5.1      59.792
2014    5       14    23  38    7.11   543.2    5.0      59.837
2014    5       14    23  44    7.11   543.5    5.0      59.882
2014    5       14    23  49    7.11   543.8    5.0      59.927
2014    5       14    23  55    7.11   544.0    5.0      59.972
2014    5       15     0   0    7.11   544.3    5.0      60.017
2014    5       15     0   5    7.11   544.6    5.0      60.062
2014    5       15     0  11    7.11   544.9    5.0      60.107
2014    5       15     0  16    7.11   545.1    5.0      60.151
2014    5       15     0  22    7.11   545.4    5.0      60.197
2014    5       15     0  27    7.10   545.7    5.0      60.242
2014    5       15     0  32    7.10   546.0    5.0      60.287
2014    5       15     0  38    7.10   546.3    5.0      60.333
2014    5       15     0  43    7.10   546.6    5.0      60.379
2014    5       15     0  49    7.10   546.8    5.0      60.426
2014    5       15     0  54    7.10   547.1    5.0      60.473
2014    5       15     1   0    7.10   547.4    5.0      60.520
2014    5       15     1   5    7.10   547.7    4.9      60.568
2014    5       15     1  10    7.09   548.0    4.9      60.616
2014    5       15     1  16    7.09   548.3    4.9      60.665
2014    5       15     1  21    7.09   548.6    4.9      60.714
2014    5       15     1  27    7.09   548.8    4.9      60.764
2014    5       15     1  32    7.09   549.1    4.9      60.814
2014    5       15     1  37    7.09   549.4    4.9      60.864
2014    5       15     1  43    7.09   549.7    4.9      60.916
2014    5       15     1  48    7.09   550.0    4.9      60.967
2014    5       15     1  54    7.08   550.3    4.9      61.020
2014    5       15     1  59    7.08   550.6    4.9      61.072
2014    5       15     2   5    7.08   550.9    4.9      61.126
2014    5       15     2  10    7.08   551.2    4.9      61.179
2014    5       15     2  15    7.08   551.5    4.9      61.233
2014    5       15     2  21    7.08   551.8    4.9      61.288
2014    5       15     2  26    7.07   552.1    4.9      61.343
2014    5       15     2  32    7.07   552.3    4.9      61.399
2014    5       15     2  37    7.07   552.6    4.9      61.455
2014    5       15     2  42    7.07   552.9    4.9      61.512
2014    5       15     2  48    7.07   553.2    4.8      61.570
2014    5       15     2  53    7.07   553.5    4.8      61.628
2014    5       15     2  59    7.06   553.8    4.8      61.689
2014    5       15     3   4    7.06   554.1    4.8      61.752
2014    5       15     3   9    7.06   554.4    4.8      61.816
2014    5       15     3  15    7.06   554.7    4.8      61.882
2014    5       15     3  20    7.06   555.0    4.8      61.950
2014    5       15     3  26    7.05   555.3    4.8      62.018
2014    5       15     3  31    7.05   555.6    4.8      62.086
2014    5       15     3  37    7.05   555.9    4.8      62.153
2014    5       15     3  42    7.05   556.2    4.8      62.221
2014    5       15     3  47    7.05   556.5    4.8      62.288
2014    5       15     3  53    7.04   556.8    4.8      62.355
2014    5       15     3  58    7.04   557.1    4.8      62.421
2014    5       15     4   4    7.04   557.4    4.8      62.487
2014    5       15     4   9    7.04   557.7    4.8      62.552
2014    5       15     4  14    7.04   558.0    4.8      62.616
2014    5       15     4  20    7.03   558.3    4.8      62.680
2014    5       15     4  25    7.03   558.6    4.8      62.743
2014    5       15     4  31    7.03   558.9    4.7      62.805
2014    5       15     4  36    7.03   559.2    4.7      62.866
2014    5       15     4  42    7.02   559.5    4.7      62.927
2014    5       15     4  47    7.02   559.8    4.7      62.987
2014    5       15     4  52    7.02   560.1    4.7      63.046
2014    5       15     4  58    7.02   560.4    4.7      63.104
2014    5       15     5   3    7.02   560.7    4.7      63.162
2014    5       15     5   9    7.01   561.0    4.7      63.219
2014    5       15     5  14    7.01   561.3    4.7      63.276
2014    5       15     5  19    7.01   561.6    4.7      63.332
2014    5       15     5  25    7.01   561.9    4.7      63.387
2014    5       15     5  30    7.00   562.2    4.7      63.442
2014    5       15     5  36    7.00   562.5    4.7      63.496
2014    5       15     5  41    7.00   562.8    4.7      63.550
2014    5       15     5  46    7.00   563.2    4.7      63.603
2014    5       15     5  52    6.99   563.5    4.7      63.656
2014    5       15     5  57    6.99   563.8    4.6      63.709
2014    5       15     6   3    6.99   564.1    4.6      63.760
2014    5       15     6   8    6.98   564.4    4.6      63.812
2014    5       15     6  14    6.98   564.7    4.6      63.863
2014    5       15     6  19    6.98   565.0    4.6      63.913
2014    5       15     6  24    6.98   565.3    4.6      63.963
2014    5       15     6  30    6.97   565.7    4.6      64.013
2014    5       15     6  35    6.97   566.0    4.6      64.062
2014    5       15     6  41    6.97   566.3    4.6      64.111
2014    5       15     6  46    6.96   566.6    4.6      64.160
2014    5       15     6  51    6.96   566.9    4.6      64.208
2014    5       15     6  57    6.96   567.2    4.6      64.256
2014    5       15     7   2    6.96   567.6    4.6      64.303
2014    5       15     7   8    6.95   567.9    4.6      64.350
2014    5       15     7  13    6.95   568.2    4.5      64.397
2014    5       15     7  19    6.95   568.5    4.5      64.443
2014    5       15     7  24    6.94   568.8    4.5      64.489
2014    5       15     7  29    6.94   569.1    4.5      64.535
2014    5       15     7  35    6.94   569.4    4.5      64.580
2014    5       15     7  40    6.93   569.7    4.5      64.626
2014    5       15     7  46    6.93   570.1    4.5      64.671
2014    5       15     7  51    6.93   570.4    4.5      64.716
2014    5       15     7  56    6.92   570.7    4.5      64.760
2014    5       15     8   2    6.92   571.0    4.5      64.805
2014    5       15     8   7    6.92   571.3    4.5      64.850
2014    5       15     8  13    6.91   571.6    4.5      64.894
2014    5       15     8  18    6.91   571.9    4.5      64.939
2014    5       15     8  24    6.91   572.3    4.5      64.983
2014    5       15     8  29    6.90   572.6    4.5      65.028
2014    5       15     8  34    6.90   572.9    4.4      65.072
2014    5       15     8  40    6.89   573.2    4.4      65.117
2014    5       15     8  45    6.89   573.5    4.4      65.161
2014    5       15     8  51    6.89   573.8    4.4      65.206
2014    5       15     8  56    6.88   574.1    4.4      65.251
2014    5       15     9   1    6.88   574.4    4.4      65.296
2014    5       15     9   7    6.88   574.7    4.4      65.341
2014    5       15     9  12    6.87   575.1    4.4      65.385
2014    5       15     9  18    6.87   575.4    4.4      65.430
2014    5       15     9  23    6.86   575.7    4.4      65.475
2014    5       15     9  28    6.86   576.0    4.4      65.520
2014    5       15     9  34    6.86   576.3    4.4      65.564
2014    5       15     9  39    6.85   576.6    4.4      65.609
2014    5       15     9  45    6.85   576.9    4.4      65.653
2014    5       15     9  50    6.84   577.2    4.4      65.698
2014    5       15     9  56    6.84   577.5    4.4      65.742
2014    5       15    10   1    6.84   577.8    4.3      65.787
2014    5       15    10   6    6.83   578.1    4.3      65.831
2014    5       15    10  12    6.83   578.4    4.3      65.876
2014    5       15    10  17    6.82   578.7    4.3      65.920
2014    5       15    10  23    6.82   579.0    4.3      65.964
2014    5       15    10  28    6.81   579.3    4.3      66.009
2014    5       15    10  33    6.81   579.6    4.3      66.053
2014    5       15    10  39    6.81   579.9    4.3      66.097
2014    5       15    10  44    6.80   580.2    4.3      66.142
2014    5       15    10  50    6.80   580.5    4.3      66.186
2014    5       15    10  55    6.79   580.8    4.3      66.231
2014    5       15    11   1    6.79   581.1    4.3      66.275
2014    5       15    11   6    6.78   581.3    4.3      66.319
2014    5       15    11  11    6.78   581.6    4.3      66.364
2014    5       15    11  17    6.77   581.9    4.3      66.408
2014    5       15    11  22    6.77   582.2    4.2      66.451
2014    5       15    11  28    6.77   582.5    4.2      66.495
2014    5       15    11  33    6.76   582.8    4.2      66.538
2014    5       15    11  38    6.76   583.1    4.2      66.581
2014    5       15    11  44    6.75   583.3    4.2      66.623
2014    5       15    11  49    6.75   583.6    4.2      66.665
2014    5       15    11  55    6.74   583.9    4.2      66.706
2014    5       15    12   0    6.74   584.2    4.2      66.746
2014    5       15    12   5    6.73   584.5    4.2      66.787
2014    5       15    12  11    6.73   584.7    4.2      66.826
2014    5       15    12  16    6.72   585.0    4.2      66.865
2014    5       15    12  22    6.72   585.3    4.2      66.904
2014    5       15    12  27    6.72   585.6    4.2      66.942
2014    5       15    12  33    6.71   585.8    4.2      66.980
2014    5       15    12  38    6.71   586.1    4.2      67.018
2014    5       15    12  43    6.70   586.4    4.2      67.055
2014    5       15    12  49    6.70   586.7    4.1      67.092
2014    5       15    12  54    6.69   586.9    4.1      67.128
2014    5       15    13   0    6.69   587.2    4.1      67.165
2014    5       15    13   5    6.68   587.5    4.1      67.201
2014    5       15    13  10    6.68   587.7    4.1      67.237
2014    5       15    13  16    6.67   588.0    4.1      67.272
2014    5       15    13  21    6.67   588.3    4.1      67.307
2014    5       15    13  27    6.66   588.5    4.1      67.343
2014    5       15    13  32    6.66   588.8    4.1      67.378
2014    5       15    13  38    6.65   589.1    4.1      67.412
2014    5       15    13  43    6.65   589.3    4.1      67.447
2014    5       15    13  48    6.64   589.6    4.1      67.481
2014    5       15    13  54    6.64   589.9    4.1      67.515
2014    5       15    13  59    6.64   590.1    4.1      67.549
2014    5       15    14   5    6.63   590.4    4.1      67.582
2014    5       15    14  10    6.63   590.6    4.1      67.615
2014    5       15    14  15    6.62   590.9    4.1      67.648
2014    5       15    14  21    6.62   591.2    4.0      67.680
2014    5       15    14  26    6.61   591.4    4.0      67.711
2014    5       15    14  32    6.61   591.7    4.0      67.742
2014    5       15    14  37    6.60   591.9    4.0      67.773
2014    5       15    14  42    6.60   592.2    4.0      67.803
2014    5       15    14  48    6.59   592.4    4.0      67.832
2014    5       15    14  53    6.59   592.7    4.0      67.860
2014    5       15    14  59    6.58   592.9    4.0      67.888
2014    5       15    15   4    6.58   593.2    4.0      67.915
2014    5       15    15  10    6.57   593.4    4.0      67.941
2014    5       15    15  15    6.57   593.7    4.0      67.967
2014    5       15    15  20    6.56   593.9    4.0      67.993
2014    5       15    15  26    6.56   594.2    4.0      68.018
2014    5       15    15  31    6.55   594.4    4.0      68.043
2014    5       15    15  37    6.55   594.7    4.0      68.067
2014    5       15    15  42    6.54   594.9    4.0      68.091
2014    5       15    15  47    6.54   595.2    4.0      68.114
2014    5       15    15  53    6.53   595.4    3.9      68.137
2014    5       15    15  58    6.53   595.6    3.9      68.160
2014    5       15    16   4    6.52   595.9    3.9      68.182
2014    5       15    16   9    6.52   596.1    3.9      68.204
2014    5       15    16  15    6.51   596.4    3.9      68.226
2014    5       15    16  20    6.51   596.6    3.9      68.247
2014    5       15    16  25    6.50   596.8    3.9      68.268
2014    5       15    16  31    6.49   597.1    3.9      68.289
2014    5       15    16  36    6.49   597.3    3.9      68.309
2014    5       15    16  42    6.48   597.5    3.9      68.329
2014    5       15    16  47    6.48   597.8    3.9      68.349
2014    5       15    16  52    6.47   598.0    3.9      68.368
2014    5       15    16  58    6.47   598.2    3.9      68.387
2014    5       15    17   3    6.46   598.4    3.9      68.405
2014    5       15    17   9    6.46   598.7    3.9      68.424
2014    5       15    17  14    6.45   598.9    3.9      68.441
2014    5       15    17  19    6.45   599.1    3.9      68.459
2014    5       15    17  25    6.44   599.3    3.9      68.476
2014    5       15    17  30    6.44   599.6    3.8      68.492
2014    5       15    17  36    6.43   599.8    3.8      68.508
2014    5       15    17  41    6.43   600.0    3.8      68.524
2014    5       15    17  47    6.42   600.2    3.8      68.539
2014    5       15    17  52    6.42   600.4    3.8      68.553
2014    5       15    17  57    6.41   600.7    3.8      68.567
2014    5       15    18   3    6.41   600.9    3.8      68.581
2014    5       15    18   8    6.40   601.1    3.8      68.594
2014    5       15    18  14    6.39   601.3    3.8      68.607
2014    5       15    18  19    6.39   601.5    3.8      68.619
2014    5       15    18  24    6.38   601.7    3.8      68.630
2014    5       15    18  30    6.38   601.9    3.8      68.641
2014    5       15    18  35    6.37   602.1    3.8      68.652
2014    5       15    18  41    6.37   602.3    3.8      68.662
2014    5       15    18  46    6.36   602.5    3.8      68.672
2014    5       15    18  52    6.36   602.7    3.8      68.681
2014    5       15    18  57    6.35   602.9    3.8      68.690
2014    5       15    19   2    6.35   603.1    3.8      68.699
2014    5       15    19   8    6.34   603.3    3.8      68.707
2014    5       15    19  13    6.34   603.5    3.7      68.715
2014    5       15    19  19    6.33   603.7    3.7      68.723
2014    5       15    19  24    6.33   603.9    3.7      68.730
2014    5       15    19  29    6.32   604.1    3.7      68.738
2014    5       15    19  35    6.32   604.3    3.7      68.744
2014    5       15    19  40    6.31   604.5    3.7      68.751
2014    5       15    19  46    6.30   604.7    3.7      68.758
2014    5       15    19  51    6.30   604.9    3.7      68.764
2014    5       15    19  56    6.29   605.0    3.7      68.771
2014    5       15    20   2    6.29   605.2    3.7      68.777
2014    5       15    20   7    6.28   605.4    3.7      68.783
2014    5       15    20  13    6.28   605.6    3.7      68.790
2014    5       15    20  18    6.27   605.7    3.7      68.796
2014    5       15    20  24    6.27   605.9    3.7      68.802
2014    5       15    20  29    6.26   606.1    3.7      68.808
2014    5       15    20  34    6.26   606.3    3.7      68.814
2014    5       15    20  40    6.25   606.4    3.7      68.821
2014    5       15    20  45    6.25   606.6    3.7      68.827
2014    5       15    20  51    6.24   606.8    3.7      68.833
2014    5       15    20  56    6.24   606.9    3.7      68.839
2014    5       15    21   1    6.23   607.1    3.7      68.844
2014    5       15    21   7    6.23   607.3    3.7      68.850
2014    5       15    21  12    6.22   607.4    3.6      68.855
2014    5       15    21  18    6.22   607.6    3.6      68.860
2014    5       15    21  23    6.21   607.7    3.6      68.865
2014    5       15    21  29    6.21   607.9    3.6      68.869
2014    5       15    21  34    6.20   608.0    3.6      68.873
2014    5       15    21  39    6.20   608.2    3.6      68.876
2014    5       15    21  45    6.19   608.4    3.6      68.878
2014    5       15    21  50    6.19   608.5    3.6      68.880
2014    5       15    21  56    6.18   608.7    3.6      68.881
2014    5       15    22   1    6.18   608.8    3.6      68.881
2014    5       15    22   6    6.17   609.0    3.6      68.881
2014    5       15    22  12    6.17   609.1    3.6      68.879
2014    5       15    22  17    6.16   609.3    3.6      68.878
2014    5       15    22  23    6.16   609.4    3.6      68.875
2014    5       15    22  28    6.15   609.5    3.6      68.872
2014    5       15    22  33    6.15   609.7    3.6      68.869
2014    5       15    22  39    6.14   609.8    3.6      68.865
2014    5       15    22  44    6.14   610.0    3.6      68.861
2014    5       15    22  50    6.13   610.1    3.6      68.856
2014    5       15    22  55    6.13   610.2    3.6      68.851
2014    5       15    23   1    6.12   610.4    3.6      68.846
2014    5       15    23   6    6.12   610.5    3.6      68.840
2014    5       15    23  11    6.11   610.6    3.6      68.835
2014    5       15    23  17    6.11   610.8    3.6      68.828
2014    5       15    23  22    6.10   610.9    3.5      68.822
2014    5       15    23  28    6.10   611.1    3.5      68.816
2014    5       15    23  33    6.09   611.2    3.5      68.809
2014    5       15    23  38    6.09   611.3    3.5      68.802
2014    5       15    23  44    6.08   611.4    3.5      68.795
2014    5       15    23  49    6.08   611.6    3.5      68.788
2014    5       15    23  55    6.07   611.7    3.5      68.781
2014    5       16     0   0    6.07   611.8    3.5      68.774
2014    5       16     0   6    6.06   612.0    3.5      68.767
2014    5       16     0  11    6.06   612.1    3.5      68.760
2014    5       16     0  16    6.06   612.2    3.5      68.752
2014    5       16     0  22    6.05   612.3    3.5      68.745
2014    5       16     0  27    6.05   612.5    3.5      68.738
2014    5       16     0  33    6.04   612.6    3.5      68.731
2014    5       16     0  38    6.04   612.7    3.5      68.723
2014    5       16     0  43    6.03   612.8    3.5      68.716
2014    5       16     0  49    6.03   612.9    3.5      68.709
2014    5       16     0  54    6.02   613.1    3.5      68.702
2014    5       16     1   0    6.02   613.2    3.5      68.694
2014    5       16     1   5    6.01   613.3    3.5      68.687
2014    5       16     1  10    6.01   613.4    3.5      68.680
2014    5       16     1  16    6.00   613.5    3.5      68.672
2014    5       16     1  21    6.00   613.6    3.5      68.665
2014    5       16     1  27    5.99   613.7    3.5      68.657
2014    5       16     1  32    5.99   613.9    3.5      68.650
2014    5       16     1  38    5.98   614.0    3.5      68.642
2014    5       16     1  43    5.98   614.1    3.4      68.634
2014    5       16     1  48    5.97   614.2    3.4      68.626
2014    5       16     1  54    5.97   614.3    3.4      68.618
2014    5       16     1  59    5.96   614.4    3.4      68.610
2014    5       16     2   5    5.96   614.5    3.4      68.601
2014    5       16     2  10    5.95   614.6    3.4      68.593
2014    5       16     2  15    5.95   614.7    3.4      68.584
2014    5       16     2  21    5.94   614.8    3.4      68.575
2014    5       16     2  26    5.94   614.9    3.4      68.565
2014    5       16     2  32    5.93   615.0    3.4      68.556
2014    5       16     2  37    5.93   615.1    3.4      68.546
2014    5       16     2  42    5.93   615.2    3.4      68.536
2014    5       16     2  48    5.92   615.3    3.4      68.525
2014    5       16     2  53    5.92   615.4    3.4      68.515
2014    5       16     2  59    5.91   615.5    3.4      68.504
2014    5       16     3   4    5.91   615.6    3.4      68.493
2014    5       16     3  10    5.90   615.7    3.4      68.481
2014    5       16     3  15    5.90   615.8    3.4      68.469
2014    5       16     3  20    5.89   615.8    3.4      68.457
2014    5       16     3  26    5.89   615.9    3.4      68.445
2014    5       16     3  31    5.88   616.0    3.4      68.432
2014    5       16     3  37    5.88   616.1    3.4      68.419
2014    5       16     3  42    5.88   616.2    3.4      68.406
2014    5       16     3  47    5.87   616.3    3.4      68.392
2014    5       16     3  53    5.87   616.3    3.4      68.379
2014    5       16     3  58    5.86   616.4    3.4      68.365
2014    5       16     4   4    5.86   616.5    3.4      68.350
2014    5       16     4   9    5.85   616.6    3.4      68.336
2014    5       16     4  15    5.85   616.6    3.4      68.321
2014    5       16     4  20    5.85   616.7    3.4      68.306
2014    5       16     4  25    5.84   616.8    3.4      68.291
2014    5       16     4  31    5.84   616.9    3.4      68.275
2014    5       16     4  36    5.83   616.9    3.3      68.260
2014    5       16     4  42    5.83   617.0    3.3      68.244
2014    5       16     4  47    5.82   617.1    3.3      68.227
2014    5       16     4  52    5.82   617.1    3.3      68.211
2014    5       16     4  58    5.81   617.2    3.3      68.194
2014    5       16     5   3    5.81   617.3    3.3      68.177
2014    5       16     5   9    5.81   617.3    3.3      68.159
2014    5       16     5  14    5.80   617.4    3.3      68.141
2014    5       16     5  19    5.80   617.5    3.3      68.123
2014    5       16     5  25    5.79   617.5    3.3      68.105
2014    5       16     5  30    5.79   617.6    3.3      68.087
2014    5       16     5  36    5.79   617.6    3.3      68.068
2014    5       16     5  41    5.78   617.7    3.3      68.049
2014    5       16     5  47    5.78   617.8    3.3      68.030
2014    5       16     5  52    5.77   617.8    3.3      68.010
2014    5       16     5  57    5.77   617.9    3.3      67.990
2014    5       16     6   3    5.76   617.9    3.3      67.971
2014    5       16     6   8    5.76   618.0    3.3      67.951
2014    5       16     6  14    5.76   618.0    3.3      67.930
2014    5       16     6  19    5.75   618.1    3.3      67.910
2014    5       16     6  24    5.75   618.1    3.3      67.890
2014    5       16     6  30    5.74   618.2    3.3      67.869
2014    5       16     6  35    5.74   618.2    3.3      67.849
2014    5       16     6  41    5.73   618.3    3.3      67.828
2014    5       16     6  46    5.73   618.3    3.3      67.808
2014    5       16     6  52    5.73   618.4    3.3      67.787
2014    5       16     6  57    5.72   618.4    3.3      67.767
2014    5       16     7   2    5.72   618.4    3.3      67.747
2014    5       16     7   8    5.71   618.5    3.3      67.726
2014    5       16     7  13    5.71   618.5    3.3      67.706
2014    5       16     7  19    5.71   618.6    3.3      67.686
2014    5       16     7  24    5.70   618.6    3.3      67.667
2014    5       16     7  29    5.70   618.7    3.3      67.647
2014    5       16     7  35    5.69   618.7    3.3      67.628
2014    5       16     7  40    5.69   618.7    3.3      67.609
2014    5       16     7  46    5.68   618.8    3.3      67.590
2014    5       16     7  51    5.68   618.8    3.3      67.572
2014    5       16     7  56    5.68   618.8    3.2      67.553
2014    5       16     8   2    5.67   618.9    3.2      67.536
2014    5       16     8   7    5.67   618.9    3.2      67.518
2014    5       16     8  13    5.66   618.9    3.2      67.501
2014    5       16     8  18    5.66   619.0    3.2      67.484
2014    5       16     8  24    5.66   619.0    3.2      67.467
2014    5       16     8  29    5.65   619.0    3.2      67.451
2014    5       16     8  34    5.65   619.1    3.2      67.435
2014    5       16     8  40    5.64   619.1    3.2      67.419
2014    5       16     8  45    5.64   619.1    3.2      67.403
2014    5       16     8  51    5.64   619.2    3.2      67.388
2014    5       16     8  56    5.63   619.2    3.2      67.373
2014    5       16     9   1    5.63   619.2    3.2      67.357
2014    5       16     9   7    5.63   619.2    3.2      67.342
2014    5       16     9  12    5.62   619.3    3.2      67.327
2014    5       16     9  18    5.62   619.3    3.2      67.311
2014    5       16     9  23    5.61   619.3    3.2      67.296
2014    5       16     9  28    5.61   619.3    3.2      67.280
2014    5       16     9  34    5.61   619.4    3.2      67.264
2014    5       16     9  39    5.60   619.4    3.2      67.248
2014    5       16     9  45    5.60   619.4    3.2      67.231
2014    5       16     9  50    5.59   619.4    3.2      67.214
2014    5       16     9  56    5.59   619.4    3.2      67.196
2014    5       16    10   1    5.59   619.5    3.2      67.178
2014    5       16    10   6    5.58   619.5    3.2      67.160
2014    5       16    10  12    5.58   619.5    3.2      67.141
2014    5       16    10  17    5.58   619.5    3.2      67.122
2014    5       16    10  23    5.57   619.5    3.2      67.102
2014    5       16    10  28    5.57   619.5    3.2      67.082
2014    5       16    10  33    5.57   619.6    3.2      67.062
2014    5       16    10  39    5.56   619.6    3.2      67.041
2014    5       16    10  44    5.56   619.6    3.2      67.020
2014    5       16    10  50    5.55   619.6    3.2      66.999
2014    5       16    10  55    5.55   619.6    3.2      66.977
2014    5       16    11   1    5.55   619.6    3.2      66.956
2014    5       16    11   6    5.54   619.6    3.2      66.934
2014    5       16    11  11    5.54   619.6    3.2      66.912
2014    5       16    11  17    5.54   619.6    3.2      66.890
2014    5       16    11  22    5.53   619.6    3.2      66.868
2014    5       16    11  28    5.53   619.6    3.2      66.846
2014    5       16    11  33    5.53   619.6    3.2      66.824
2014    5       16    11  38    5.52   619.6    3.2      66.802
2014    5       16    11  44    5.52   619.6    3.2      66.781
2014    5       16    11  49    5.51   619.7    3.2      66.759
2014    5       16    11  55    5.51   619.7    3.2      66.737
2014    5       16    12   0    5.51   619.7    3.2      66.716
2014    5       16    12   5    5.50   619.7    3.2      66.694
2014    5       16    12  11    5.50   619.7    3.2      66.673
2014    5       16    12  16    5.50   619.7    3.2      66.651
2014    5       16    12  22    5.49   619.6    3.2      66.630
2014    5       16    12  27    5.49   619.6    3.1      66.609
2014    5       16    12  33    5.49   619.6    3.1      66.588
2014    5       16    12  38    5.48   619.6    3.1      66.567
2014    5       16    12  43    5.48   619.6    3.1      66.546
2014    5       16    12  49    5.48   619.6    3.1      66.525
2014    5       16    12  54    5.47   619.6    3.1      66.503
2014    5       16    13   0    5.47   619.6    3.1      66.482
2014    5       16    13   5    5.47   619.6    3.1      66.461
2014    5       16    13  10    5.46   619.6    3.1      66.440
2014    5       16    13  16    5.46   619.6    3.1      66.418
2014    5       16    13  21    5.46   619.6    3.1      66.396
2014    5       16    13  27    5.45   619.6    3.1      66.375
2014    5       16    13  32    5.45   619.6    3.1      66.353
2014    5       16    13  37    5.45   619.5    3.1      66.330
2014    5       16    13  43    5.44   619.5    3.1      66.308
2014    5       16    13  48    5.44   619.5    3.1      66.286
2014    5       16    13  54    5.44   619.5    3.1      66.263
2014    5       16    13  59    5.43   619.5    3.1      66.240
2014    5       16    14   5    5.43   619.5    3.1      66.217
2014    5       16    14  10    5.43   619.4    3.1      66.194
2014    5       16    14  15    5.42   619.4    3.1      66.171
2014    5       16    14  21    5.42   619.4    3.1      66.148
2014    5       16    14  26    5.42   619.4    3.1      66.125
2014    5       16    14  32    5.41   619.4    3.1      66.101
2014    5       16    14  37    5.41   619.3    3.1      66.078
2014    5       16    14  42    5.41   619.3    3.1      66.054
2014    5       16    14  48    5.40   619.3    3.1      66.031
2014    5       16    14  53    5.40   619.3    3.1      66.007
2014    5       16    14  59    5.40   619.3    3.1      65.984
2014    5       16    15   4    5.40   619.2    3.1      65.961
2014    5       16    15   9    5.39   619.2    3.1      65.937
2014    5       16    15  15    5.39   619.2    3.1      65.914
2014    5       16    15  20    5.39   619.2    3.1      65.890
2014    5       16    15  26    5.38   619.1    3.1      65.867
2014    5       16    15  31    5.38   619.1    3.1      65.844
2014    5       16    15  37    5.38   619.1    3.1      65.821
2014    5       16    15  42    5.37   619.1    3.1      65.798
2014    5       16    15  47    5.37   619.0    3.1      65.775
2014    5       16    15  53    5.37   619.0    3.1      65.752
2014    5       16    15  58    5.36   619.0    3.1      65.729
2014    5       16    16   4    5.36   619.0    3.1      65.706
2014    5       16    16   9    5.36   618.9    3.1      65.684
2014    5       16    16  14    5.35   618.9    3.1      65.661
2014    5       16    16  20    5.35   618.9    3.1      65.638
2014    5       16    16  25    5.35   618.8    3.1      65.616
2014    5       16    16  31    5.35   618.8    3.1      65.594
2014    5       16    16  36    5.34   618.8    3.1      65.571
2014    5       16    16  42    5.34   618.7    3.1      65.549
2014    5       16    16  47    5.34   618.7    3.1      65.527
2014    5       16    16  52    5.33   618.7    3.1      65.505
2014    5       16    16  58    5.33   618.6    3.1      65.483
2014    5       16    17   3    5.33   618.6    3.1      65.460
2014    5       16    17   9    5.33   618.6    3.1      65.438
2014    5       16    17  14    5.32   618.5    3.1      65.416
2014    5       16    17  19    5.32   618.5    3.1      65.394
2014    5       16    17  25    5.32   618.5    3.1      65.371
2014    5       16    17  30    5.31   618.4    3.1      65.349
2014    5       16    17  36    5.31   618.4    3.1      65.326
2014    5       16    17  41    5.31   618.3    3.1      65.304
2014    5       16    17  46    5.30   618.3    3.1      65.281
2014    5       16    17  52    5.30   618.3    3.1      65.258
2014    5       16    17  57    5.30   618.2    3.1      65.235
2014    5       16    18   3    5.30   618.2    3.1      65.212
2014    5       16    18   8    5.29   618.1    3.1      65.189
2014    5       16    18  14    5.29   618.1    3.1      65.166
2014    5       16    18  19    5.29   618.1    3.1      65.143
2014    5       16    18  24    5.28   618.0    3.1      65.120
2014    5       16    18  30    5.28   618.0    3.1      65.097
2014    5       16    18  35    5.28   617.9    3.1      65.075
2014    5       16    18  41    5.28   617.9    3.1      65.052
2014    5       16    18  46    5.27   617.8    3.0      65.029
2014    5       16    18  51    5.27   617.8    3.0      65.007
2014    5       16    18  57    5.27   617.7    3.0      64.985
2014    5       16    19   2    5.27   617.7    3.0      64.963
2014    5       16    19   8    5.26   617.6    3.0      64.941
2014    5       16    19  13    5.26   617.6    3.0      64.919
2014    5       16    19  18    5.26   617.5    3.0      64.898
2014    5       16    19  24    5.25   617.5    3.0      64.877
2014    5       16    19  29    5.25   617.5    3.0      64.856
2014    5       16    19  35    5.25   617.4    3.0      64.836
2014    5       16    19  40    5.25   617.4    3.0      64.816
2014    5       16    19  46    5.24   617.3    3.0      64.796
2014    5       16    19  51    5.24   617.3    3.0      64.776
2014    5       16    19  56    5.24   617.2    3.0      64.757
2014    5       16    20   2    5.24   617.2    3.0      64.737
2014    5       16    20   7    5.23   617.1    3.0      64.718
2014    5       16    20  13    5.23   617.1    3.0      64.700
2014    5       16    20  18    5.23   617.0    3.0      64.681
2014    5       16    20  23    5.23   617.0    3.0      64.662
2014    5       16    20  29    5.22   616.9    3.0      64.644
2014    5       16    20  34    5.22   616.9    3.0      64.626
2014    5       16    20  40    5.22   616.8    3.0      64.608
2014    5       16    20  45    5.21   616.8    3.0      64.590
2014    5       16    20  51    5.21   616.7    3.0      64.572
2014    5       16    20  56    5.21   616.7    3.0      64.554
2014    5       16    21   1    5.21   616.7    3.0      64.536
2014    5       16    21   7    5.20   616.6    3.0      64.518
2014    5       16    21  12    5.20   616.6    3.0      64.500
2014    5       16    21  18    5.20   616.5    3.0      64.482
2014    5       16    21  23    5.20   616.5    3.0      64.464
2014    5       16    21  28    5.19   616.4    3.0      64.446
2014    5       16    21  34    5.19   616.4    3.0      64.427
2014    5       16    21  39    5.19   616.3    3.0      64.409
2014    5       16    21  45    5.19   616.2    3.0      64.390
2014    5       16    21  50    5.18   616.2    3.0      64.371
2014    5       16    21  55    5.18   616.1    3.0      64.352
2014    5       16    22   1    5.18   616.1    3.0      64.333
2014    5       16    22   6    5.18   616.0    3.0      64.314
2014    5       16    22  12    5.17   616.0    3.0      64.294
2014    5       16    22  17    5.17   615.9    3.0      64.274
2014    5       16    22  23    5.17   615.9    3.0      64.254
2014    5       16    22  28    5.17   615.8    3.0      64.233
2014    5       16    22  33    5.16   615.7    3.0      64.213
2014    5       16    22  39    5.16   615.7    3.0      64.192
2014    5       16    22  44    5.16   615.6    3.0      64.171
2014    5       16    22  50    5.16   615.6    3.0      64.149
2014    5       16    22  55    5.15   615.5    3.0      64.128
2014    5       16    23   0    5.15   615.4    3.0      64.106
2014    5       16    23   6    5.15   615.4    3.0      64.084
2014    5       16    23  11    5.15   615.3    3.0      64.061
2014    5       16    23  17    5.14   615.3    3.0      64.039
2014    5       16    23  22    5.14   615.2    3.0      64.016
2014    5       16    23  27    5.14   615.1    3.0      63.993
2014    5       16    23  33    5.14   615.1    3.0      63.970
2014    5       16    23  38    5.13   615.0    3.0      63.947
2014    5       16    23  44    5.13   614.9    3.0      63.924
2014    5       16    23  49    5.13   614.9    3.0      63.900
2014    5       16    23  55    5.13   614.8    3.0      63.876
2014    5       17     0   0    5.12   614.7    3.0      63.853
2014    5       17     0   5    5.12   614.7    3.0      63.829
2014    5       17     0  11    5.12   614.6    3.0      63.805
2014    5       17     0  16    5.12   614.5    3.0      63.781
2014    5       17     0  22    5.12   614.4    3.0      63.757
2014    5       17     0  27    5.11   614.4    3.0      63.733
2014    5       17     0  32    5.11   614.3    3.0      63.709
2014    5       17     0  38    5.11   614.2    3.0      63.684
2014    5       17     0  43    5.11   614.2    3.0      63.660
2014    5       17     0  49    5.10   614.1    3.0      63.635
2014    5       17     0  54    5.10   614.0    3.0      63.611
2014    5       17     0  59    5.10   613.9    3.0      63.586
2014    5       17     1   5    5.10   613.9    3.0      63.561
2014    5       17     1  10    5.09   613.8    3.0      63.536
2014    5       17     1  16    5.09   613.7    3.0      63.511
2014    5       17     1  21    5.09   613.6    3.0      63.486
2014    5       17     1  27    5.09   613.6    3.0      63.461
2014    5       17     1  32    5.09   613.5    3.0      63.436
2014    5       17     1  37    5.08   613.4    3.0      63.410
2014    5       17     1  43    5.08   613.3    3.0      63.385
2014    5       17     1  48    5.08   613.2    3.0      63.359
2014    5       17     1  54    5.08   613.2    3.0      63.334
2014    5       17     1  59    5.07   613.1    3.0      63.308
2014    5       17     2   4    5.07   613.0    3.0      63.282
2014    5       17     2  10    5.07   612.9    3.0      63.257
2014    5       17     2  15    5.07   612.9    3.0      63.231
2014    5       17     2  21    5.07   612.8    3.0      63.205
2014    5       17     2  26    5.06   612.7    3.0      63.179
2014    5       17     2  31    5.06   612.6    3.0      63.153
2014    5       17     2  37    5.06   612.5    3.0      63.128
2014    5       17     2  42    5.06   612.5    3.0      63.102
2014    5       17     2  48    5.05   612.4    3.0      63.076
2014    5       17     2  53    5.05   612.3    3.0      63.050
2014    5       17     2  59    5.05   612.2    3.0      63.024
2014    5       17     3   4    5.05   612.2    3.0      62.999
2014    5       17     3   9    5.05   612.1    3.0      62.973
2014    5       17     3  15    5.04   612.0    3.0      62.948
2014    5       17     3  20    5.04   611.9    3.0      62.922
2014    5       17     3  26    5.04   611.8    3.0      62.897
2014    5       17     3  31    5.04   611.8    3.0      62.872
2014    5       17     3  36    5.03   611.7    3.0      62.847
2014    5       17     3  42    5.03   611.6    3.0      62.823
2014    5       17     3  47    5.03   611.5    3.0      62.799
2014    5       17     3  53    5.03   611.4    3.0      62.775
2014    5       17     3  58    5.03   611.4    3.0      62.751
2014    5       17     4   3    5.02   611.3    3.0      62.729
2014    5       17     4   9    5.02   611.2    3.0      62.706
2014    5       17     4  14    5.02   611.1    3.0      62.684
2014    5       17     4  20    5.02   611.0    3.0      62.663
2014    5       17     4  25    5.02   611.0    3.0      62.642
2014    5       17     4  31    5.01   610.9    3.0      62.622
2014    5       17     4  36    5.01   610.8    3.0      62.603
2014    5       17     4  41    5.01   610.7    3.0      62.584
2014    5       17     4  47    5.01   610.6    3.0      62.566
2014    5       17     4  52    5.00   610.6    3.0      62.549
2014    5       17     4  58    5.00   610.5    3.0      62.532
2014    5       17     5   3    5.00   610.4    3.0      62.516
2014    5       17     5   8    5.00   610.3    3.0      62.501
2014    5       17     5  14    5.00   610.2    3.0      62.486
2014    5       17     5  19    4.99   610.1    3.0      62.471
2014    5       17     5  25    4.99   610.1    3.0      62.458
2014    5       17     5  30    4.99   610.0    3.0      62.444
2014    5       17     5  35    4.99   609.9    3.0      62.431
2014    5       17     5  41    4.99   609.8    3.0      62.419
2014    5       17     5  46    4.98   609.7    3.0      62.406
2014    5       17     5  52    4.98   609.7    3.0      62.394
2014    5       17     5  57    4.98   609.6    3.0      62.382
2014    5       17     6   3    4.98   609.5    3.0      62.370
2014    5       17     6   8    4.98   609.4    3.0      62.359
2014    5       17     6  13    4.97   609.4    3.0      62.347
2014    5       17     6  19    4.97   609.3    3.0      62.335
2014    5       17     6  24    4.97   609.2    3.0      62.323
2014    5       17     6  30    4.97   609.1    3.0      62.311
2014    5       17     6  35    4.97   609.0    3.0      62.299
2014    5       17     6  40    4.96   608.9    3.0      62.286
2014    5       17     6  46    4.96   608.9    3.0      62.274
2014    5       17     6  51    4.96   608.8    3.0      62.262
2014    5       17     6  57    4.96   608.7    3.0      62.248
2014    5       17     7   2    4.96   608.6    3.0      62.234
2014    5       17     7   7    4.95   608.5    3.0      62.220
2014    5       17     7  13    4.95   608.4    3.0      62.205
2014    5       17     7  18    4.95   608.4    3.0      62.189
2014    5       17     7  24    4.95   608.3    3.0      62.173
2014    5       17     7  29    4.95   608.2    3.0      62.155
2014    5       17     7  35    4.95   608.1    3.0      62.138
2014    5       17     7  40    4.94   608.0    3.0      62.120
2014    5       17     7  45    4.94   607.9    3.0      62.101
2014    5       17     7  51    4.94   607.8    3.0      62.081
2014    5       17     7  56    4.94   607.7    3.0      62.061
2014    5       17     8   2    4.94   607.7    3.0      62.041
2014    5       17     8   7    4.93   607.6    3.0      62.020
2014    5       17     8  12    4.93   607.5    3.0      61.998
2014    5       17     8  18    4.93   607.4    3.0      61.976
2014    5       17     8  23    4.93   607.3    3.0      61.954
2014    5       17     8  29    4.93   607.2    3.0      61.931
2014    5       17     8  34    4.92   607.1    3.0      61.908
2014    5       17     8  40    4.92   607.0    3.0      61.884
2014    5       17     8  45    4.92   606.9    3.0      61.860
2014    5       17     8  50    4.92   606.9    3.0      61.835
2014    5       17     8  56    4.92   606.8    3.0      61.810
2014    5       17     9   1    4.91   606.7    3.0      61.785
2014    5       17     9   7    4.91   606.6    3.0      61.759
2014    5       17     9  12    4.91   606.5    3.0      61.732
2014    5       17     9  17    4.91   606.4    3.0      61.705
2014    5       17     9  23    4.91   606.3    3.0      61.677
2014    5       17     9  28    4.91   606.2    3.0      61.649
2014    5       17     9  34    4.90   606.1    3.0      61.621
2014    5       17     9  39    4.90   606.0    3.0      61.592
2014    5       17     9  44    4.90   605.9    3.0      61.562
2014    5       17     9  50    4.90   605.9    3.0      61.532
2014    5       17     9  55    4.90   605.8    3.0      61.501
2014    5       17    10   1    4.89   605.7    3.0      61.470
2014    5       17    10   6    4.89   605.6    3.0      61.439
2014    5       17    10  12    4.89   605.5    3.0      61.407
2014    5       17    10  17    4.89   605.4    3.0      61.374
2014    5       17    10  22    4.89   605.3    3.0      61.341
2014    5       17    10  28    4.88   605.2    3.0      61.308
2014    5       17    10  33    4.88   605.1    3.0      61.275
2014    5       17    10  39    4.88   605.0    3.0      61.241
2014    5       17    10  44    4.88   604.9    3.0      61.207
2014    5       17    10  49    4.88   604.8    3.0      61.173
2014    5       17    10  55    4.88   604.7    3.0      61.139
2014    5       17    11   0    4.87   604.6    3.0      61.105
2014    5       17    11   6    4.87   604.5    3.0      61.071
2014    5       17    11  11    4.87   604.4    3.0      61.038
2014    5       17    11  16    4.87   604.3    3.0      61.005
2014    5       17    11  22    4.87   604.2    3.0      60.972
2014    5       17    11  27    4.86   604.1    3.0      60.940
2014    5       17    11  33    4.86   603.9    3.0      60.908
2014    5       17    11  38    4.86   603.8    3.0      60.878
2014    5       17    11  44    4.86   603.7    3.0      60.848
2014    5       17    11  49    4.86   603.6    3.0      60.820
2014    5       17    11  54    4.85   603.5    3.0      60.792
2014    5       17    12   0    4.85   603.4    3.0      60.766
2014    5       17    12   5    4.85   603.3    3.0      60.741
2014    5       17    12  11    4.85   603.2    3.0      60.716
2014    5       17    12  16    4.85   603.1    3.0      60.694
2014    5       17    12  21    4.85   603.0    3.0      60.672
2014    5       17    12  27    4.84   602.9    3.0      60.651
2014    5       17    12  32    4.84   602.8    3.0      60.632
2014    5       17    12  38    4.84   602.7    3.0      60.614
2014    5       17    12  43    4.84   602.6    3.0      60.597
2014    5       17    12  48    4.84   602.5    3.0      60.581
2014    5       17    12  54    4.84   602.4    3.0      60.565
2014    5       17    12  59    4.84   602.3    3.0      60.551
2014    5       17    13   5    4.83   602.2    3.0      60.537
2014    5       17    13  10    4.83   602.1    3.0      60.525
2014    5       17    13  16    4.83   602.0    3.0      60.512
2014    5       17    13  21    4.83   601.9    3.0      60.501
2014    5       17    13  26    4.83   601.8    3.0      60.490
2014    5       17    13  32    4.83   601.7    3.0      60.479
2014    5       17    13  37    4.82   601.6    3.0      60.469
2014    5       17    13  43    4.82   601.5    3.0      60.459
2014    5       17    13  48    4.82   601.4    3.0      60.449
2014    5       17    13  53    4.82   601.3    3.0      60.439
2014    5       17    13  59    4.82   601.2    3.0      60.429
2014    5       17    14   4    4.81   601.1    3.0      60.420
2014    5       17    14  10    4.81   601.0    3.0      60.410
2014    5       17    14  15    4.81   600.9    3.0      60.400
2014    5       17    14  20    4.81   600.8    3.0      60.389
2014    5       17    14  26    4.81   600.7    3.0      60.378
2014    5       17    14  31    4.81   600.6    3.0      60.367
2014    5       17    14  37    4.80   600.5    3.0      60.355
2014    5       17    14  42    4.80   600.4    3.0      60.342
2014    5       17    14  48    4.80   600.3    3.0      60.329
2014    5       17    14  53    4.80   600.2    3.0      60.315
2014    5       17    14  58    4.80   600.1    3.0      60.301
2014    5       17    15   4    4.80   600.0    3.0      60.286
2014    5       17    15   9    4.79   599.9    3.0      60.270
2014    5       17    15  15    4.79   599.8    3.0      60.254
2014    5       17    15  20    4.79   599.7    3.0      60.237
2014    5       17    15  25    4.79   599.6    3.0      60.220
2014    5       17    15  31    4.79   599.5    3.0      60.201
2014    5       17    15  36    4.79   599.4    3.0      60.183
2014    5       17    15  42    4.78   599.3    3.0      60.164
2014    5       17    15  47    4.78   599.2    3.0      60.144
2014    5       17    15  52    4.78   599.0    3.0      60.124
2014    5       17    15  58    4.78   598.9    3.0      60.103
2014    5       17    16   3    4.78   598.8    3.0      60.082
2014    5       17    16   9    4.78   598.7    3.0      60.060
2014    5       17    16  14    4.77   598.6    3.0      60.039
2014    5       17    16  20    4.77   598.5    3.0      60.016
2014    5       17    16  25    4.77   598.4    3.0      59.994
2014    5       17    16  30    4.77   598.3    3.0      59.971
2014    5       17    16  36    4.77   598.2    3.0      59.947
2014    5       17    16  41    4.77   598.1    3.0      59.924
2014    5       17    16  47    4.76   598.0    3.0      59.900
2014    5       17    16  52    4.76   597.9    3.0      59.876
2014    5       17    16  57    4.76   597.8    3.0      59.852
2014    5       17    17   3    4.76   597.6    3.0      59.828
2014    5       17    17   8    4.76   597.5    3.0      59.804
2014    5       17    17  14    4.76   597.4    3.0      59.780
2014    5       17    17  19    4.76   597.3    3.0      59.756
2014    5       17    17  24    4.75   597.2    3.0      59.732
2014    5       17    17  30    4.75   597.1    3.0      59.709
2014    5       17    17  35    4.75   597.0    3.0      59.685
2014    5       17    17  41    4.75   596.9    3.0      59.661
2014    5       17    17  46    4.75   596.8    3.0      59.637
2014    5       17    17  52    4.75   596.7    3.0      59.612
2014    5       17    17  57    4.74   596.6    3.0      59.587
2014    5       17    18   2    4.74   596.5    3.0      59.561
2014    5       17    18   8    4.74   596.3    3.0      59.535
2014    5       17    18  13    4.74   596.2    3.0      59.508
2014    5       17    18  19    4.74   596.1    3.0      59.481
2014    5       17    18  24    4.74   596.0    3.0      59.454
2014    5       17    18  29    4.74   595.9    3.0      59.426
2014    5       17    18  35    4.73   595.8    3.0      59.398
2014    5       17    18  40    4.73   595.7    3.0      59.369
2014    5       17    18  46    4.73   595.6    3.0      59.341
2014    5       17    18  51    4.73   595.4    3.0      59.312
2014    5       17    18  56    4.73   595.3    3.0      59.284
2014    5       17    19   2    4.73   595.2    3.0      59.255
2014    5       17    19   7    4.72   595.1    3.0      59.227
2014    5       17    19  13    4.72   595.0    3.0      59.199
2014    5       17    19  18    4.72   594.9    3.0      59.171
2014    5       17    19  24    4.72   594.7    3.0      59.143
2014    5       17    19  29    4.72   594.6    3.0      59.116
2014    5       17    19  34    4.72   594.5    3.0      59.089
2014    5       17    19  40    4.72   594.4    3.0      59.063
2014    5       17    19  45    4.71   594.3    3.0      59.036
2014    5       17    19  51    4.71   594.2    3.0      59.010
2014    5       17    19  56    4.71   594.0    3.0      58.985
2014    5       17    20   1    4.71   593.9    3.0      58.960
2014    5       17    20   7    4.71   593.8    3.0      58.935
2014    5       17    20  12    4.71   593.7    3.0      58.910
2014    5       17    20  18    4.70   593.6    3.0      58.886
2014    5       17    20  23    4.70   593.5    3.0      58.862
2014    5       17    20  28    4.70   593.3    3.0      58.839
2014    5       17    20  34    4.70   593.2    3.0      58.816
2014    5       17    20  39    4.70   593.1    3.0      58.793
2014    5       17    20  45    4.70   593.0    3.0      58.771
2014    5       17    20  50    4.70   592.8    3.0      58.749
2014    5       17    20  56    4.69   592.7    3.0      58.727
2014    5       17    21   1    4.69   592.6    3.0      58.706
2014    5       17    21   6    4.69   592.5    3.0      58.685
2014    5       17    21  12    4.69   592.4    3.0      58.664
2014    5       17    21  17    4.69   592.2    3.0      58.643
2014    5       17    21  23    4.69   592.1    3.0      58.622
2014    5       17    21  28    4.69   592.0    3.0      58.602
2014    5       17    21  33    4.68   591.8    3.0      58.582
2014    5       17    21  39    4.68   591.7    3.0      58.562
2014    5       17    21  44    4.68   591.6    3.0      58.542
2014    5       17    21  50    4.68   591.5    3.0      58.522
2014    5       17    21  55    4.68   591.3    3.0      58.502
2014    5       17    22   0    4.68   591.2    3.0      58.482
2014    5       17    22   6    4.68   591.1    3.0      58.462
2014    5       17    22  11    4.67   590.9    3.0      58.442
2014    5       17    22  17    4.67   590.8    3.0      58.422
2014    5       17    22  22    4.67   590.7    3.0      58.402
2014    5       17    22  28    4.67   590.6    3.0      58.382
2014    5       17    22  33    4.67   590.4    3.0      58.361
2014    5       17    22  38    4.67   590.3    3.0      58.340
2014    5       17    22  44    4.67   590.2    3.0      58.319
2014    5       17    22  49    4.66   590.0    3.0      58.298
2014    5       17    22  55    4.66   589.9    3.0      58.277
2014    5       17    23   0    4.66   589.8    3.0      58.255
2014    5       17    23   5    4.66   589.6    3.0      58.233
2014    5       17    23  11    4.66   589.5    3.0      58.211
2014    5       17    23  16    4.66   589.3    3.0      58.189
2014    5       17    23  22    4.66   589.2    3.0      58.167
2014    5       17    23  27    4.65   589.1    3.0      58.144
2014    5       17    23  32    4.65   588.9    3.0      58.122
2014    5       17    23  38    4.65   588.8    3.0      58.100
2014    5       17    23  43    4.65   588.7    3.0      58.077
2014    5       17    23  49    4.65   588.5    3.0      58.055
2014    5       17    23  54    4.65   588.4    3.0      58.033
2014    5       18    24   0    4.65   588.2    3.0      58.011
