year    month   day   hour  minute  B_enl V_enl   n_enl       T_enl
[year] [month] [day] [hour][minute] [nT]  [km/s]  [cm-3]      [kK]
2014    5        8     0   3    5.24   498.2    4.9      45.153
2014    5        8     0   8    5.24   498.2    4.9      45.167
2014    5        8     0  14    5.24   498.1    4.9      45.182
2014    5        8     0  19    5.24   498.1    4.9      45.197
2014    5        8     0  25    5.25   498.1    4.9      45.212
2014    5        8     0  30    5.25   498.1    4.9      45.228
2014    5        8     0  36    5.25   498.1    4.9      45.243
2014    5        8     0  41    5.25   498.1    4.9      45.259
2014    5        8     0  46    5.25   498.1    4.9      45.275
2014    5        8     0  52    5.26   498.0    4.9      45.291
2014    5        8     0  57    5.26   498.0    4.9      45.308
2014    5        8     1   3    5.26   498.0    4.9      45.325
2014    5        8     1   8    5.26   498.0    4.9      45.342
2014    5        8     1  14    5.26   498.0    4.9      45.360
2014    5        8     1  19    5.26   498.0    4.9      45.377
2014    5        8     1  25    5.27   498.0    4.9      45.395
2014    5        8     1  30    5.27   498.0    4.9      45.412
2014    5        8     1  35    5.27   498.0    4.9      45.430
2014    5        8     1  41    5.27   498.0    4.9      45.447
2014    5        8     1  46    5.27   498.0    4.9      45.464
2014    5        8     1  52    5.27   498.0    4.9      45.480
2014    5        8     1  57    5.28   498.0    4.9      45.497
2014    5        8     2   3    5.28   498.0    4.9      45.513
2014    5        8     2   8    5.28   498.0    4.9      45.529
2014    5        8     2  14    5.28   498.0    4.9      45.544
2014    5        8     2  19    5.28   497.9    4.9      45.559
2014    5        8     2  24    5.28   497.9    4.9      45.574
2014    5        8     2  30    5.29   497.9    4.9      45.588
2014    5        8     2  35    5.29   497.9    4.9      45.602
2014    5        8     2  41    5.29   497.9    4.9      45.616
2014    5        8     2  46    5.29   497.9    4.9      45.630
2014    5        8     2  52    5.29   497.9    4.9      45.643
2014    5        8     2  57    5.29   497.9    4.9      45.656
2014    5        8     3   3    5.30   497.9    4.9      45.669
2014    5        8     3   8    5.30   497.9    4.9      45.682
2014    5        8     3  13    5.30   497.9    4.9      45.694
2014    5        8     3  19    5.30   497.9    4.9      45.707
2014    5        8     3  24    5.30   497.9    4.9      45.719
2014    5        8     3  30    5.30   497.9    4.9      45.731
2014    5        8     3  35    5.30   497.9    4.9      45.743
2014    5        8     3  41    5.31   497.9    4.9      45.755
2014    5        8     3  46    5.31   497.9    4.9      45.767
2014    5        8     3  52    5.31   497.9    4.9      45.779
2014    5        8     3  57    5.31   497.9    4.9      45.791
2014    5        8     4   3    5.31   497.9    4.9      45.803
2014    5        8     4   8    5.31   498.0    4.9      45.815
2014    5        8     4  13    5.31   498.0    4.9      45.827
2014    5        8     4  19    5.32   498.0    4.9      45.839
2014    5        8     4  24    5.32   498.0    5.0      45.851
2014    5        8     4  30    5.32   498.0    5.0      45.864
2014    5        8     4  35    5.32   498.0    5.0      45.877
2014    5        8     4  41    5.32   498.0    5.0      45.890
2014    5        8     4  46    5.32   498.0    5.0      45.903
2014    5        8     4  52    5.32   498.0    5.0      45.917
2014    5        8     4  57    5.33   498.0    5.0      45.931
2014    5        8     5   2    5.33   498.1    5.0      45.945
2014    5        8     5   8    5.33   498.1    5.0      45.959
2014    5        8     5  13    5.33   498.1    5.0      45.972
2014    5        8     5  19    5.33   498.1    5.0      45.986
2014    5        8     5  24    5.33   498.1    5.0      46.000
2014    5        8     5  30    5.33   498.1    5.0      46.014
2014    5        8     5  35    5.33   498.2    5.0      46.028
2014    5        8     5  41    5.34   498.2    5.0      46.042
2014    5        8     5  46    5.34   498.2    5.0      46.055
2014    5        8     5  51    5.34   498.2    5.0      46.068
2014    5        8     5  57    5.34   498.2    5.0      46.081
2014    5        8     6   2    5.34   498.3    5.0      46.093
2014    5        8     6   8    5.34   498.3    5.0      46.106
2014    5        8     6  13    5.34   498.3    5.0      46.118
2014    5        8     6  19    5.34   498.3    5.0      46.129
2014    5        8     6  24    5.34   498.3    5.0      46.141
2014    5        8     6  30    5.35   498.4    5.0      46.152
2014    5        8     6  35    5.35   498.4    5.0      46.163
2014    5        8     6  40    5.35   498.4    5.0      46.174
2014    5        8     6  46    5.35   498.4    5.0      46.185
2014    5        8     6  51    5.35   498.4    5.0      46.195
2014    5        8     6  57    5.35   498.5    5.0      46.205
2014    5        8     7   2    5.35   498.5    5.0      46.215
2014    5        8     7   8    5.35   498.5    5.0      46.225
2014    5        8     7  13    5.35   498.5    5.0      46.236
2014    5        8     7  19    5.35   498.6    5.0      46.245
2014    5        8     7  24    5.36   498.6    5.0      46.255
2014    5        8     7  30    5.36   498.6    5.0      46.265
2014    5        8     7  35    5.36   498.6    5.0      46.275
2014    5        8     7  40    5.36   498.6    5.0      46.284
2014    5        8     7  46    5.36   498.7    5.0      46.294
2014    5        8     7  51    5.36   498.7    5.0      46.304
2014    5        8     7  57    5.36   498.7    5.0      46.314
2014    5        8     8   2    5.36   498.7    5.0      46.324
2014    5        8     8   8    5.36   498.8    5.0      46.334
2014    5        8     8  13    5.36   498.8    5.0      46.344
2014    5        8     8  19    5.36   498.8    5.0      46.354
2014    5        8     8  24    5.36   498.8    5.0      46.364
2014    5        8     8  29    5.37   498.9    5.0      46.374
2014    5        8     8  35    5.37   498.9    5.0      46.384
2014    5        8     8  40    5.37   498.9    5.0      46.394
2014    5        8     8  46    5.37   498.9    5.0      46.404
2014    5        8     8  51    5.37   499.0    5.0      46.415
2014    5        8     8  57    5.37   499.0    5.0      46.425
2014    5        8     9   2    5.37   499.0    5.0      46.435
2014    5        8     9   8    5.37   499.0    5.0      46.445
2014    5        8     9  13    5.37   499.1    5.0      46.455
2014    5        8     9  18    5.37   499.1    5.0      46.466
2014    5        8     9  24    5.37   499.1    5.0      46.476
2014    5        8     9  29    5.37   499.1    5.0      46.486
2014    5        8     9  35    5.37   499.2    5.0      46.496
2014    5        8     9  40    5.37   499.2    5.0      46.507
2014    5        8     9  46    5.38   499.2    5.0      46.517
2014    5        8     9  51    5.38   499.2    5.0      46.527
2014    5        8     9  57    5.38   499.3    5.0      46.538
2014    5        8    10   2    5.38   499.3    5.0      46.549
2014    5        8    10   7    5.38   499.3    5.0      46.561
2014    5        8    10  13    5.38   499.4    5.0      46.573
2014    5        8    10  18    5.38   499.4    5.0      46.585
2014    5        8    10  24    5.38   499.4    5.0      46.597
2014    5        8    10  29    5.38   499.5    5.0      46.610
2014    5        8    10  35    5.38   499.5    5.0      46.622
2014    5        8    10  40    5.38   499.5    5.0      46.635
2014    5        8    10  46    5.38   499.6    5.0      46.647
2014    5        8    10  51    5.38   499.6    5.0      46.659
2014    5        8    10  56    5.38   499.6    5.0      46.672
2014    5        8    11   2    5.38   499.6    5.0      46.684
2014    5        8    11   7    5.39   499.7    5.0      46.696
2014    5        8    11  13    5.39   499.7    5.0      46.709
2014    5        8    11  18    5.39   499.7    5.0      46.721
2014    5        8    11  24    5.39   499.8    5.0      46.733
2014    5        8    11  29    5.39   499.8    5.0      46.746
2014    5        8    11  35    5.39   499.9    5.0      46.758
2014    5        8    11  40    5.39   499.9    5.0      46.771
2014    5        8    11  46    5.39   499.9    5.0      46.784
2014    5        8    11  51    5.39   500.0    5.0      46.797
2014    5        8    11  56    5.39   500.0    5.0      46.810
2014    5        8    12   2    5.39   500.0    5.0      46.824
2014    5        8    12   7    5.39   500.1    5.0      46.838
2014    5        8    12  13    5.39   500.1    5.0      46.852
2014    5        8    12  18    5.39   500.2    5.0      46.867
2014    5        8    12  24    5.39   500.2    5.0      46.881
2014    5        8    12  29    5.39   500.3    5.0      46.895
2014    5        8    12  35    5.39   500.3    5.0      46.909
2014    5        8    12  40    5.39   500.3    5.0      46.923
2014    5        8    12  45    5.39   500.4    5.0      46.937
2014    5        8    12  51    5.39   500.4    5.0      46.950
2014    5        8    12  56    5.39   500.5    5.0      46.963
2014    5        8    13   2    5.40   500.5    5.0      46.976
2014    5        8    13   7    5.40   500.6    5.0      46.988
2014    5        8    13  13    5.40   500.6    5.0      47.000
2014    5        8    13  18    5.40   500.6    5.0      47.011
2014    5        8    13  24    5.40   500.7    5.0      47.022
2014    5        8    13  29    5.40   500.7    5.0      47.032
2014    5        8    13  34    5.40   500.8    5.0      47.042
2014    5        8    13  40    5.40   500.8    5.0      47.051
2014    5        8    13  45    5.40   500.9    5.0      47.060
2014    5        8    13  51    5.40   500.9    5.0      47.069
2014    5        8    13  56    5.40   501.0    5.0      47.078
2014    5        8    14   2    5.40   501.0    5.0      47.086
2014    5        8    14   7    5.40   501.0    5.0      47.093
2014    5        8    14  13    5.40   501.1    5.0      47.100
2014    5        8    14  18    5.40   501.1    5.0      47.107
2014    5        8    14  23    5.40   501.2    5.0      47.114
2014    5        8    14  29    5.40   501.2    5.0      47.120
2014    5        8    14  34    5.40   501.3    5.0      47.127
2014    5        8    14  40    5.40   501.3    5.0      47.132
2014    5        8    14  45    5.40   501.3    5.0      47.138
2014    5        8    14  51    5.40   501.4    5.0      47.143
2014    5        8    14  56    5.40   501.4    5.0      47.149
2014    5        8    15   2    5.40   501.5    5.0      47.154
2014    5        8    15   7    5.40   501.5    5.0      47.159
2014    5        8    15  12    5.40   501.5    5.0      47.163
2014    5        8    15  18    5.40   501.6    5.0      47.168
2014    5        8    15  23    5.40   501.6    5.0      47.172
2014    5        8    15  29    5.40   501.7    5.0      47.177
2014    5        8    15  34    5.40   501.7    5.0      47.182
2014    5        8    15  40    5.40   501.8    5.0      47.186
2014    5        8    15  45    5.40   501.8    5.0      47.191
2014    5        8    15  51    5.40   501.8    5.0      47.195
2014    5        8    15  56    5.40   501.9    5.0      47.200
2014    5        8    16   2    5.40   501.9    5.0      47.204
2014    5        8    16   7    5.40   502.0    5.0      47.208
2014    5        8    16  12    5.40   502.0    5.0      47.212
2014    5        8    16  18    5.40   502.1    5.0      47.216
2014    5        8    16  23    5.40   502.1    5.0      47.219
2014    5        8    16  29    5.40   502.2    5.0      47.223
2014    5        8    16  34    5.40   502.2    5.0      47.226
2014    5        8    16  40    5.40   502.3    5.0      47.229
2014    5        8    16  45    5.40   502.3    5.0      47.232
2014    5        8    16  51    5.40   502.3    5.0      47.235
2014    5        8    16  56    5.40   502.4    5.0      47.238
2014    5        8    17   1    5.39   502.4    5.0      47.241
2014    5        8    17   7    5.39   502.5    5.0      47.243
2014    5        8    17  12    5.39   502.5    5.0      47.246
2014    5        8    17  18    5.39   502.6    5.0      47.249
2014    5        8    17  23    5.39   502.6    5.0      47.252
2014    5        8    17  29    5.39   502.7    5.0      47.256
2014    5        8    17  34    5.39   502.7    5.0      47.260
2014    5        8    17  40    5.39   502.8    5.0      47.264
2014    5        8    17  45    5.39   502.8    5.0      47.270
2014    5        8    17  50    5.39   502.9    5.0      47.275
2014    5        8    17  56    5.39   502.9    5.0      47.280
2014    5        8    18   1    5.39   503.0    5.0      47.286
2014    5        8    18   7    5.39   503.0    5.0      47.291
2014    5        8    18  12    5.39   503.1    5.0      47.296
2014    5        8    18  18    5.39   503.1    4.9      47.301
2014    5        8    18  23    5.39   503.2    4.9      47.306
2014    5        8    18  29    5.39   503.2    4.9      47.311
2014    5        8    18  34    5.39   503.3    4.9      47.316
2014    5        8    18  39    5.39   503.3    4.9      47.320
2014    5        8    18  45    5.39   503.4    4.9      47.325
2014    5        8    18  50    5.39   503.4    4.9      47.329
2014    5        8    18  56    5.39   503.5    4.9      47.333
2014    5        8    19   1    5.38   503.5    4.9      47.338
2014    5        8    19   7    5.38   503.6    4.9      47.342
2014    5        8    19  12    5.38   503.6    4.9      47.346
2014    5        8    19  18    5.38   503.7    4.9      47.350
2014    5        8    19  23    5.38   503.7    4.9      47.354
2014    5        8    19  28    5.38   503.8    4.9      47.358
2014    5        8    19  34    5.38   503.8    4.9      47.362
2014    5        8    19  39    5.38   503.9    4.9      47.366
2014    5        8    19  45    5.38   503.9    4.9      47.369
2014    5        8    19  50    5.38   504.0    4.9      47.373
2014    5        8    19  56    5.38   504.1    4.9      47.376
2014    5        8    20   1    5.38   504.1    4.9      47.379
2014    5        8    20   7    5.38   504.2    4.9      47.382
2014    5        8    20  12    5.37   504.2    4.9      47.385
2014    5        8    20  18    5.37   504.3    4.9      47.387
2014    5        8    20  23    5.37   504.3    4.9      47.390
2014    5        8    20  28    5.37   504.4    4.9      47.392
2014    5        8    20  34    5.37   504.4    4.9      47.393
2014    5        8    20  39    5.37   504.5    4.9      47.395
2014    5        8    20  45    5.37   504.5    4.9      47.397
2014    5        8    20  50    5.37   504.6    4.9      47.398
2014    5        8    20  56    5.37   504.6    4.9      47.398
2014    5        8    21   1    5.37   504.7    4.9      47.399
2014    5        8    21   7    5.36   504.7    4.9      47.399
2014    5        8    21  12    5.36   504.8    4.9      47.399
2014    5        8    21  17    5.36   504.8    4.9      47.398
2014    5        8    21  23    5.36   504.8    4.9      47.397
2014    5        8    21  28    5.36   504.9    4.9      47.395
2014    5        8    21  34    5.36   504.9    4.9      47.393
2014    5        8    21  39    5.36   505.0    4.9      47.391
2014    5        8    21  45    5.36   505.0    4.9      47.388
2014    5        8    21  50    5.35   505.1    4.9      47.385
2014    5        8    21  56    5.35   505.1    4.9      47.381
2014    5        8    22   1    5.35   505.2    4.9      47.378
2014    5        8    22   6    5.35   505.2    4.9      47.373
2014    5        8    22  12    5.35   505.2    4.9      47.369
2014    5        8    22  17    5.35   505.3    4.9      47.364
2014    5        8    22  23    5.35   505.3    4.9      47.359
2014    5        8    22  28    5.35   505.4    4.9      47.354
2014    5        8    22  34    5.34   505.4    4.9      47.348
2014    5        8    22  39    5.34   505.5    4.9      47.343
2014    5        8    22  45    5.34   505.5    4.9      47.336
2014    5        8    22  50    5.34   505.5    4.9      47.330
2014    5        8    22  55    5.34   505.6    4.9      47.324
2014    5        8    23   1    5.34   505.6    4.9      47.317
2014    5        8    23   6    5.34   505.7    4.9      47.309
2014    5        8    23  12    5.33   505.7    4.9      47.302
2014    5        8    23  17    5.33   505.7    4.9      47.295
2014    5        8    23  23    5.33   505.8    4.9      47.288
2014    5        8    23  28    5.33   505.8    4.9      47.280
2014    5        8    23  34    5.33   505.9    4.9      47.273
2014    5        8    23  39    5.33   505.9    4.8      47.265
2014    5        8    23  44    5.32   505.9    4.8      47.257
2014    5        8    23  50    5.32   506.0    4.8      47.249
2014    5        8    23  55    5.32   506.0    4.8      47.240
2014    5        9     0   1    5.32   506.1    4.8      47.231
2014    5        9     0   6    5.32   506.1    4.8      47.222
2014    5        9     0  12    5.32   506.2    4.8      47.212
2014    5        9     0  17    5.31   506.2    4.8      47.202
2014    5        9     0  23    5.31   506.2    4.8      47.191
2014    5        9     0  28    5.31   506.3    4.8      47.181
2014    5        9     0  34    5.31   506.3    4.8      47.169
2014    5        9     0  39    5.31   506.4    4.8      47.158
2014    5        9     0  44    5.30   506.4    4.8      47.146
2014    5        9     0  50    5.30   506.4    4.8      47.133
2014    5        9     0  55    5.30   506.5    4.8      47.121
2014    5        9     1   1    5.30   506.5    4.8      47.108
2014    5        9     1   6    5.30   506.5    4.8      47.095
2014    5        9     1  12    5.29   506.6    4.8      47.081
2014    5        9     1  17    5.29   506.6    4.8      47.068
2014    5        9     1  23    5.29   506.6    4.8      47.054
2014    5        9     1  28    5.29   506.7    4.8      47.039
2014    5        9     1  33    5.28   506.7    4.8      47.025
2014    5        9     1  39    5.28   506.7    4.8      47.010
2014    5        9     1  44    5.28   506.8    4.8      46.995
2014    5        9     1  50    5.28   506.8    4.8      46.979
2014    5        9     1  55    5.28   506.8    4.8      46.964
2014    5        9     2   1    5.27   506.8    4.8      46.948
2014    5        9     2   6    5.27   506.9    4.8      46.932
2014    5        9     2  12    5.27   506.9    4.8      46.916
2014    5        9     2  17    5.27   506.9    4.8      46.900
2014    5        9     2  22    5.26   506.9    4.8      46.884
2014    5        9     2  28    5.26   507.0    4.8      46.868
2014    5        9     2  33    5.26   507.0    4.8      46.852
2014    5        9     2  39    5.26   507.0    4.8      46.836
2014    5        9     2  44    5.25   507.0    4.8      46.820
2014    5        9     2  50    5.25   507.0    4.8      46.804
2014    5        9     2  55    5.25   507.0    4.8      46.788
2014    5        9     3   1    5.25   507.1    4.8      46.772
2014    5        9     3   6    5.24   507.1    4.7      46.756
2014    5        9     3  11    5.24   507.1    4.7      46.740
2014    5        9     3  17    5.24   507.1    4.7      46.725
2014    5        9     3  22    5.24   507.1    4.7      46.709
2014    5        9     3  28    5.23   507.1    4.7      46.694
2014    5        9     3  33    5.23   507.1    4.7      46.678
2014    5        9     3  39    5.23   507.1    4.7      46.663
2014    5        9     3  44    5.23   507.2    4.7      46.648
2014    5        9     3  50    5.23   507.2    4.7      46.632
2014    5        9     3  55    5.22   507.2    4.7      46.617
2014    5        9     4   0    5.22   507.2    4.7      46.601
2014    5        9     4   6    5.22   507.2    4.7      46.586
2014    5        9     4  11    5.22   507.2    4.7      46.570
2014    5        9     4  17    5.21   507.2    4.7      46.554
2014    5        9     4  22    5.21   507.2    4.7      46.537
2014    5        9     4  28    5.21   507.2    4.7      46.520
2014    5        9     4  33    5.20   507.2    4.7      46.502
2014    5        9     4  39    5.20   507.2    4.7      46.484
2014    5        9     4  44    5.20   507.2    4.7      46.466
2014    5        9     4  50    5.20   507.2    4.7      46.447
2014    5        9     4  55    5.19   507.2    4.7      46.428
2014    5        9     5   0    5.19   507.2    4.7      46.408
2014    5        9     5   6    5.19   507.2    4.7      46.388
2014    5        9     5  11    5.19   507.2    4.7      46.368
2014    5        9     5  17    5.18   507.2    4.7      46.347
2014    5        9     5  22    5.18   507.2    4.7      46.326
2014    5        9     5  28    5.18   507.2    4.7      46.305
2014    5        9     5  33    5.17   507.2    4.7      46.283
2014    5        9     5  39    5.17   507.2    4.7      46.261
2014    5        9     5  44    5.17   507.2    4.7      46.238
2014    5        9     5  49    5.17   507.2    4.7      46.217
2014    5        9     5  55    5.16   507.2    4.7      46.195
2014    5        9     6   0    5.16   507.1    4.7      46.172
2014    5        9     6   5    5.16   507.1    4.7      46.151
2014    5        9     6  10    5.15   507.1    4.7      46.129
2014    5        9     6  15    5.15   507.1    4.7      46.106
2014    5        9     6  20    5.15   507.1    4.7      46.085
2014    5        9     6  26    5.15   507.1    4.7      46.063
2014    5        9     6  31    5.14   507.1    4.7      46.041
2014    5        9     6  36    5.14   507.1    4.7      46.019
2014    5        9     6  41    5.14   507.1    4.7      45.997
2014    5        9     6  45    5.13   507.0    4.7      45.975
2014    5        9     6  50    5.13   507.0    4.7      45.952
2014    5        9     6  55    5.13   507.0    4.7      45.930
2014    5        9     7   0    5.12   507.0    4.6      45.907
2014    5        9     7   5    5.12   507.0    4.6      45.884
2014    5        9     7  10    5.12   507.0    4.6      45.861
2014    5        9     7  15    5.12   506.9    4.6      45.837
2014    5        9     7  20    5.11   506.9    4.6      45.814
2014    5        9     7  25    5.11   506.9    4.6      45.790
2014    5        9     7  30    5.11   506.9    4.6      45.766
2014    5        9     7  35    5.10   506.9    4.6      45.742
2014    5        9     7  40    5.10   506.8    4.6      45.718
2014    5        9     7  45    5.10   506.8    4.6      45.693
2014    5        9     7  50    5.10   506.8    4.6      45.669
2014    5        9     7  55    5.09   506.8    4.6      45.644
2014    5        9     8   0    5.09   506.7    4.6      45.620
2014    5        9     8   5    5.09   506.7    4.6      45.595
2014    5        9     8  10    5.08   506.7    4.6      45.570
2014    5        9     8  15    5.08   506.6    4.6      45.545
2014    5        9     8  20    5.08   506.6    4.6      45.520
2014    5        9     8  24    5.07   506.6    4.6      45.495
2014    5        9     8  29    5.07   506.5    4.6      45.469
2014    5        9     8  34    5.07   506.5    4.6      45.444
2014    5        9     8  39    5.07   506.5    4.6      45.418
2014    5        9     8  44    5.06   506.4    4.6      45.393
2014    5        9     8  49    5.06   506.4    4.6      45.367
2014    5        9     8  54    5.06   506.4    4.6      45.341
2014    5        9     8  59    5.05   506.3    4.6      45.316
2014    5        9     9   4    5.05   506.3    4.6      45.291
2014    5        9     9   9    5.05   506.2    4.6      45.265
2014    5        9     9  14    5.04   506.2    4.6      45.240
2014    5        9     9  19    5.04   506.1    4.6      45.214
2014    5        9     9  24    5.04   506.1    4.6      45.189
2014    5        9     9  29    5.04   506.0    4.6      45.163
2014    5        9     9  34    5.03   506.0    4.6      45.138
2014    5        9     9  38    5.03   506.0    4.6      45.112
2014    5        9     9  43    5.03   505.9    4.6      45.087
2014    5        9     9  48    5.02   505.9    4.6      45.061
2014    5        9     9  53    5.02   505.8    4.6      45.035
2014    5        9     9  58    5.02   505.8    4.6      45.008
2014    5        9    10   3    5.02   505.7    4.6      44.982
2014    5        9    10   8    5.01   505.7    4.6      44.955
2014    5        9    10  13    5.01   505.6    4.6      44.928
2014    5        9    10  18    5.01   505.6    4.6      44.901
2014    5        9    10  23    5.00   505.5    4.6      44.873
2014    5        9    10  28    5.00   505.5    4.6      44.846
2014    5        9    10  33    5.00   505.4    4.6      44.818
2014    5        9    10  38    5.00   505.4    4.6      44.790
2014    5        9    10  43    4.99   505.3    4.6      44.762
2014    5        9    10  48    4.99   505.3    4.6      44.733
2014    5        9    10  53    4.99   505.2    4.6      44.705
2014    5        9    10  58    4.98   505.1    4.6      44.675
2014    5        9    11   2    4.98   505.1    4.6      44.646
2014    5        9    11   7    4.98   505.0    4.6      44.616
2014    5        9    11  12    4.98   505.0    4.6      44.587
2014    5        9    11  17    4.97   504.9    4.6      44.556
2014    5        9    11  22    4.97   504.9    4.6      44.526
2014    5        9    11  27    4.97   504.8    4.6      44.495
2014    5        9    11  32    4.96   504.7    4.5      44.463
2014    5        9    11  37    4.96   504.7    4.5      44.431
2014    5        9    11  42    4.96   504.6    4.5      44.399
2014    5        9    11  47    4.95   504.6    4.5      44.367
2014    5        9    11  52    4.95   504.5    4.5      44.334
2014    5        9    11  57    4.95   504.4    4.5      44.301
2014    5        9    12   2    4.95   504.4    4.5      44.268
2014    5        9    12   7    4.94   504.3    4.5      44.234
2014    5        9    12  12    4.94   504.3    4.5      44.200
2014    5        9    12  17    4.94   504.2    4.5      44.166
2014    5        9    12  22    4.93   504.1    4.5      44.132
2014    5        9    12  27    4.93   504.1    4.5      44.097
2014    5        9    12  32    4.93   504.0    4.5      44.062
2014    5        9    12  37    4.92   503.9    4.5      44.027
2014    5        9    12  42    4.92   503.9    4.5      43.991
2014    5        9    12  47    4.92   503.8    4.5      43.955
2014    5        9    12  52    4.91   503.7    4.5      43.919
2014    5        9    12  57    4.91   503.6    4.5      43.882
2014    5        9    13   2    4.91   503.6    4.5      43.846
2014    5        9    13   8    4.90   503.5    4.5      43.808
2014    5        9    13  13    4.90   503.4    4.5      43.771
2014    5        9    13  18    4.90   503.4    4.5      43.733
2014    5        9    13  23    4.89   503.3    4.5      43.695
2014    5        9    13  28    4.89   503.2    4.5      43.656
2014    5        9    13  33    4.89   503.1    4.5      43.617
2014    5        9    13  38    4.88   503.1    4.5      43.578
2014    5        9    13  44    4.88   503.0    4.5      43.538
2014    5        9    13  49    4.88   502.9    4.5      43.498
2014    5        9    13  54    4.87   502.8    4.5      43.458
2014    5        9    13  59    4.87   502.7    4.5      43.417
2014    5        9    14   5    4.87   502.6    4.5      43.377
2014    5        9    14  10    4.86   502.6    4.5      43.336
2014    5        9    14  15    4.86   502.5    4.5      43.294
2014    5        9    14  21    4.86   502.4    4.5      43.252
2014    5        9    14  26    4.85   502.3    4.5      43.210
2014    5        9    14  31    4.85   502.2    4.5      43.168
2014    5        9    14  37    4.85   502.1    4.5      43.126
2014    5        9    14  42    4.84   502.0    4.5      43.084
2014    5        9    14  48    4.84   501.9    4.5      43.042
2014    5        9    14  53    4.84   501.8    4.5      43.000
2014    5        9    14  58    4.83   501.7    4.5      42.957
2014    5        9    15   4    4.83   501.6    4.5      42.915
2014    5        9    15   9    4.83   501.5    4.5      42.872
2014    5        9    15  15    4.82   501.4    4.5      42.829
2014    5        9    15  20    4.82   501.3    4.5      42.786
2014    5        9    15  25    4.82   501.2    4.5      42.743
2014    5        9    15  31    4.81   501.1    4.5      42.700
2014    5        9    15  36    4.81   501.0    4.5      42.657
2014    5        9    15  42    4.81   500.9    4.5      42.614
2014    5        9    15  47    4.80   500.8    4.5      42.571
2014    5        9    15  53    4.80   500.7    4.5      42.528
2014    5        9    15  58    4.80   500.6    4.5      42.485
2014    5        9    16   4    4.79   500.5    4.5      42.442
2014    5        9    16   9    4.79   500.3    4.5      42.400
2014    5        9    16  14    4.79   500.2    4.5      42.358
2014    5        9    16  20    4.78   500.1    4.5      42.316
2014    5        9    16  25    4.78   500.0    4.5      42.274
2014    5        9    16  31    4.78   499.9    4.5      42.232
2014    5        9    16  36    4.77   499.8    4.5      42.190
2014    5        9    16  42    4.77   499.7    4.5      42.148
2014    5        9    16  47    4.77   499.5    4.5      42.106
2014    5        9    16  53    4.76   499.4    4.4      42.063
2014    5        9    16  58    4.76   499.3    4.4      42.020
2014    5        9    17   3    4.76   499.2    4.4      41.976
2014    5        9    17   9    4.76   499.1    4.4      41.932
2014    5        9    17  14    4.75   499.0    4.4      41.887
2014    5        9    17  20    4.75   498.8    4.4      41.841
2014    5        9    17  25    4.75   498.7    4.4      41.796
2014    5        9    17  31    4.74   498.6    4.4      41.749
2014    5        9    17  36    4.74   498.5    4.4      41.703
2014    5        9    17  42    4.74   498.3    4.4      41.656
2014    5        9    17  47    4.73   498.2    4.4      41.608
2014    5        9    17  52    4.73   498.1    4.4      41.560
2014    5        9    17  58    4.73   498.0    4.4      41.512
2014    5        9    18   3    4.72   497.8    4.4      41.464
2014    5        9    18   9    4.72   497.7    4.4      41.415
2014    5        9    18  14    4.72   497.6    4.4      41.366
2014    5        9    18  20    4.72   497.5    4.4      41.316
2014    5        9    18  25    4.71   497.3    4.4      41.266
2014    5        9    18  31    4.71   497.2    4.4      41.216
2014    5        9    18  36    4.71   497.1    4.4      41.166
2014    5        9    18  41    4.70   496.9    4.4      41.115
2014    5        9    18  47    4.70   496.8    4.4      41.064
2014    5        9    18  52    4.70   496.7    4.4      41.013
2014    5        9    18  58    4.69   496.6    4.4      40.961
2014    5        9    19   3    4.69   496.4    4.4      40.909
2014    5        9    19   9    4.69   496.3    4.4      40.857
2014    5        9    19  14    4.68   496.2    4.4      40.804
2014    5        9    19  20    4.68   496.0    4.4      40.752
2014    5        9    19  25    4.68   495.9    4.4      40.699
2014    5        9    19  30    4.68   495.7    4.4      40.645
2014    5        9    19  36    4.67   495.6    4.4      40.592
2014    5        9    19  41    4.67   495.5    4.4      40.539
2014    5        9    19  47    4.67   495.3    4.4      40.485
2014    5        9    19  52    4.66   495.2    4.4      40.431
2014    5        9    19  58    4.66   495.1    4.4      40.377
2014    5        9    20   3    4.66   494.9    4.4      40.322
2014    5        9    20   9    4.65   494.8    4.4      40.268
2014    5        9    20  14    4.65   494.6    4.4      40.213
2014    5        9    20  19    4.65   494.5    4.4      40.159
2014    5        9    20  25    4.64   494.4    4.4      40.104
2014    5        9    20  30    4.64   494.2    4.4      40.049
2014    5        9    20  36    4.64   494.1    4.4      39.994
2014    5        9    20  41    4.64   493.9    4.4      39.939
2014    5        9    20  47    4.63   493.8    4.4      39.883
2014    5        9    20  52    4.63   493.6    4.4      39.828
2014    5        9    20  58    4.63   493.5    4.4      39.773
2014    5        9    21   3    4.62   493.3    4.4      39.717
2014    5        9    21   9    4.62   493.2    4.4      39.662
2014    5        9    21  14    4.62   493.0    4.4      39.607
2014    5        9    21  19    4.61   492.9    4.4      39.551
2014    5        9    21  25    4.61   492.7    4.4      39.496
2014    5        9    21  30    4.61   492.6    4.4      39.440
2014    5        9    21  36    4.60   492.4    4.4      39.385
2014    5        9    21  41    4.60   492.3    4.4      39.329
2014    5        9    21  47    4.60   492.1    4.4      39.274
2014    5        9    21  52    4.60   492.0    4.4      39.218
2014    5        9    21  58    4.59   491.8    4.4      39.163
2014    5        9    22   3    4.59   491.7    4.4      39.108
2014    5        9    22   8    4.59   491.5    4.4      39.053
2014    5        9    22  14    4.58   491.3    4.4      38.997
2014    5        9    22  19    4.58   491.2    4.4      38.942
2014    5        9    22  25    4.58   491.0    4.4      38.886
2014    5        9    22  30    4.58   490.9    4.4      38.831
2014    5        9    22  36    4.57   490.7    4.4      38.775
2014    5        9    22  41    4.57   490.5    4.4      38.720
2014    5        9    22  47    4.57   490.4    4.4      38.664
2014    5        9    22  52    4.56   490.2    4.4      38.608
2014    5        9    22  58    4.56   490.0    4.4      38.553
2014    5        9    23   3    4.56   489.9    4.4      38.497
2014    5        9    23   8    4.56   489.7    4.4      38.442
2014    5        9    23  14    4.55   489.5    4.4      38.386
2014    5        9    23  19    4.55   489.3    4.4      38.331
2014    5        9    23  25    4.55   489.2    4.4      38.276
2014    5        9    23  30    4.54   489.0    4.3      38.221
2014    5        9    23  36    4.54   488.8    4.3      38.166
2014    5        9    23  41    4.54   488.7    4.3      38.111
2014    5        9    23  47    4.54   488.5    4.3      38.056
2014    5        9    23  52    4.53   488.3    4.3      38.001
2014    5        9    23  57    4.53   488.1    4.3      37.946
2014    5       10     0   3    4.53   488.0    4.3      37.891
2014    5       10     0   8    4.53   487.8    4.3      37.836
2014    5       10     0  14    4.52   487.6    4.3      37.780
2014    5       10     0  19    4.52   487.4    4.3      37.725
2014    5       10     0  25    4.52   487.3    4.3      37.669
2014    5       10     0  30    4.52   487.1    4.3      37.613
2014    5       10     0  36    4.51   486.9    4.3      37.557
2014    5       10     0  41    4.51   486.7    4.3      37.501
2014    5       10     0  46    4.51   486.5    4.3      37.445
2014    5       10     0  52    4.51   486.3    4.3      37.389
2014    5       10     0  57    4.50   486.1    4.3      37.333
2014    5       10     1   3    4.50   486.0    4.3      37.276
2014    5       10     1   8    4.50   485.8    4.3      37.220
2014    5       10     1  14    4.50   485.6    4.3      37.164
2014    5       10     1  19    4.49   485.4    4.3      37.108
2014    5       10     1  25    4.49   485.2    4.3      37.051
2014    5       10     1  30    4.49   485.0    4.3      36.995
2014    5       10     1  36    4.49   484.8    4.3      36.939
2014    5       10     1  41    4.48   484.6    4.3      36.883
2014    5       10     1  46    4.48   484.5    4.3      36.827
2014    5       10     1  52    4.48   484.3    4.3      36.771
2014    5       10     1  57    4.48   484.1    4.3      36.715
2014    5       10     2   3    4.47   483.9    4.3      36.659
2014    5       10     2   8    4.47   483.7    4.3      36.603
2014    5       10     2  14    4.47   483.5    4.3      36.547
2014    5       10     2  19    4.47   483.3    4.3      36.491
2014    5       10     2  25    4.46   483.1    4.3      36.435
2014    5       10     2  30    4.46   482.9    4.3      36.380
2014    5       10     2  35    4.46   482.7    4.3      36.324
2014    5       10     2  41    4.46   482.5    4.3      36.269
2014    5       10     2  46    4.45   482.3    4.3      36.214
2014    5       10     2  52    4.45   482.1    4.3      36.159
2014    5       10     2  57    4.45   481.9    4.3      36.104
2014    5       10     3   3    4.45   481.7    4.3      36.049
2014    5       10     3   8    4.44   481.5    4.3      35.994
2014    5       10     3  14    4.44   481.4    4.3      35.939
2014    5       10     3  19    4.44   481.2    4.3      35.884
2014    5       10     3  24    4.44   481.0    4.3      35.830
2014    5       10     3  30    4.44   480.8    4.3      35.775
2014    5       10     3  35    4.43   480.6    4.3      35.721
2014    5       10     3  41    4.43   480.4    4.3      35.666
2014    5       10     3  46    4.43   480.2    4.3      35.612
2014    5       10     3  52    4.43   480.0    4.3      35.557
2014    5       10     3  57    4.42   479.8    4.3      35.503
2014    5       10     4   3    4.42   479.6    4.3      35.449
2014    5       10     4   8    4.42   479.4    4.3      35.394
2014    5       10     4  14    4.42   479.1    4.3      35.340
2014    5       10     4  19    4.41   478.9    4.3      35.286
2014    5       10     4  24    4.41   478.7    4.3      35.232
2014    5       10     4  30    4.41   478.5    4.3      35.178
2014    5       10     4  35    4.41   478.3    4.3      35.123
2014    5       10     4  41    4.40   478.1    4.3      35.069
2014    5       10     4  46    4.40   477.9    4.3      35.016
2014    5       10     4  52    4.40   477.7    4.3      34.962
2014    5       10     4  57    4.40   477.5    4.3      34.908
2014    5       10     5   3    4.40   477.3    4.3      34.854
2014    5       10     5   8    4.39   477.1    4.3      34.800
2014    5       10     5  13    4.39   476.9    4.3      34.746
2014    5       10     5  19    4.39   476.6    4.3      34.693
2014    5       10     5  24    4.39   476.4    4.3      34.639
2014    5       10     5  30    4.38   476.2    4.3      34.585
2014    5       10     5  35    4.38   476.0    4.3      34.531
2014    5       10     5  41    4.38   475.8    4.3      34.477
2014    5       10     5  46    4.38   475.6    4.3      34.423
2014    5       10     5  52    4.38   475.4    4.3      34.369
2014    5       10     5  57    4.37   475.1    4.3      34.316
2014    5       10     6   3    4.37   474.9    4.3      34.262
2014    5       10     6   8    4.37   474.7    4.3      34.208
2014    5       10     6  13    4.37   474.5    4.3      34.154
2014    5       10     6  19    4.37   474.3    4.3      34.100
2014    5       10     6  24    4.36   474.0    4.3      34.046
2014    5       10     6  30    4.36   473.8    4.3      33.992
2014    5       10     6  35    4.36   473.6    4.3      33.938
2014    5       10     6  41    4.36   473.4    4.3      33.885
2014    5       10     6  46    4.36   473.2    4.3      33.831
2014    5       10     6  52    4.35   472.9    4.3      33.777
2014    5       10     6  57    4.35   472.7    4.3      33.723
2014    5       10     7   2    4.35   472.5    4.3      33.670
2014    5       10     7   8    4.35   472.3    4.3      33.616
2014    5       10     7  13    4.35   472.1    4.3      33.563
2014    5       10     7  19    4.34   471.8    4.3      33.509
2014    5       10     7  24    4.34   471.6    4.3      33.456
2014    5       10     7  30    4.34   471.4    4.3      33.402
2014    5       10     7  35    4.34   471.1    4.3      33.349
2014    5       10     7  41    4.34   470.9    4.3      33.296
2014    5       10     7  46    4.33   470.7    4.3      33.243
2014    5       10     7  52    4.33   470.5    4.3      33.190
2014    5       10     7  57    4.33   470.2    4.3      33.137
2014    5       10     8   2    4.33   470.0    4.3      33.084
2014    5       10     8   8    4.33   469.8    4.3      33.031
2014    5       10     8  13    4.32   469.5    4.3      32.979
2014    5       10     8  19    4.32   469.3    4.3      32.926
2014    5       10     8  24    4.32   469.1    4.3      32.874
2014    5       10     8  30    4.32   468.8    4.3      32.822
2014    5       10     8  35    4.32   468.6    4.3      32.770
2014    5       10     8  41    4.32   468.4    4.3      32.718
2014    5       10     8  46    4.31   468.1    4.3      32.667
2014    5       10     8  51    4.31   467.9    4.3      32.616
2014    5       10     8  57    4.31   467.7    4.3      32.565
2014    5       10     9   2    4.31   467.4    4.3      32.514
2014    5       10     9   8    4.31   467.2    4.3      32.464
2014    5       10     9  13    4.31   467.0    4.3      32.413
2014    5       10     9  19    4.30   466.7    4.3      32.364
2014    5       10     9  24    4.30   466.5    4.3      32.314
2014    5       10     9  30    4.30   466.2    4.3      32.264
2014    5       10     9  35    4.30   466.0    4.3      32.215
2014    5       10     9  41    4.30   465.8    4.3      32.167
2014    5       10     9  46    4.29   465.5    4.3      32.118
2014    5       10     9  51    4.29   465.3    4.3      32.071
2014    5       10     9  57    4.29   465.0    4.3      32.023
2014    5       10    10   2    4.29   464.8    4.3      31.976
2014    5       10    10   8    4.29   464.5    4.3      31.929
2014    5       10    10  13    4.29   464.3    4.3      31.882
2014    5       10    10  19    4.28   464.1    4.3      31.836
2014    5       10    10  24    4.28   463.8    4.3      31.791
2014    5       10    10  30    4.28   463.6    4.3      31.745
2014    5       10    10  35    4.28   463.3    4.3      31.700
2014    5       10    10  40    4.28   463.1    4.3      31.655
2014    5       10    10  46    4.28   462.8    4.3      31.611
2014    5       10    10  51    4.27   462.6    4.3      31.567
2014    5       10    10  57    4.27   462.3    4.4      31.524
2014    5       10    11   2    4.27   462.1    4.4      31.480
2014    5       10    11   8    4.27   461.8    4.4      31.438
2014    5       10    11  13    4.27   461.6    4.4      31.395
2014    5       10    11  19    4.27   461.3    4.4      31.353
2014    5       10    11  24    4.27   461.0    4.4      31.311
2014    5       10    11  30    4.26   460.8    4.4      31.269
2014    5       10    11  35    4.26   460.5    4.4      31.228
2014    5       10    11  40    4.26   460.3    4.4      31.188
2014    5       10    11  46    4.26   460.0    4.4      31.147
2014    5       10    11  51    4.26   459.8    4.4      31.107
2014    5       10    11  57    4.26   459.5    4.4      31.067
2014    5       10    12   2    4.26   459.2    4.4      31.027
2014    5       10    12   8    4.25   459.0    4.4      30.988
2014    5       10    12  13    4.25   458.7    4.4      30.949
2014    5       10    12  19    4.25   458.5    4.4      30.910
2014    5       10    12  24    4.25   458.2    4.4      30.871
2014    5       10    12  29    4.25   457.9    4.4      30.832
2014    5       10    12  35    4.25   457.7    4.4      30.793
2014    5       10    12  40    4.25   457.4    4.4      30.754
2014    5       10    12  46    4.25   457.2    4.4      30.715
2014    5       10    12  51    4.24   456.9    4.4      30.677
2014    5       10    12  57    4.24   456.6    4.4      30.638
2014    5       10    13   2    4.24   456.4    4.4      30.600
2014    5       10    13   8    4.24   456.1    4.4      30.561
2014    5       10    13  13    4.24   455.9    4.4      30.523
2014    5       10    13  19    4.24   455.6    4.4      30.484
2014    5       10    13  24    4.24   455.3    4.4      30.445
2014    5       10    13  29    4.24   455.1    4.4      30.406
2014    5       10    13  35    4.24   454.8    4.4      30.368
2014    5       10    13  40    4.23   454.5    4.4      30.329
2014    5       10    13  46    4.23   454.3    4.4      30.290
2014    5       10    13  51    4.23   454.0    4.4      30.251
2014    5       10    13  57    4.23   453.7    4.4      30.212
2014    5       10    14   2    4.23   453.5    4.4      30.173
2014    5       10    14   8    4.23   453.2    4.4      30.134
2014    5       10    14  13    4.23   452.9    4.4      30.095
2014    5       10    14  18    4.23   452.7    4.4      30.055
2014    5       10    14  24    4.23   452.4    4.4      30.016
2014    5       10    14  29    4.23   452.1    4.4      29.977
2014    5       10    14  35    4.22   451.9    4.4      29.938
2014    5       10    14  40    4.22   451.6    4.4      29.898
2014    5       10    14  46    4.22   451.3    4.4      29.859
2014    5       10    14  51    4.22   451.1    4.4      29.820
2014    5       10    14  57    4.22   450.8    4.4      29.781
2014    5       10    15   2    4.22   450.5    4.4      29.741
2014    5       10    15   8    4.22   450.3    4.4      29.702
2014    5       10    15  13    4.22   450.0    4.5      29.663
2014    5       10    15  18    4.22   449.7    4.5      29.623
2014    5       10    15  24    4.22   449.4    4.5      29.584
2014    5       10    15  29    4.22   449.2    4.5      29.545
2014    5       10    15  35    4.21   448.9    4.5      29.506
2014    5       10    15  40    4.21   448.6    4.5      29.467
2014    5       10    15  46    4.21   448.3    4.5      29.428
2014    5       10    15  51    4.21   448.1    4.5      29.389
2014    5       10    15  57    4.21   447.8    4.5      29.349
2014    5       10    16   2    4.21   447.5    4.5      29.311
2014    5       10    16   7    4.21   447.2    4.5      29.272
2014    5       10    16  13    4.21   447.0    4.5      29.233
2014    5       10    16  18    4.21   446.7    4.5      29.194
2014    5       10    16  24    4.21   446.4    4.5      29.155
2014    5       10    16  29    4.21   446.1    4.5      29.117
2014    5       10    16  35    4.21   445.9    4.5      29.079
2014    5       10    16  40    4.21   445.6    4.5      29.040
2014    5       10    16  46    4.21   445.3    4.5      29.002
2014    5       10    16  51    4.20   445.0    4.5      28.964
2014    5       10    16  57    4.20   444.7    4.5      28.927
2014    5       10    17   2    4.20   444.4    4.5      28.889
2014    5       10    17   7    4.20   444.2    4.5      28.852
2014    5       10    17  13    4.20   443.9    4.5      28.814
2014    5       10    17  18    4.20   443.6    4.5      28.777
2014    5       10    17  24    4.20   443.3    4.5      28.741
2014    5       10    17  29    4.20   443.0    4.5      28.704
2014    5       10    17  35    4.20   442.7    4.5      28.668
2014    5       10    17  40    4.20   442.4    4.5      28.633
2014    5       10    17  46    4.20   442.2    4.5      28.597
2014    5       10    17  51    4.20   441.9    4.5      28.562
2014    5       10    17  56    4.20   441.6    4.5      28.527
2014    5       10    18   2    4.20   441.3    4.5      28.493
2014    5       10    18   7    4.20   441.0    4.5      28.459
2014    5       10    18  13    4.20   440.7    4.5      28.425
2014    5       10    18  18    4.20   440.4    4.5      28.392
2014    5       10    18  24    4.20   440.1    4.5      28.359
2014    5       10    18  29    4.20   439.8    4.5      28.326
2014    5       10    18  35    4.20   439.6    4.5      28.294
2014    5       10    18  40    4.20   439.3    4.5      28.263
2014    5       10    18  46    4.20   439.0    4.5      28.231
2014    5       10    18  51    4.20   438.7    4.5      28.200
2014    5       10    18  56    4.20   438.4    4.6      28.169
2014    5       10    19   2    4.20   438.1    4.6      28.139
2014    5       10    19   7    4.20   437.8    4.6      28.109
2014    5       10    19  13    4.20   437.5    4.6      28.080
2014    5       10    19  18    4.20   437.2    4.6      28.050
2014    5       10    19  24    4.20   436.9    4.6      28.021
2014    5       10    19  29    4.20   436.7    4.6      27.993
2014    5       10    19  35    4.20   436.4    4.6      27.964
2014    5       10    19  40    4.20   436.1    4.6      27.936
2014    5       10    19  45    4.20   435.8    4.6      27.908
2014    5       10    19  51    4.20   435.5    4.6      27.880
2014    5       10    19  56    4.20   435.2    4.6      27.853
2014    5       10    20   2    4.20   434.9    4.6      27.825
2014    5       10    20   7    4.20   434.6    4.6      27.798
2014    5       10    20  13    4.20   434.3    4.6      27.771
2014    5       10    20  18    4.20   434.1    4.6      27.744
2014    5       10    20  24    4.20   433.8    4.6      27.717
2014    5       10    20  29    4.20   433.5    4.6      27.691
2014    5       10    20  35    4.20   433.2    4.6      27.664
2014    5       10    20  40    4.21   432.9    4.6      27.638
2014    5       10    20  45    4.21   432.6    4.7      27.611
2014    5       10    20  51    4.21   432.3    4.7      27.585
2014    5       10    20  56    4.21   432.0    4.7      27.559
2014    5       10    21   2    4.21   431.7    4.7      27.533
2014    5       10    21   7    4.21   431.4    4.7      27.507
2014    5       10    21  13    4.21   431.1    4.7      27.481
2014    5       10    21  18    4.21   430.9    4.7      27.456
2014    5       10    21  24    4.21   430.6    4.7      27.430
2014    5       10    21  29    4.21   430.3    4.7      27.404
2014    5       10    21  34    4.21   430.0    4.7      27.379
2014    5       10    21  40    4.21   429.7    4.7      27.354
2014    5       10    21  45    4.22   429.4    4.7      27.329
2014    5       10    21  51    4.22   429.1    4.7      27.304
2014    5       10    21  56    4.22   428.8    4.7      27.279
2014    5       10    22   2    4.22   428.6    4.7      27.254
2014    5       10    22   7    4.22   428.3    4.7      27.230
2014    5       10    22  13    4.22   428.0    4.7      27.205
2014    5       10    22  18    4.22   427.7    4.8      27.181
2014    5       10    22  24    4.22   427.4    4.8      27.157
2014    5       10    22  29    4.22   427.1    4.8      27.133
2014    5       10    22  34    4.23   426.9    4.8      27.110
2014    5       10    22  40    4.23   426.6    4.8      27.086
2014    5       10    22  45    4.23   426.3    4.8      27.063
2014    5       10    22  51    4.23   426.0    4.8      27.040
2014    5       10    22  56    4.23   425.7    4.8      27.017
2014    5       10    23   2    4.23   425.5    4.8      26.994
2014    5       10    23   7    4.24   425.2    4.8      26.971
2014    5       10    23  13    4.24   424.9    4.8      26.948
2014    5       10    23  18    4.24   424.6    4.8      26.926
2014    5       10    23  23    4.24   424.3    4.8      26.904
2014    5       10    23  29    4.24   424.1    4.8      26.882
2014    5       10    23  34    4.24   423.8    4.8      26.860
2014    5       10    23  40    4.25   423.5    4.9      26.838
2014    5       10    23  45    4.25   423.2    4.9      26.817
2014    5       10    23  51    4.25   423.0    4.9      26.795
2014    5       10    23  56    4.25   422.7    4.9      26.774
2014    5       11     0   2    4.25   422.4    4.9      26.753
2014    5       11     0   7    4.25   422.1    4.9      26.732
2014    5       11     0  13    4.26   421.9    4.9      26.711
2014    5       11     0  18    4.26   421.6    4.9      26.690
2014    5       11     0  23    4.26   421.3    4.9      26.670
2014    5       11     0  29    4.26   421.1    4.9      26.649
2014    5       11     0  34    4.27   420.8    4.9      26.629
2014    5       11     0  40    4.27   420.5    4.9      26.609
2014    5       11     0  45    4.27   420.2    4.9      26.589
2014    5       11     0  51    4.27   420.0    4.9      26.570
2014    5       11     0  56    4.27   419.7    4.9      26.550
2014    5       11     1   2    4.28   419.4    5.0      26.530
2014    5       11     1   7    4.28   419.2    5.0      26.511
2014    5       11     1  12    4.28   418.9    5.0      26.492
2014    5       11     1  18    4.28   418.6    5.0      26.473
2014    5       11     1  23    4.28   418.4    5.0      26.454
2014    5       11     1  29    4.29   418.1    5.0      26.435
2014    5       11     1  34    4.29   417.8    5.0      26.417
2014    5       11     1  40    4.29   417.6    5.0      26.398
2014    5       11     1  45    4.29   417.3    5.0      26.380
2014    5       11     1  51    4.30   417.0    5.0      26.362
2014    5       11     1  56    4.30   416.8    5.0      26.344
2014    5       11     2   2    4.30   416.5    5.0      26.326
2014    5       11     2   7    4.30   416.2    5.0      26.308
2014    5       11     2  12    4.31   416.0    5.1      26.291
2014    5       11     2  18    4.31   415.7    5.1      26.274
2014    5       11     2  23    4.31   415.5    5.1      26.257
2014    5       11     2  29    4.31   415.2    5.1      26.240
2014    5       11     2  34    4.32   414.9    5.1      26.223
2014    5       11     2  40    4.32   414.7    5.1      26.207
2014    5       11     2  45    4.32   414.4    5.1      26.191
2014    5       11     2  51    4.33   414.2    5.1      26.174
2014    5       11     2  56    4.33   413.9    5.1      26.159
2014    5       11     3   1    4.33   413.6    5.1      26.143
2014    5       11     3   7    4.33   413.4    5.1      26.128
2014    5       11     3  12    4.34   413.1    5.1      26.113
2014    5       11     3  18    4.34   412.9    5.2      26.098
2014    5       11     3  23    4.34   412.6    5.2      26.084
2014    5       11     3  29    4.35   412.4    5.2      26.070
2014    5       11     3  34    4.35   412.1    5.2      26.056
2014    5       11     3  40    4.35   411.8    5.2      26.042
2014    5       11     3  45    4.36   411.6    5.2      26.029
2014    5       11     3  51    4.36   411.3    5.2      26.016
2014    5       11     3  56    4.36   411.1    5.2      26.003
2014    5       11     4   1    4.37   410.8    5.2      25.991
2014    5       11     4   7    4.37   410.6    5.2      25.979
2014    5       11     4  12    4.37   410.3    5.3      25.967
2014    5       11     4  18    4.38   410.1    5.3      25.956
2014    5       11     4  23    4.38   409.9    5.3      25.945
2014    5       11     4  29    4.38   409.6    5.3      25.934
2014    5       11     4  34    4.39   409.4    5.3      25.923
2014    5       11     4  40    4.39   409.1    5.3      25.913
2014    5       11     4  45    4.39   408.9    5.3      25.903
2014    5       11     4  50    4.40   408.7    5.3      25.893
2014    5       11     4  56    4.40   408.4    5.3      25.884
2014    5       11     5   1    4.41   408.2    5.3      25.875
2014    5       11     5   7    4.41   408.0    5.4      25.866
2014    5       11     5  12    4.41   407.7    5.4      25.858
2014    5       11     5  18    4.42   407.5    5.4      25.849
2014    5       11     5  23    4.42   407.3    5.4      25.841
2014    5       11     5  29    4.43   407.0    5.4      25.833
2014    5       11     5  34    4.43   406.8    5.4      25.826
2014    5       11     5  40    4.43   406.6    5.4      25.819
2014    5       11     5  45    4.44   406.4    5.4      25.811
2014    5       11     5  50    4.44   406.2    5.4      25.804
2014    5       11     5  56    4.45   405.9    5.5      25.798
2014    5       11     6   1    4.45   405.7    5.5      25.791
2014    5       11     6   7    4.46   405.5    5.5      25.785
2014    5       11     6  12    4.46   405.3    5.5      25.779
2014    5       11     6  18    4.46   405.1    5.5      25.773
2014    5       11     6  23    4.47   404.9    5.5      25.767
2014    5       11     6  29    4.47   404.7    5.5      25.762
2014    5       11     6  34    4.48   404.4    5.5      25.757
2014    5       11     6  39    4.48   404.2    5.5      25.752
2014    5       11     6  45    4.49   404.0    5.6      25.747
2014    5       11     6  50    4.49   403.8    5.6      25.742
2014    5       11     6  56    4.50   403.6    5.6      25.738
2014    5       11     7   1    4.50   403.4    5.6      25.734
2014    5       11     7   7    4.50   403.2    5.6      25.730
2014    5       11     7  12    4.51   403.0    5.6      25.726
2014    5       11     7  18    4.51   402.8    5.6      25.722
2014    5       11     7  23    4.52   402.6    5.6      25.719
2014    5       11     7  29    4.52   402.4    5.6      25.716
2014    5       11     7  34    4.53   402.2    5.7      25.712
2014    5       11     7  39    4.53   402.1    5.7      25.710
2014    5       11     7  45    4.54   401.9    5.7      25.707
2014    5       11     7  50    4.54   401.7    5.7      25.705
2014    5       11     7  56    4.55   401.5    5.7      25.702
2014    5       11     8   1    4.55   401.3    5.7      25.700
2014    5       11     8   7    4.56   401.1    5.7      25.698
2014    5       11     8  12    4.56   400.9    5.7      25.697
2014    5       11     8  18    4.57   400.8    5.7      25.695
2014    5       11     8  23    4.57   400.6    5.8      25.694
2014    5       11     8  28    4.58   400.4    5.8      25.693
2014    5       11     8  34    4.58   400.2    5.8      25.693
2014    5       11     8  39    4.59   400.0    5.8      25.692
2014    5       11     8  45    4.59   399.9    5.8      25.692
2014    5       11     8  50    4.60   399.7    5.8      25.692
2014    5       11     8  56    4.60   399.5    5.8      25.692
2014    5       11     9   1    4.61   399.3    5.8      25.692
2014    5       11     9   7    4.61   399.2    5.9      25.693
2014    5       11     9  12    4.62   399.0    5.9      25.694
2014    5       11     9  18    4.62   398.8    5.9      25.695
2014    5       11     9  23    4.63   398.6    5.9      25.696
2014    5       11     9  28    4.63   398.5    5.9      25.698
2014    5       11     9  34    4.64   398.3    5.9      25.700
2014    5       11     9  39    4.64   398.1    5.9      25.702
2014    5       11     9  45    4.65   398.0    5.9      25.704
2014    5       11     9  50    4.65   397.8    5.9      25.707
2014    5       11     9  56    4.66   397.6    6.0      25.710
2014    5       11    10   1    4.66   397.5    6.0      25.713
2014    5       11    10   7    4.67   397.3    6.0      25.717
2014    5       11    10  12    4.67   397.2    6.0      25.721
2014    5       11    10  17    4.68   397.0    6.0      25.724
2014    5       11    10  23    4.68   396.8    6.0      25.729
2014    5       11    10  28    4.69   396.7    6.0      25.733
2014    5       11    10  34    4.69   396.5    6.0      25.738
2014    5       11    10  39    4.70   396.4    6.1      25.744
2014    5       11    10  45    4.70   396.2    6.1      25.749
2014    5       11    10  50    4.71   396.1    6.1      25.755
2014    5       11    10  56    4.72   395.9    6.1      25.761
2014    5       11    11   1    4.72   395.8    6.1      25.767
2014    5       11    11   7    4.73   395.6    6.1      25.774
2014    5       11    11  12    4.73   395.5    6.1      25.781
2014    5       11    11  17    4.74   395.3    6.1      25.788
2014    5       11    11  23    4.74   395.2    6.2      25.795
2014    5       11    11  28    4.75   395.0    6.2      25.803
2014    5       11    11  34    4.75   394.9    6.2      25.811
2014    5       11    11  39    4.76   394.7    6.2      25.819
2014    5       11    11  45    4.77   394.6    6.2      25.828
2014    5       11    11  50    4.77   394.5    6.2      25.836
2014    5       11    11  56    4.78   394.3    6.2      25.845
2014    5       11    12   1    4.78   394.2    6.2      25.854
2014    5       11    12   6    4.79   394.1    6.3      25.864
2014    5       11    12  12    4.79   393.9    6.3      25.873
2014    5       11    12  17    4.80   393.8    6.3      25.883
2014    5       11    12  23    4.81   393.7    6.3      25.893
2014    5       11    12  28    4.81   393.5    6.3      25.903
2014    5       11    12  34    4.82   393.4    6.3      25.913
2014    5       11    12  39    4.82   393.3    6.3      25.924
2014    5       11    12  45    4.83   393.1    6.4      25.934
2014    5       11    12  50    4.84   393.0    6.4      25.945
2014    5       11    12  56    4.84   392.9    6.4      25.956
2014    5       11    13   1    4.85   392.8    6.4      25.967
2014    5       11    13   6    4.85   392.6    6.4      25.978
2014    5       11    13  12    4.86   392.5    6.4      25.990
2014    5       11    13  17    4.87   392.4    6.4      26.002
2014    5       11    13  23    4.87   392.3    6.5      26.013
2014    5       11    13  28    4.88   392.1    6.5      26.026
2014    5       11    13  34    4.88   392.0    6.5      26.038
2014    5       11    13  39    4.89   391.9    6.5      26.051
2014    5       11    13  45    4.90   391.8    6.5      26.064
2014    5       11    13  50    4.90   391.7    6.5      26.078
2014    5       11    13  55    4.91   391.6    6.5      26.092
2014    5       11    14   1    4.91   391.5    6.5      26.107
2014    5       11    14   6    4.92   391.4    6.6      26.122
2014    5       11    14  12    4.93   391.3    6.6      26.137
2014    5       11    14  17    4.93   391.1    6.6      26.152
2014    5       11    14  23    4.94   391.0    6.6      26.168
2014    5       11    14  28    4.94   390.9    6.6      26.184
2014    5       11    14  34    4.95   390.8    6.6      26.201
2014    5       11    14  39    4.96   390.7    6.6      26.217
2014    5       11    14  45    4.96   390.6    6.7      26.235
2014    5       11    14  50    4.97   390.5    6.7      26.252
2014    5       11    14  55    4.98   390.4    6.7      26.270
2014    5       11    15   1    4.98   390.3    6.7      26.288
2014    5       11    15   6    4.99   390.2    6.7      26.306
2014    5       11    15  12    4.99   390.1    6.7      26.325
2014    5       11    15  17    5.00   390.0    6.7      26.343
2014    5       11    15  23    5.01   389.9    6.7      26.362
2014    5       11    15  28    5.01   389.9    6.8      26.382
2014    5       11    15  34    5.02   389.8    6.8      26.401
2014    5       11    15  39    5.03   389.7    6.8      26.421
2014    5       11    15  44    5.03   389.6    6.8      26.440
2014    5       11    15  50    5.04   389.5    6.8      26.460
2014    5       11    15  55    5.04   389.4    6.8      26.479
2014    5       11    16   1    5.05   389.3    6.8      26.499
2014    5       11    16   6    5.06   389.2    6.8      26.519
2014    5       11    16  12    5.06   389.1    6.8      26.538
2014    5       11    16  17    5.07   389.1    6.9      26.558
2014    5       11    16  23    5.08   389.0    6.9      26.578
2014    5       11    16  28    5.08   388.9    6.9      26.598
2014    5       11    16  34    5.09   388.8    6.9      26.618
2014    5       11    16  39    5.09   388.7    6.9      26.638
2014    5       11    16  44    5.10   388.6    6.9      26.658
2014    5       11    16  50    5.11   388.6    6.9      26.677
2014    5       11    16  55    5.11   388.5    6.9      26.697
2014    5       11    17   1    5.12   388.4    6.9      26.717
2014    5       11    17   6    5.13   388.3    7.0      26.737
2014    5       11    17  12    5.13   388.3    7.0      26.757
2014    5       11    17  17    5.14   388.2    7.0      26.776
2014    5       11    17  23    5.14   388.1    7.0      26.796
2014    5       11    17  28    5.15   388.0    7.0      26.816
2014    5       11    17  33    5.16   388.0    7.0      26.835
2014    5       11    17  39    5.16   387.9    7.0      26.855
2014    5       11    17  44    5.17   387.8    7.0      26.874
2014    5       11    17  50    5.18   387.7    7.0      26.893
2014    5       11    17  55    5.18   387.7    7.1      26.913
2014    5       11    18   1    5.19   387.6    7.1      26.932
2014    5       11    18   6    5.20   387.5    7.1      26.951
2014    5       11    18  12    5.20   387.5    7.1      26.971
2014    5       11    18  17    5.21   387.4    7.1      26.990
2014    5       11    18  23    5.21   387.3    7.1      27.009
2014    5       11    18  28    5.22   387.2    7.1      27.028
2014    5       11    18  33    5.23   387.2    7.1      27.047
2014    5       11    18  39    5.23   387.1    7.1      27.067
2014    5       11    18  44    5.24   387.0    7.2      27.086
2014    5       11    18  50    5.25   387.0    7.2      27.105
2014    5       11    18  55    5.25   386.9    7.2      27.124
2014    5       11    19   1    5.26   386.8    7.2      27.143
2014    5       11    19   6    5.27   386.8    7.2      27.163
2014    5       11    19  12    5.27   386.7    7.2      27.182
2014    5       11    19  17    5.28   386.7    7.2      27.201
2014    5       11    19  22    5.28   386.6    7.2      27.221
2014    5       11    19  28    5.29   386.5    7.2      27.240
2014    5       11    19  33    5.30   386.5    7.3      27.260
2014    5       11    19  39    5.30   386.4    7.3      27.280
2014    5       11    19  44    5.31   386.3    7.3      27.299
2014    5       11    19  50    5.32   386.3    7.3      27.319
2014    5       11    19  55    5.32   386.2    7.3      27.340
2014    5       11    20   1    5.33   386.2    7.3      27.360
2014    5       11    20   6    5.34   386.1    7.3      27.380
2014    5       11    20  12    5.34   386.0    7.3      27.401
2014    5       11    20  17    5.35   386.0    7.3      27.421
2014    5       11    20  22    5.36   385.9    7.4      27.442
2014    5       11    20  28    5.36   385.9    7.4      27.463
2014    5       11    20  33    5.37   385.8    7.4      27.485
2014    5       11    20  39    5.38   385.8    7.4      27.506
2014    5       11    20  44    5.38   385.7    7.4      27.529
2014    5       11    20  50    5.39   385.7    7.4      27.551
2014    5       11    20  55    5.40   385.6    7.4      27.574
2014    5       11    21   1    5.40   385.6    7.4      27.598
2014    5       11    21   6    5.41   385.5    7.5      27.622
2014    5       11    21  11    5.42   385.5    7.5      27.646
2014    5       11    21  17    5.42   385.4    7.5      27.672
2014    5       11    21  22    5.43   385.4    7.5      27.698
2014    5       11    21  28    5.44   385.3    7.5      27.724
2014    5       11    21  33    5.44   385.3    7.5      27.751
2014    5       11    21  39    5.45   385.2    7.5      27.780
2014    5       11    21  44    5.46   385.2    7.5      27.809
2014    5       11    21  50    5.46   385.2    7.6      27.840
2014    5       11    21  55    5.47   385.1    7.6      27.871
2014    5       11    22   0    5.48   385.1    7.6      27.903
2014    5       11    22   6    5.48   385.1    7.6      27.935
2014    5       11    22  11    5.49   385.0    7.6      27.968
2014    5       11    22  17    5.50   385.0    7.6      28.002
2014    5       11    22  22    5.50   385.0    7.6      28.036
2014    5       11    22  28    5.51   384.9    7.6      28.070
2014    5       11    22  33    5.52   384.9    7.6      28.104
2014    5       11    22  39    5.52   384.9    7.7      28.139
2014    5       11    22  44    5.53   384.8    7.7      28.173
2014    5       11    22  50    5.54   384.8    7.7      28.208
2014    5       11    22  55    5.54   384.8    7.7      28.243
2014    5       11    23   0    5.55   384.8    7.7      28.277
2014    5       11    23   6    5.56   384.7    7.7      28.312
2014    5       11    23  11    5.56   384.7    7.7      28.347
2014    5       11    23  17    5.57   384.7    7.7      28.381
2014    5       11    23  22    5.58   384.7    7.7      28.416
2014    5       11    23  28    5.58   384.6    7.7      28.450
2014    5       11    23  33    5.59   384.6    7.8      28.484
2014    5       11    23  39    5.60   384.6    7.8      28.517
2014    5       11    23  44    5.60   384.6    7.8      28.551
2014    5       11    23  49    5.61   384.5    7.8      28.584
2014    5       11    23  55    5.62   384.5    7.8      28.617
2014    5       12     0   0    5.62   384.5    7.8      28.649
2014    5       12     0   6    5.63   384.5    7.8      28.681
2014    5       12     0  11    5.64   384.4    7.8      28.713
2014    5       12     0  17    5.64   384.4    7.8      28.745
2014    5       12     0  22    5.65   384.4    7.8      28.776
2014    5       12     0  28    5.65   384.4    7.8      28.807
2014    5       12     0  33    5.66   384.4    7.9      28.838
2014    5       12     0  39    5.67   384.3    7.9      28.868
2014    5       12     0  44    5.67   384.3    7.9      28.898
2014    5       12     0  49    5.68   384.3    7.9      28.927
2014    5       12     0  55    5.69   384.3    7.9      28.957
2014    5       12     1   0    5.69   384.3    7.9      28.986
2014    5       12     1   6    5.70   384.3    7.9      29.014
2014    5       12     1  11    5.71   384.2    7.9      29.043
2014    5       12     1  17    5.71   384.2    7.9      29.071
2014    5       12     1  22    5.72   384.2    7.9      29.099
2014    5       12     1  28    5.72   384.2    7.9      29.126
2014    5       12     1  33    5.73   384.2    7.9      29.154
2014    5       12     1  38    5.74   384.1    7.9      29.181
2014    5       12     1  44    5.74   384.1    8.0      29.208
2014    5       12     1  49    5.75   384.1    8.0      29.234
2014    5       12     1  55    5.76   384.1    8.0      29.261
2014    5       12     2   0    5.76   384.1    8.0      29.287
2014    5       12     2   6    5.77   384.1    8.0      29.313
2014    5       12     2  11    5.78   384.1    8.0      29.339
2014    5       12     2  17    5.78   384.0    8.0      29.365
2014    5       12     2  22    5.79   384.0    8.0      29.391
2014    5       12     2  28    5.79   384.0    8.0      29.416
2014    5       12     2  33    5.80   384.0    8.0      29.442
2014    5       12     2  38    5.81   384.0    8.0      29.467
2014    5       12     2  44    5.81   384.0    8.0      29.493
2014    5       12     2  49    5.82   384.0    8.0      29.518
2014    5       12     2  55    5.83   383.9    8.0      29.544
2014    5       12     3   0    5.83   383.9    8.1      29.569
2014    5       12     3   6    5.84   383.9    8.1      29.595
2014    5       12     3  11    5.85   383.9    8.1      29.620
2014    5       12     3  17    5.85   383.9    8.1      29.646
2014    5       12     3  22    5.86   383.9    8.1      29.671
2014    5       12     3  27    5.87   383.9    8.1      29.697
2014    5       12     3  33    5.87   383.9    8.1      29.723
2014    5       12     3  38    5.88   383.9    8.1      29.749
2014    5       12     3  44    5.89   383.9    8.1      29.775
2014    5       12     3  49    5.89   383.8    8.1      29.802
2014    5       12     3  55    5.90   383.8    8.1      29.828
2014    5       12     4   0    5.91   383.8    8.1      29.855
2014    5       12     4   6    5.91   383.8    8.2      29.882
2014    5       12     4  11    5.92   383.8    8.2      29.909
2014    5       12     4  16    5.93   383.8    8.2      29.936
2014    5       12     4  22    5.93   383.8    8.2      29.964
2014    5       12     4  27    5.94   383.8    8.2      29.992
2014    5       12     4  33    5.95   383.8    8.2      30.021
2014    5       12     4  38    5.95   383.8    8.2      30.050
2014    5       12     4  44    5.96   383.8    8.2      30.080
2014    5       12     4  49    5.97   383.8    8.2      30.111
2014    5       12     4  55    5.97   383.8    8.3      30.142
2014    5       12     5   0    5.98   383.8    8.3      30.175
2014    5       12     5   6    5.99   383.8    8.3      30.209
2014    5       12     5  11    5.99   383.9    8.3      30.244
2014    5       12     5  16    6.00   383.9    8.3      30.280
2014    5       12     5  22    6.01   383.9    8.3      30.317
2014    5       12     5  27    6.01   383.9    8.3      30.356
2014    5       12     5  33    6.02   383.9    8.3      30.395
2014    5       12     5  38    6.03   383.9    8.3      30.436
2014    5       12     5  44    6.03   384.0    8.4      30.477
2014    5       12     5  49    6.04   384.0    8.4      30.519
2014    5       12     5  55    6.05   384.0    8.4      30.561
2014    5       12     6   0    6.05   384.0    8.4      30.603
2014    5       12     6   5    6.06   384.1    8.4      30.645
2014    5       12     6  11    6.07   384.1    8.4      30.688
2014    5       12     6  16    6.07   384.1    8.4      30.730
2014    5       12     6  22    6.08   384.1    8.4      30.773
2014    5       12     6  27    6.09   384.2    8.4      30.815
2014    5       12     6  33    6.09   384.2    8.4      30.857
2014    5       12     6  38    6.10   384.2    8.4      30.898
2014    5       12     6  44    6.11   384.2    8.5      30.939
2014    5       12     6  49    6.11   384.3    8.5      30.980
2014    5       12     6  55    6.12   384.3    8.5      31.020
2014    5       12     7   0    6.12   384.3    8.5      31.059
2014    5       12     7   5    6.13   384.3    8.5      31.098
2014    5       12     7  11    6.14   384.4    8.5      31.137
2014    5       12     7  16    6.14   384.4    8.5      31.175
2014    5       12     7  22    6.15   384.4    8.5      31.212
2014    5       12     7  27    6.15   384.4    8.5      31.249
2014    5       12     7  33    6.16   384.5    8.5      31.286
2014    5       12     7  38    6.17   384.5    8.5      31.322
2014    5       12     7  44    6.17   384.5    8.5      31.358
2014    5       12     7  49    6.18   384.5    8.5      31.393
2014    5       12     7  54    6.18   384.6    8.5      31.428
2014    5       12     8   0    6.19   384.6    8.5      31.462
2014    5       12     8   5    6.20   384.6    8.5      31.496
2014    5       12     8  11    6.20   384.6    8.5      31.529
2014    5       12     8  16    6.21   384.7    8.5      31.563
2014    5       12     8  22    6.21   384.7    8.6      31.595
2014    5       12     8  27    6.22   384.7    8.6      31.628
2014    5       12     8  33    6.23   384.8    8.6      31.660
2014    5       12     8  38    6.23   384.8    8.6      31.692
2014    5       12     8  44    6.24   384.8    8.6      31.723
2014    5       12     8  49    6.24   384.8    8.6      31.754
2014    5       12     8  54    6.25   384.9    8.6      31.785
2014    5       12     9   0    6.26   384.9    8.6      31.816
2014    5       12     9   5    6.26   384.9    8.6      31.846
2014    5       12     9  11    6.27   385.0    8.6      31.876
2014    5       12     9  16    6.27   385.0    8.6      31.906
2014    5       12     9  22    6.28   385.0    8.6      31.935
2014    5       12     9  27    6.29   385.0    8.6      31.965
2014    5       12     9  33    6.29   385.1    8.6      31.994
2014    5       12     9  38    6.30   385.1    8.6      32.023
2014    5       12     9  43    6.30   385.1    8.6      32.051
2014    5       12     9  49    6.31   385.2    8.6      32.080
2014    5       12     9  54    6.32   385.2    8.6      32.109
2014    5       12    10   0    6.32   385.2    8.6      32.137
2014    5       12    10   5    6.33   385.2    8.6      32.165
2014    5       12    10  11    6.33   385.3    8.6      32.194
2014    5       12    10  16    6.34   385.3    8.6      32.222
2014    5       12    10  22    6.34   385.3    8.6      32.250
2014    5       12    10  27    6.35   385.4    8.6      32.278
2014    5       12    10  32    6.36   385.4    8.7      32.306
2014    5       12    10  38    6.36   385.4    8.7      32.334
2014    5       12    10  43    6.37   385.5    8.7      32.362
2014    5       12    10  49    6.38   385.5    8.7      32.391
2014    5       12    10  54    6.38   385.5    8.7      32.419
2014    5       12    11   0    6.39   385.6    8.7      32.447
2014    5       12    11   5    6.39   385.6    8.7      32.476
2014    5       12    11  11    6.40   385.7    8.7      32.505
2014    5       12    11  16    6.41   385.7    8.7      32.534
2014    5       12    11  22    6.41   385.7    8.7      32.563
2014    5       12    11  27    6.42   385.8    8.7      32.592
2014    5       12    11  32    6.43   385.8    8.7      32.622
2014    5       12    11  38    6.43   385.9    8.7      32.652
2014    5       12    11  43    6.44   385.9    8.7      32.682
2014    5       12    11  49    6.44   385.9    8.7      32.712
2014    5       12    11  54    6.45   386.0    8.7      32.743
2014    5       12    12   0    6.46   386.0    8.7      32.774
2014    5       12    12   5    6.46   386.1    8.8      32.805
2014    5       12    12  11    6.47   386.1    8.8      32.837
2014    5       12    12  16    6.48   386.2    8.8      32.871
2014    5       12    12  21    6.48   386.2    8.8      32.905
2014    5       12    12  27    6.49   386.3    8.8      32.940
2014    5       12    12  32    6.50   386.3    8.8      32.977
2014    5       12    12  38    6.50   386.4    8.8      33.015
2014    5       12    12  43    6.51   386.5    8.8      33.054
2014    5       12    12  49    6.52   386.5    8.8      33.093
2014    5       12    12  54    6.52   386.6    8.8      33.133
2014    5       12    13   0    6.53   386.6    8.8      33.174
2014    5       12    13   5    6.54   386.7    8.9      33.216
2014    5       12    13  11    6.54   386.8    8.9      33.258
2014    5       12    13  16    6.55   386.8    8.9      33.302
2014    5       12    13  21    6.56   386.9    8.9      33.347
2014    5       12    13  27    6.56   387.0    8.9      33.393
2014    5       12    13  32    6.57   387.1    8.9      33.440
2014    5       12    13  38    6.57   387.1    8.9      33.487
2014    5       12    13  43    6.58   387.2    8.9      33.535
2014    5       12    13  49    6.59   387.3    8.9      33.584
2014    5       12    13  54    6.59   387.4    8.9      33.631
2014    5       12    14   0    6.60   387.4    8.9      33.678
2014    5       12    14   5    6.60   387.5    8.9      33.724
2014    5       12    14  10    6.61   387.6    9.0      33.770
2014    5       12    14  16    6.61   387.7    9.0      33.815
2014    5       12    14  21    6.62   387.8    9.0      33.860
2014    5       12    14  27    6.63   387.8    9.0      33.904
2014    5       12    14  32    6.63   387.9    9.0      33.947
2014    5       12    14  38    6.64   388.0    9.0      33.989
2014    5       12    14  43    6.64   388.1    9.0      34.031
2014    5       12    14  49    6.65   388.1    9.0      34.072
2014    5       12    14  54    6.65   388.2    9.0      34.113
2014    5       12    14  59    6.66   388.3    9.0      34.153
2014    5       12    15   5    6.66   388.4    9.0      34.192
2014    5       12    15  10    6.67   388.4    9.0      34.230
2014    5       12    15  16    6.67   388.5    9.0      34.268
2014    5       12    15  21    6.68   388.6    9.0      34.306
2014    5       12    15  27    6.68   388.7    9.0      34.343
2014    5       12    15  32    6.69   388.7    9.0      34.379
2014    5       12    15  38    6.69   388.8    9.0      34.415
2014    5       12    15  43    6.70   388.9    9.0      34.450
2014    5       12    15  49    6.70   388.9    9.0      34.485
2014    5       12    15  54    6.71   389.0    9.0      34.519
2014    5       12    15  59    6.71   389.1    9.0      34.553
2014    5       12    16   5    6.72   389.2    9.0      34.586
2014    5       12    16  10    6.72   389.2    9.0      34.619
2014    5       12    16  16    6.73   389.3    9.0      34.652
2014    5       12    16  21    6.73   389.4    9.0      34.684
2014    5       12    16  27    6.74   389.4    9.0      34.716
2014    5       12    16  32    6.74   389.5    9.0      34.747
2014    5       12    16  38    6.75   389.6    9.0      34.779
2014    5       12    16  43    6.75   389.6    9.0      34.809
2014    5       12    16  48    6.76   389.7    9.0      34.840
2014    5       12    16  54    6.76   389.8    9.0      34.870
2014    5       12    16  59    6.77   389.9    9.0      34.900
2014    5       12    17   5    6.77   389.9    9.0      34.930
2014    5       12    17  10    6.78   390.0    9.0      34.959
2014    5       12    17  16    6.78   390.1    9.0      34.988
2014    5       12    17  21    6.79   390.1    9.0      35.017
2014    5       12    17  27    6.79   390.2    9.0      35.046
2014    5       12    17  32    6.80   390.3    9.0      35.074
2014    5       12    17  37    6.80   390.3    9.0      35.103
2014    5       12    17  43    6.81   390.4    9.0      35.131
2014    5       12    17  48    6.81   390.5    9.0      35.159
2014    5       12    17  54    6.82   390.6    9.0      35.187
2014    5       12    17  59    6.82   390.6    9.0      35.215
2014    5       12    18   5    6.82   390.7    9.0      35.243
2014    5       12    18  10    6.83   390.8    9.0      35.271
2014    5       12    18  16    6.83   390.8    9.0      35.299
2014    5       12    18  21    6.84   390.9    9.0      35.327
2014    5       12    18  27    6.84   391.0    9.0      35.354
2014    5       12    18  32    6.85   391.1    9.0      35.382
2014    5       12    18  37    6.85   391.1    9.0      35.410
2014    5       12    18  43    6.86   391.2    9.0      35.438
2014    5       12    18  48    6.86   391.3    9.0      35.466
2014    5       12    18  54    6.87   391.4    9.0      35.495
2014    5       12    18  59    6.87   391.4    9.0      35.523
2014    5       12    19   5    6.88   391.5    9.0      35.552
2014    5       12    19  10    6.88   391.6    9.0      35.580
2014    5       12    19  16    6.89   391.7    9.0      35.609
2014    5       12    19  21    6.89   391.8    9.0      35.639
2014    5       12    19  26    6.90   391.8    9.0      35.668
2014    5       12    19  32    6.90   391.9    9.0      35.697
2014    5       12    19  37    6.91   392.0    9.1      35.727
2014    5       12    19  43    6.91   392.1    9.1      35.758
2014    5       12    19  48    6.92   392.2    9.1      35.788
2014    5       12    19  54    6.92   392.2    9.1      35.819
2014    5       12    19  59    6.93   392.3    9.1      35.850
2014    5       12    20   5    6.93   392.4    9.1      35.882
2014    5       12    20  10    6.94   392.5    9.1      35.913
2014    5       12    20  15    6.94   392.6    9.1      35.946
2014    5       12    20  21    6.95   392.7    9.1      35.980
2014    5       12    20  26    6.95   392.8    9.1      36.015
2014    5       12    20  32    6.96   392.9    9.1      36.051
2014    5       12    20  37    6.96   393.0    9.1      36.089
2014    5       12    20  43    6.97   393.1    9.1      36.127
2014    5       12    20  48    6.97   393.2    9.1      36.167
2014    5       12    20  54    6.98   393.3    9.1      36.208
2014    5       12    20  59    6.98   393.4    9.1      36.249
2014    5       12    21   5    6.99   393.5    9.1      36.290
2014    5       12    21  10    6.99   393.6    9.1      36.331
2014    5       12    21  15    7.00   393.7    9.1      36.372
2014    5       12    21  21    7.00   393.8    9.1      36.413
2014    5       12    21  26    7.01   393.9    9.1      36.453
2014    5       12    21  32    7.01   394.0    9.1      36.494
2014    5       12    21  37    7.02   394.1    9.1      36.535
2014    5       12    21  43    7.02   394.2    9.1      36.576
2014    5       12    21  48    7.03   394.3    9.2      36.617
2014    5       12    21  54    7.03   394.4    9.2      36.657
2014    5       12    21  59    7.04   394.5    9.2      36.697
2014    5       12    22   4    7.04   394.6    9.2      36.738
2014    5       12    22  10    7.04   394.7    9.2      36.779
2014    5       12    22  15    7.05   394.8    9.2      36.821
2014    5       12    22  21    7.05   394.9    9.2      36.863
2014    5       12    22  26    7.06   395.1    9.2      36.906
2014    5       12    22  32    7.06   395.2    9.2      36.951
2014    5       12    22  37    7.07   395.3    9.2      36.996
2014    5       12    22  43    7.07   395.4    9.2      37.041
2014    5       12    22  48    7.08   395.5    9.2      37.088
2014    5       12    22  53    7.08   395.6    9.2      37.134
2014    5       12    22  59    7.09   395.7    9.2      37.181
2014    5       12    23   4    7.09   395.9    9.2      37.226
2014    5       12    23  10    7.10   396.0    9.2      37.271
2014    5       12    23  15    7.10   396.1    9.2      37.316
2014    5       12    23  21    7.11   396.2    9.2      37.360
2014    5       12    23  26    7.11   396.3    9.2      37.403
2014    5       12    23  32    7.11   396.4    9.2      37.446
2014    5       12    23  37    7.12   396.6    9.2      37.488
2014    5       12    23  43    7.12   396.7    9.2      37.529
2014    5       12    23  48    7.13   396.8    9.2      37.569
2014    5       12    23  53    7.13   396.9    9.2      37.608
2014    5       12    23  59    7.14   397.0    9.2      37.647
2014    5       13     0   4    7.14   397.1    9.2      37.685
2014    5       13     0  10    7.14   397.2    9.2      37.722
2014    5       13     0  15    7.15   397.4    9.2      37.758
2014    5       13     0  21    7.15   397.5    9.2      37.793
2014    5       13     0  26    7.16   397.6    9.2      37.828
2014    5       13     0  32    7.16   397.7    9.2      37.862
2014    5       13     0  37    7.17   397.8    9.2      37.895
2014    5       13     0  42    7.17   397.9    9.2      37.928
2014    5       13     0  48    7.17   398.0    9.2      37.960
2014    5       13     0  53    7.18   398.1    9.2      37.991
2014    5       13     0  59    7.18   398.2    9.2      38.022
2014    5       13     1   4    7.19   398.4    9.2      38.051
2014    5       13     1  10    7.19   398.5    9.2      38.081
2014    5       13     1  15    7.20   398.6    9.2      38.110
2014    5       13     1  21    7.20   398.7    9.2      38.139
2014    5       13     1  26    7.20   398.8    9.2      38.167
2014    5       13     1  31    7.21   398.9    9.2      38.194
2014    5       13     1  37    7.21   399.0    9.2      38.221
2014    5       13     1  42    7.22   399.1    9.2      38.248
2014    5       13     1  48    7.22   399.2    9.2      38.275
2014    5       13     1  53    7.22   399.3    9.2      38.301
2014    5       13     1  59    7.23   399.4    9.2      38.327
2014    5       13     2   4    7.23   399.6    9.1      38.352
2014    5       13     2  10    7.24   399.7    9.1      38.377
2014    5       13     2  15    7.24   399.8    9.1      38.402
2014    5       13     2  21    7.25   399.9    9.1      38.427
2014    5       13     2  26    7.25   400.0    9.1      38.451
2014    5       13     2  31    7.25   400.1    9.1      38.475
2014    5       13     2  37    7.26   400.2    9.1      38.499
2014    5       13     2  42    7.26   400.3    9.1      38.523
2014    5       13     2  48    7.27   400.4    9.1      38.547
2014    5       13     2  53    7.27   400.5    9.1      38.570
2014    5       13     2  59    7.28   400.7    9.1      38.593
2014    5       13     3   4    7.28   400.8    9.1      38.616
2014    5       13     3  10    7.28   400.9    9.1      38.639
2014    5       13     3  15    7.29   401.0    9.1      38.662
2014    5       13     3  20    7.29   401.1    9.1      38.684
2014    5       13     3  26    7.30   401.2    9.1      38.706
2014    5       13     3  31    7.30   401.3    9.1      38.729
2014    5       13     3  37    7.31   401.4    9.1      38.751
2014    5       13     3  42    7.31   401.5    9.1      38.773
2014    5       13     3  48    7.31   401.6    9.1      38.794
2014    5       13     3  53    7.32   401.8    9.1      38.816
2014    5       13     3  59    7.32   401.9    9.1      38.838
2014    5       13     4   4    7.33   402.0    9.1      38.859
2014    5       13     4   9    7.33   402.1    9.1      38.881
2014    5       13     4  15    7.34   402.2    9.1      38.902
2014    5       13     4  20    7.34   402.3    9.1      38.924
2014    5       13     4  26    7.35   402.4    9.1      38.945
2014    5       13     4  31    7.35   402.5    9.1      38.967
2014    5       13     4  37    7.35   402.6    9.1      38.989
2014    5       13     4  42    7.36   402.8    9.1      39.011
2014    5       13     4  48    7.36   402.9    9.1      39.033
2014    5       13     4  53    7.37   403.0    9.1      39.055
2014    5       13     4  59    7.37   403.1    9.1      39.078
2014    5       13     5   4    7.38   403.2    9.1      39.100
2014    5       13     5   9    7.38   403.3    9.1      39.124
2014    5       13     5  15    7.39   403.4    9.1      39.147
2014    5       13     5  20    7.39   403.5    9.1      39.171
2014    5       13     5  26    7.40   403.7    9.1      39.195
2014    5       13     5  31    7.40   403.8    9.1      39.220
2014    5       13     5  37    7.41   403.9    9.1      39.245
2014    5       13     5  42    7.41   404.0    9.1      39.271
2014    5       13     5  48    7.42   404.1    9.1      39.297
2014    5       13     5  53    7.42   404.2    9.1      39.323
2014    5       13     5  58    7.43   404.4    9.1      39.352
2014    5       13     6   4    7.43   404.5    9.1      39.381
2014    5       13     6   9    7.44   404.6    9.1      39.411
2014    5       13     6  15    7.44   404.7    9.1      39.443
2014    5       13     6  20    7.45   404.9    9.1      39.475
2014    5       13     6  26    7.45   405.0    9.1      39.509
2014    5       13     6  31    7.46   405.1    9.1      39.544
2014    5       13     6  37    7.46   405.3    9.1      39.580
2014    5       13     6  42    7.47   405.4    9.1      39.616
2014    5       13     6  47    7.47   405.5    9.1      39.653
2014    5       13     6  53    7.48   405.7    9.1      39.689
2014    5       13     6  58    7.48   405.8    9.1      39.725
2014    5       13     7   4    7.49   405.9    9.1      39.762
2014    5       13     7   9    7.49   406.1    9.1      39.799
2014    5       13     7  15    7.50   406.2    9.1      39.837
2014    5       13     7  20    7.50   406.4    9.1      39.876
2014    5       13     7  26    7.51   406.5    9.1      39.917
2014    5       13     7  31    7.51   406.7    9.1      39.958
2014    5       13     7  36    7.52   406.8    9.1      40.001
2014    5       13     7  42    7.52   407.0    9.2      40.045
2014    5       13     7  47    7.53   407.1    9.2      40.089
2014    5       13     7  53    7.53   407.3    9.2      40.134
2014    5       13     7  58    7.54   407.5    9.2      40.179
2014    5       13     8   4    7.54   407.6    9.2      40.223
2014    5       13     8   9    7.55   407.8    9.2      40.267
2014    5       13     8  15    7.55   408.0    9.2      40.310
2014    5       13     8  20    7.55   408.1    9.2      40.353
2014    5       13     8  26    7.56   408.3    9.2      40.395
2014    5       13     8  31    7.56   408.4    9.2      40.437
2014    5       13     8  36    7.57   408.6    9.2      40.478
2014    5       13     8  42    7.57   408.8    9.2      40.518
2014    5       13     8  47    7.57   408.9    9.2      40.558
2014    5       13     8  53    7.58   409.1    9.2      40.597
2014    5       13     8  58    7.58   409.3    9.2      40.636
2014    5       13     9   4    7.58   409.4    9.2      40.674
2014    5       13     9   9    7.59   409.6    9.2      40.712
2014    5       13     9  15    7.59   409.7    9.2      40.749
2014    5       13     9  20    7.60   409.9    9.2      40.786
2014    5       13     9  25    7.60   410.1    9.2      40.822
2014    5       13     9  31    7.60   410.2    9.2      40.858
2014    5       13     9  36    7.61   410.4    9.2      40.894
2014    5       13     9  42    7.61   410.5    9.2      40.929
2014    5       13     9  47    7.61   410.7    9.2      40.964
2014    5       13     9  53    7.62   410.9    9.2      40.999
2014    5       13     9  58    7.62   411.0    9.2      41.033
2014    5       13    10   4    7.62   411.2    9.2      41.067
2014    5       13    10   9    7.63   411.4    9.2      41.101
2014    5       13    10  14    7.63   411.5    9.2      41.135
2014    5       13    10  20    7.63   411.7    9.2      41.168
2014    5       13    10  25    7.64   411.8    9.2      41.201
2014    5       13    10  31    7.64   412.0    9.2      41.233
2014    5       13    10  36    7.64   412.2    9.2      41.266
2014    5       13    10  42    7.65   412.3    9.2      41.298
2014    5       13    10  47    7.65   412.5    9.2      41.330
2014    5       13    10  53    7.65   412.6    9.1      41.361
2014    5       13    10  58    7.66   412.8    9.1      41.393
2014    5       13    11   4    7.66   413.0    9.1      41.424
2014    5       13    11   9    7.66   413.1    9.1      41.455
2014    5       13    11  14    7.67   413.3    9.1      41.486
2014    5       13    11  20    7.67   413.5    9.1      41.517
2014    5       13    11  25    7.68   413.6    9.1      41.547
2014    5       13    11  31    7.68   413.8    9.1      41.578
2014    5       13    11  36    7.68   413.9    9.1      41.608
2014    5       13    11  42    7.69   414.1    9.1      41.638
2014    5       13    11  47    7.69   414.3    9.1      41.669
2014    5       13    11  53    7.69   414.4    9.1      41.699
2014    5       13    11  58    7.70   414.6    9.1      41.729
2014    5       13    12   3    7.70   414.8    9.1      41.760
2014    5       13    12   9    7.70   414.9    9.1      41.790
2014    5       13    12  14    7.71   415.1    9.1      41.820
2014    5       13    12  20    7.71   415.3    9.1      41.850
2014    5       13    12  25    7.71   415.4    9.1      41.880
2014    5       13    12  31    7.72   415.6    9.1      41.910
2014    5       13    12  36    7.72   415.8    9.1      41.939
2014    5       13    12  42    7.72   415.9    9.1      41.969
2014    5       13    12  47    7.73   416.1    9.1      41.998
2014    5       13    12  52    7.73   416.3    9.1      42.028
2014    5       13    12  58    7.73   416.5    9.1      42.057
2014    5       13    13   3    7.73   416.6    9.1      42.086
2014    5       13    13   9    7.74   416.8    9.1      42.115
2014    5       13    13  14    7.74   417.0    9.1      42.144
2014    5       13    13  20    7.74   417.1    9.1      42.172
2014    5       13    13  25    7.75   417.3    9.1      42.201
2014    5       13    13  31    7.75   417.5    9.1      42.230
2014    5       13    13  36    7.75   417.6    9.0      42.259
2014    5       13    13  41    7.76   417.8    9.0      42.287
2014    5       13    13  47    7.76   418.0    9.0      42.316
2014    5       13    13  52    7.76   418.1    9.0      42.344
2014    5       13    13  58    7.77   418.3    9.0      42.373
2014    5       13    14   3    7.77   418.5    9.0      42.401
2014    5       13    14   9    7.77   418.7    9.0      42.430
2014    5       13    14  14    7.78   418.8    9.0      42.459
2014    5       13    14  20    7.78   419.0    9.0      42.488
2014    5       13    14  25    7.78   419.1    9.0      42.517
2014    5       13    14  31    7.79   419.3    9.0      42.546
2014    5       13    14  36    7.79   419.5    9.0      42.576
2014    5       13    14  41    7.79   419.7    9.0      42.606
2014    5       13    14  47    7.80   419.8    9.0      42.637
2014    5       13    14  52    7.80   420.0    9.0      42.670
2014    5       13    14  58    7.80   420.2    9.0      42.703
2014    5       13    15   3    7.81   420.4    9.0      42.739
2014    5       13    15   9    7.81   420.6    9.0      42.775
2014    5       13    15  14    7.81   420.8    9.0      42.813
2014    5       13    15  20    7.82   421.0    9.0      42.852
2014    5       13    15  25    7.82   421.2    9.0      42.892
2014    5       13    15  30    7.82   421.3    9.0      42.931
2014    5       13    15  36    7.82   421.5    9.0      42.971
2014    5       13    15  41    7.83   421.7    9.0      43.010
2014    5       13    15  47    7.83   421.9    9.0      43.050
2014    5       13    15  52    7.83   422.1    9.0      43.089
2014    5       13    15  58    7.84   422.3    9.0      43.129
2014    5       13    16   3    7.84   422.5    9.0      43.168
2014    5       13    16   9    7.84   422.7    9.0      43.207
2014    5       13    16  14    7.84   422.9    9.0      43.246
2014    5       13    16  19    7.85   423.1    8.9      43.285
2014    5       13    16  25    7.85   423.3    8.9      43.324
2014    5       13    16  30    7.85   423.5    8.9      43.362
2014    5       13    16  36    7.85   423.7    8.9      43.401
2014    5       13    16  41    7.86   423.9    8.9      43.439
2014    5       13    16  47    7.86   424.1    8.9      43.477
2014    5       13    16  52    7.86   424.3    8.9      43.515
2014    5       13    16  58    7.86   424.5    8.9      43.553
2014    5       13    17   3    7.87   424.7    8.9      43.591
2014    5       13    17   8    7.87   424.9    8.9      43.629
2014    5       13    17  14    7.87   425.1    8.9      43.667
2014    5       13    17  19    7.87   425.3    8.9      43.704
2014    5       13    17  25    7.88   425.5    8.9      43.742
2014    5       13    17  30    7.88   425.7    8.9      43.779
2014    5       13    17  36    7.88   425.9    8.9      43.817
2014    5       13    17  41    7.88   426.2    8.9      43.854
2014    5       13    17  47    7.89   426.4    8.9      43.891
2014    5       13    17  52    7.89   426.6    8.9      43.928
2014    5       13    17  58    7.89   426.8    8.8      43.965
2014    5       13    18   3    7.89   427.0    8.8      44.002
2014    5       13    18   8    7.89   427.2    8.8      44.039
2014    5       13    18  14    7.90   427.4    8.8      44.076
2014    5       13    18  19    7.90   427.6    8.8      44.113
2014    5       13    18  25    7.90   427.8    8.8      44.149
2014    5       13    18  30    7.90   428.0    8.8      44.186
2014    5       13    18  36    7.90   428.2    8.8      44.222
2014    5       13    18  41    7.91   428.4    8.8      44.259
2014    5       13    18  47    7.91   428.6    8.8      44.295
2014    5       13    18  52    7.91   428.8    8.8      44.331
2014    5       13    18  57    7.91   429.0    8.8      44.368
2014    5       13    19   3    7.92   429.2    8.8      44.404
2014    5       13    19   8    7.92   429.5    8.8      44.441
2014    5       13    19  14    7.92   429.7    8.8      44.478
2014    5       13    19  19    7.92   429.9    8.7      44.515
2014    5       13    19  25    7.92   430.1    8.7      44.553
2014    5       13    19  30    7.92   430.3    8.7      44.590
2014    5       13    19  36    7.93   430.5    8.7      44.628
2014    5       13    19  41    7.93   430.7    8.7      44.665
2014    5       13    19  46    7.93   431.0    8.7      44.703
2014    5       13    19  52    7.93   431.2    8.7      44.741
2014    5       13    19  57    7.93   431.4    8.7      44.778
2014    5       13    20   3    7.93   431.6    8.7      44.816
2014    5       13    20   8    7.94   431.8    8.7      44.853
2014    5       13    20  14    7.94   432.0    8.7      44.890
2014    5       13    20  19    7.94   432.3    8.7      44.927
2014    5       13    20  25    7.94   432.5    8.7      44.964
2014    5       13    20  30    7.94   432.7    8.7      45.001
2014    5       13    20  35    7.94   432.9    8.6      45.037
2014    5       13    20  41    7.94   433.1    8.6      45.074
2014    5       13    20  46    7.94   433.4    8.6      45.110
2014    5       13    20  52    7.95   433.6    8.6      45.146
2014    5       13    20  57    7.95   433.8    8.6      45.182
2014    5       13    21   3    7.95   434.0    8.6      45.218
2014    5       13    21   8    7.95   434.2    8.6      45.254
2014    5       13    21  14    7.95   434.5    8.6      45.289
2014    5       13    21  19    7.95   434.7    8.6      45.324
2014    5       13    21  25    7.95   434.9    8.6      45.359
2014    5       13    21  30    7.95   435.1    8.6      45.395
2014    5       13    21  35    7.95   435.4    8.6      45.429
2014    5       13    21  41    7.95   435.6    8.5      45.464
2014    5       13    21  46    7.96   435.8    8.5      45.499
2014    5       13    21  52    7.96   436.0    8.5      45.533
2014    5       13    21  57    7.96   436.2    8.5      45.568
2014    5       13    22   3    7.96   436.5    8.5      45.602
2014    5       13    22   8    7.96   436.7    8.5      45.636
2014    5       13    22  14    7.96   436.9    8.5      45.670
2014    5       13    22  19    7.96   437.1    8.5      45.704
2014    5       13    22  24    7.96   437.4    8.5      45.738
2014    5       13    22  30    7.96   437.6    8.5      45.772
2014    5       13    22  35    7.96   437.8    8.5      45.805
2014    5       13    22  41    7.96   438.0    8.4      45.839
2014    5       13    22  46    7.96   438.3    8.4      45.872
2014    5       13    22  52    7.96   438.5    8.4      45.906
2014    5       13    22  57    7.96   438.7    8.4      45.939
2014    5       13    23   3    7.96   439.0    8.4      45.972
2014    5       13    23   8    7.96   439.2    8.4      46.005
2014    5       13    23  13    7.96   439.4    8.4      46.038
2014    5       13    23  19    7.97   439.6    8.4      46.071
2014    5       13    23  24    7.97   439.9    8.4      46.104
2014    5       13    23  30    7.97   440.1    8.4      46.136
2014    5       13    23  35    7.97   440.3    8.4      46.169
2014    5       13    23  41    7.97   440.5    8.3      46.202
2014    5       13    23  46    7.97   440.8    8.3      46.234
2014    5       13    23  52    7.97   441.0    8.3      46.266
2014    5       13    23  57    7.97   441.2    8.3      46.299
2014    5       14     0   2    7.97   441.5    8.3      46.331
2014    5       14     0   8    7.97   441.7    8.3      46.363
2014    5       14     0  13    7.97   441.9    8.3      46.395
2014    5       14     0  19    7.97   442.1    8.3      46.427
2014    5       14     0  24    7.97   442.4    8.3      46.459
2014    5       14     0  30    7.97   442.6    8.3      46.491
2014    5       14     0  35    7.97   442.8    8.2      46.523
2014    5       14     0  41    7.97   443.0    8.2      46.555
2014    5       14     0  46    7.97   443.3    8.2      46.587
2014    5       14     0  52    7.97   443.5    8.2      46.618
2014    5       14     0  57    7.97   443.7    8.2      46.650
2014    5       14     1   2    7.97   444.0    8.2      46.682
2014    5       14     1   8    7.97   444.2    8.2      46.713
2014    5       14     1  13    7.97   444.4    8.2      46.745
2014    5       14     1  19    7.97   444.6    8.2      46.776
2014    5       14     1  24    7.97   444.9    8.2      46.808
2014    5       14     1  30    7.97   445.1    8.2      46.839
2014    5       14     1  35    7.97   445.3    8.1      46.871
2014    5       14     1  41    7.96   445.5    8.1      46.903
2014    5       14     1  46    7.96   445.8    8.1      46.934
2014    5       14     1  51    7.96   446.0    8.1      46.966
2014    5       14     1  57    7.96   446.2    8.1      46.997
2014    5       14     2   2    7.96   446.4    8.1      47.029
2014    5       14     2   8    7.96   446.7    8.1      47.061
2014    5       14     2  13    7.96   446.9    8.1      47.093
2014    5       14     2  19    7.96   447.1    8.1      47.125
2014    5       14     2  24    7.96   447.3    8.1      47.157
2014    5       14     2  30    7.96   447.6    8.0      47.189
2014    5       14     2  35    7.96   447.8    8.0      47.222
2014    5       14     2  40    7.96   448.0    8.0      47.255
2014    5       14     2  46    7.96   448.2    8.0      47.287
2014    5       14     2  51    7.96   448.5    8.0      47.320
2014    5       14     2  57    7.96   448.7    8.0      47.354
2014    5       14     3   2    7.96   448.9    8.0      47.387
2014    5       14     3   8    7.96   449.1    8.0      47.421
2014    5       14     3  13    7.96   449.4    8.0      47.454
2014    5       14     3  19    7.96   449.6    8.0      47.488
2014    5       14     3  24    7.96   449.8    8.0      47.522
2014    5       14     3  29    7.96   450.0    8.0      47.556
2014    5       14     3  35    7.96   450.3    7.9      47.591
2014    5       14     3  40    7.96   450.5    7.9      47.626
2014    5       14     3  46    7.96   450.7    7.9      47.660
2014    5       14     3  51    7.95   451.0    7.9      47.695
2014    5       14     3  57    7.95   451.2    7.9      47.730
2014    5       14     4   2    7.95   451.4    7.9      47.765
2014    5       14     4   8    7.95   451.6    7.9      47.800
2014    5       14     4  13    7.95   451.9    7.9      47.836
2014    5       14     4  19    7.95   452.1    7.9      47.871
2014    5       14     4  24    7.95   452.3    7.9      47.906
2014    5       14     4  29    7.95   452.5    7.9      47.941
2014    5       14     4  35    7.95   452.8    7.8      47.976
2014    5       14     4  40    7.95   453.0    7.8      48.011
2014    5       14     4  46    7.95   453.2    7.8      48.045
2014    5       14     4  51    7.95   453.4    7.8      48.080
2014    5       14     4  57    7.95   453.7    7.8      48.114
2014    5       14     5   2    7.95   453.9    7.8      48.149
2014    5       14     5   8    7.94   454.1    7.8      48.183
2014    5       14     5  13    7.94   454.3    7.8      48.217
2014    5       14     5  18    7.94   454.6    7.8      48.251
2014    5       14     5  24    7.94   454.8    7.8      48.285
2014    5       14     5  29    7.94   455.0    7.8      48.319
2014    5       14     5  35    7.94   455.2    7.7      48.352
2014    5       14     5  40    7.94   455.5    7.7      48.386
2014    5       14     5  46    7.94   455.7    7.7      48.419
2014    5       14     5  51    7.94   455.9    7.7      48.453
2014    5       14     5  57    7.94   456.2    7.7      48.486
2014    5       14     6   2    7.94   456.4    7.7      48.519
2014    5       14     6   7    7.93   456.6    7.7      48.552
2014    5       14     6  13    7.93   456.8    7.7      48.585
2014    5       14     6  18    7.93   457.1    7.7      48.618
2014    5       14     6  24    7.93   457.3    7.7      48.651
2014    5       14     6  29    7.93   457.5    7.7      48.684
2014    5       14     6  35    7.93   457.7    7.6      48.717
2014    5       14     6  40    7.93   458.0    7.6      48.749
2014    5       14     6  46    7.93   458.2    7.6      48.782
2014    5       14     6  51    7.93   458.4    7.6      48.815
2014    5       14     6  56    7.93   458.7    7.6      48.848
2014    5       14     7   2    7.92   458.9    7.6      48.881
2014    5       14     7   7    7.92   459.1    7.6      48.914
2014    5       14     7  13    7.92   459.4    7.6      48.947
2014    5       14     7  18    7.92   459.6    7.6      48.980
2014    5       14     7  24    7.92   459.8    7.6      49.014
2014    5       14     7  29    7.92   460.1    7.6      49.047
2014    5       14     7  35    7.92   460.3    7.6      49.080
2014    5       14     7  40    7.92   460.5    7.5      49.114
2014    5       14     7  45    7.91   460.8    7.5      49.147
2014    5       14     7  51    7.91   461.0    7.5      49.181
2014    5       14     7  56    7.91   461.2    7.5      49.214
2014    5       14     8   2    7.91   461.5    7.5      49.248
2014    5       14     8   7    7.91   461.7    7.5      49.281
2014    5       14     8  13    7.91   461.9    7.5      49.315
2014    5       14     8  18    7.91   462.2    7.5      49.349
2014    5       14     8  24    7.90   462.4    7.5      49.383
2014    5       14     8  29    7.90   462.6    7.5      49.417
2014    5       14     8  35    7.90   462.9    7.5      49.452
2014    5       14     8  40    7.90   463.1    7.4      49.486
2014    5       14     8  45    7.90   463.3    7.4      49.520
2014    5       14     8  51    7.90   463.6    7.4      49.554
2014    5       14     8  56    7.90   463.8    7.4      49.588
2014    5       14     9   2    7.89   464.0    7.4      49.622
2014    5       14     9   7    7.89   464.3    7.4      49.656
2014    5       14     9  13    7.89   464.5    7.4      49.690
2014    5       14     9  18    7.89   464.7    7.4      49.724
2014    5       14     9  24    7.89   465.0    7.4      49.758
2014    5       14     9  29    7.89   465.2    7.4      49.791
2014    5       14     9  34    7.89   465.4    7.4      49.825
2014    5       14     9  40    7.88   465.7    7.4      49.859
2014    5       14     9  45    7.88   465.9    7.3      49.892
2014    5       14     9  51    7.88   466.1    7.3      49.926
2014    5       14     9  56    7.88   466.4    7.3      49.959
2014    5       14    10   2    7.88   466.6    7.3      49.993
2014    5       14    10   7    7.88   466.8    7.3      50.027
2014    5       14    10  13    7.87   467.1    7.3      50.061
2014    5       14    10  18    7.87   467.3    7.3      50.095
2014    5       14    10  23    7.87   467.5    7.3      50.129
2014    5       14    10  29    7.87   467.8    7.3      50.163
2014    5       14    10  34    7.87   468.0    7.3      50.197
2014    5       14    10  40    7.87   468.2    7.3      50.231
2014    5       14    10  45    7.86   468.5    7.3      50.266
2014    5       14    10  51    7.86   468.7    7.2      50.300
2014    5       14    10  56    7.86   468.9    7.2      50.335
2014    5       14    11   2    7.86   469.2    7.2      50.370
2014    5       14    11   7    7.86   469.4    7.2      50.406
2014    5       14    11  12    7.86   469.6    7.2      50.441
2014    5       14    11  18    7.86   469.9    7.2      50.477
2014    5       14    11  23    7.85   470.1    7.2      50.513
2014    5       14    11  29    7.85   470.3    7.2      50.548
2014    5       14    11  34    7.85   470.6    7.2      50.584
2014    5       14    11  40    7.85   470.8    7.2      50.621
2014    5       14    11  45    7.85   471.0    7.2      50.657
2014    5       14    11  51    7.85   471.3    7.2      50.694
2014    5       14    11  56    7.84   471.5    7.1      50.732
2014    5       14    12   2    7.84   471.7    7.1      50.769
2014    5       14    12   7    7.84   472.0    7.1      50.807
2014    5       14    12  12    7.84   472.2    7.1      50.845
2014    5       14    12  18    7.84   472.4    7.1      50.884
2014    5       14    12  23    7.84   472.7    7.1      50.922
2014    5       14    12  29    7.84   472.9    7.1      50.961
2014    5       14    12  34    7.84   473.2    7.1      51.000
2014    5       14    12  40    7.83   473.4    7.1      51.039
2014    5       14    12  45    7.83   473.6    7.1      51.078
2014    5       14    12  51    7.83   473.9    7.1      51.116
2014    5       14    12  56    7.83   474.1    7.1      51.156
2014    5       14    13   1    7.83   474.4    7.1      51.195
2014    5       14    13   7    7.83   474.6    7.1      51.235
2014    5       14    13  12    7.83   474.8    7.0      51.275
2014    5       14    13  18    7.82   475.1    7.0      51.315
2014    5       14    13  23    7.82   475.3    7.0      51.355
2014    5       14    13  29    7.82   475.6    7.0      51.395
2014    5       14    13  34    7.82   475.8    7.0      51.435
2014    5       14    13  40    7.82   476.0    7.0      51.475
2014    5       14    13  45    7.82   476.3    7.0      51.515
2014    5       14    13  50    7.82   476.5    7.0      51.554
2014    5       14    13  56    7.81   476.8    7.0      51.594
2014    5       14    14   1    7.81   477.0    7.0      51.633
2014    5       14    14   7    7.81   477.3    7.0      51.673
2014    5       14    14  12    7.81   477.5    7.0      51.712
2014    5       14    14  18    7.81   477.8    7.0      51.752
2014    5       14    14  23    7.81   478.0    7.0      51.791
2014    5       14    14  29    7.81   478.2    6.9      51.831
2014    5       14    14  34    7.80   478.5    6.9      51.870
2014    5       14    14  39    7.80   478.7    6.9      51.910
2014    5       14    14  45    7.80   479.0    6.9      51.949
2014    5       14    14  50    7.80   479.2    6.9      51.989
2014    5       14    14  56    7.80   479.5    6.9      52.029
2014    5       14    15   1    7.80   479.7    6.9      52.068
2014    5       14    15   7    7.80   480.0    6.9      52.108
2014    5       14    15  12    7.79   480.2    6.9      52.149
2014    5       14    15  18    7.79   480.5    6.9      52.189
2014    5       14    15  23    7.79   480.7    6.9      52.230
2014    5       14    15  28    7.79   481.0    6.9      52.272
2014    5       14    15  34    7.79   481.2    6.9      52.313
2014    5       14    15  39    7.79   481.5    6.8      52.356
2014    5       14    15  45    7.78   481.7    6.8      52.398
2014    5       14    15  50    7.78   482.0    6.8      52.441
2014    5       14    15  56    7.78   482.2    6.8      52.483
2014    5       14    16   1    7.78   482.5    6.8      52.526
2014    5       14    16   7    7.78   482.7    6.8      52.570
2014    5       14    16  12    7.78   483.0    6.8      52.614
2014    5       14    16  17    7.78   483.2    6.8      52.658
2014    5       14    16  23    7.77   483.5    6.8      52.702
2014    5       14    16  28    7.77   483.8    6.8      52.748
2014    5       14    16  34    7.77   484.0    6.8      52.794
2014    5       14    16  39    7.77   484.3    6.8      52.841
2014    5       14    16  45    7.77   484.5    6.8      52.889
2014    5       14    16  50    7.77   484.8    6.8      52.938
2014    5       14    16  56    7.76   485.0    6.8      52.987
2014    5       14    17   1    7.76   485.3    6.7      53.037
2014    5       14    17   7    7.76   485.6    6.7      53.086
2014    5       14    17  12    7.76   485.8    6.7      53.135
2014    5       14    17  17    7.76   486.1    6.7      53.183
2014    5       14    17  23    7.76   486.4    6.7      53.231
2014    5       14    17  28    7.75   486.6    6.7      53.278
2014    5       14    17  34    7.75   486.9    6.7      53.325
2014    5       14    17  39    7.75   487.1    6.7      53.371
2014    5       14    17  45    7.75   487.4    6.7      53.416
2014    5       14    17  50    7.75   487.7    6.7      53.462
2014    5       14    17  56    7.75   487.9    6.7      53.506
2014    5       14    18   1    7.74   488.2    6.7      53.550
2014    5       14    18   6    7.74   488.5    6.7      53.593
2014    5       14    18  12    7.74   488.7    6.6      53.636
2014    5       14    18  17    7.74   489.0    6.6      53.679
2014    5       14    18  23    7.74   489.2    6.6      53.721
2014    5       14    18  28    7.74   489.5    6.6      53.763
2014    5       14    18  34    7.73   489.8    6.6      53.805
2014    5       14    18  39    7.73   490.0    6.6      53.846
2014    5       14    18  45    7.73   490.3    6.6      53.888
2014    5       14    18  50    7.73   490.6    6.6      53.929
2014    5       14    18  55    7.73   490.8    6.6      53.970
2014    5       14    19   1    7.73   491.1    6.6      54.011
2014    5       14    19   6    7.72   491.4    6.6      54.051
2014    5       14    19  12    7.72   491.6    6.6      54.092
2014    5       14    19  17    7.72   491.9    6.5      54.133
2014    5       14    19  23    7.72   492.2    6.5      54.173
2014    5       14    19  28    7.72   492.5    6.5      54.214
2014    5       14    19  34    7.71   492.7    6.5      54.255
2014    5       14    19  39    7.71   493.0    6.5      54.296
2014    5       14    19  44    7.71   493.3    6.5      54.337
2014    5       14    19  50    7.71   493.5    6.5      54.378
2014    5       14    19  55    7.71   493.8    6.5      54.419
2014    5       14    20   1    7.71   494.1    6.5      54.460
2014    5       14    20   6    7.70   494.4    6.5      54.501
2014    5       14    20  12    7.70   494.7    6.5      54.541
2014    5       14    20  17    7.70   494.9    6.5      54.581
2014    5       14    20  23    7.70   495.2    6.4      54.620
2014    5       14    20  28    7.70   495.5    6.4      54.659
2014    5       14    20  33    7.69   495.8    6.4      54.698
2014    5       14    20  39    7.69   496.0    6.4      54.737
2014    5       14    20  44    7.69   496.3    6.4      54.775
2014    5       14    20  50    7.69   496.6    6.4      54.814
2014    5       14    20  55    7.68   496.9    6.4      54.852
2014    5       14    21   1    7.68   497.1    6.4      54.890
2014    5       14    21   6    7.68   497.4    6.4      54.928
2014    5       14    21  12    7.68   497.7    6.4      54.965
2014    5       14    21  17    7.68   498.0    6.4      55.002
2014    5       14    21  22    7.67   498.3    6.3      55.039
2014    5       14    21  28    7.67   498.5    6.3      55.075
2014    5       14    21  33    7.67   498.8    6.3      55.112
2014    5       14    21  39    7.67   499.1    6.3      55.148
2014    5       14    21  44    7.66   499.3    6.3      55.183
2014    5       14    21  50    7.66   499.6    6.3      55.219
2014    5       14    21  55    7.66   499.9    6.3      55.254
2014    5       14    22   1    7.66   500.1    6.3      55.290
2014    5       14    22   6    7.65   500.4    6.3      55.326
2014    5       14    22  12    7.65   500.7    6.3      55.362
2014    5       14    22  17    7.65   501.0    6.3      55.399
2014    5       14    22  22    7.65   501.2    6.2      55.436
2014    5       14    22  28    7.64   501.5    6.2      55.474
2014    5       14    22  33    7.64   501.8    6.2      55.512
2014    5       14    22  39    7.64   502.1    6.2      55.552
2014    5       14    22  44    7.64   502.3    6.2      55.592
2014    5       14    22  50    7.64   502.6    6.2      55.633
2014    5       14    22  55    7.63   502.9    6.2      55.675
2014    5       14    23   1    7.63   503.2    6.2      55.718
2014    5       14    23   6    7.63   503.5    6.2      55.761
2014    5       14    23  11    7.63   503.7    6.2      55.806
2014    5       14    23  17    7.62   504.0    6.2      55.850
2014    5       14    23  22    7.62   504.3    6.2      55.895
2014    5       14    23  28    7.62   504.6    6.1      55.941
2014    5       14    23  33    7.61   504.9    6.1      55.989
2014    5       14    23  39    7.61   505.1    6.1      56.038
2014    5       14    23  44    7.61   505.4    6.1      56.089
2014    5       14    23  50    7.61   505.7    6.1      56.140
2014    5       14    23  55    7.60   506.0    6.1      56.192
2014    5       15     0   0    7.60   506.3    6.1      56.245
2014    5       15     0   6    7.60   506.6    6.1      56.298
2014    5       15     0  11    7.60   506.9    6.1      56.351
2014    5       15     0  17    7.59   507.1    6.1      56.403
2014    5       15     0  22    7.59   507.4    6.1      56.455
2014    5       15     0  28    7.59   507.7    6.1      56.507
2014    5       15     0  33    7.58   508.0    6.1      56.558
2014    5       15     0  39    7.58   508.3    6.0      56.609
2014    5       15     0  44    7.58   508.6    6.0      56.659
2014    5       15     0  49    7.57   508.9    6.0      56.708
2014    5       15     0  55    7.57   509.1    6.0      56.757
2014    5       15     1   0    7.57   509.4    6.0      56.805
2014    5       15     1   6    7.56   509.7    6.0      56.852
2014    5       15     1  11    7.56   510.0    6.0      56.898
2014    5       15     1  17    7.56   510.3    6.0      56.944
2014    5       15     1  22    7.55   510.6    6.0      56.988
2014    5       15     1  28    7.55   510.9    6.0      57.032
2014    5       15     1  33    7.55   511.1    6.0      57.075
2014    5       15     1  38    7.54   511.4    6.0      57.117
2014    5       15     1  44    7.54   511.7    5.9      57.158
2014    5       15     1  49    7.54   512.0    5.9      57.198
2014    5       15     1  55    7.53   512.3    5.9      57.238
2014    5       15     2   0    7.53   512.6    5.9      57.277
2014    5       15     2   6    7.53   512.9    5.9      57.315
2014    5       15     2  11    7.52   513.2    5.9      57.353
2014    5       15     2  17    7.52   513.5    5.9      57.390
2014    5       15     2  22    7.52   513.7    5.9      57.426
2014    5       15     2  28    7.51   514.0    5.9      57.462
2014    5       15     2  33    7.51   514.3    5.9      57.497
2014    5       15     2  38    7.51   514.6    5.9      57.532
2014    5       15     2  44    7.50   514.9    5.8      57.566
2014    5       15     2  49    7.50   515.2    5.8      57.599
2014    5       15     2  55    7.50   515.5    5.8      57.633
2014    5       15     3   0    7.49   515.8    5.8      57.665
2014    5       15     3   6    7.49   516.1    5.8      57.697
2014    5       15     3  11    7.48   516.4    5.8      57.728
2014    5       15     3  17    7.48   516.7    5.8      57.759
2014    5       15     3  22    7.48   516.9    5.8      57.790
2014    5       15     3  27    7.47   517.2    5.8      57.820
2014    5       15     3  33    7.47   517.5    5.7      57.849
2014    5       15     3  38    7.47   517.8    5.7      57.879
2014    5       15     3  44    7.46   518.1    5.7      57.908
2014    5       15     3  49    7.46   518.4    5.7      57.937
2014    5       15     3  55    7.45   518.7    5.7      57.965
2014    5       15     4   0    7.45   519.0    5.7      57.993
2014    5       15     4   6    7.45   519.3    5.7      58.021
2014    5       15     4  11    7.44   519.5    5.7      58.049
2014    5       15     4  16    7.44   519.8    5.7      58.076
2014    5       15     4  22    7.43   520.1    5.7      58.102
2014    5       15     4  27    7.43   520.4    5.6      58.129
2014    5       15     4  33    7.43   520.7    5.6      58.154
2014    5       15     4  38    7.42   521.0    5.6      58.179
2014    5       15     4  44    7.42   521.2    5.6      58.203
2014    5       15     4  49    7.41   521.5    5.6      58.228
2014    5       15     4  55    7.41   521.8    5.6      58.251
2014    5       15     5   0    7.40   522.1    5.6      58.275
2014    5       15     5   5    7.40   522.3    5.6      58.298
2014    5       15     5  11    7.40   522.6    5.6      58.322
2014    5       15     5  16    7.39   522.9    5.6      58.346
2014    5       15     5  22    7.39   523.2    5.5      58.370
2014    5       15     5  27    7.38   523.4    5.5      58.394
2014    5       15     5  33    7.38   523.7    5.5      58.419
2014    5       15     5  38    7.37   524.0    5.5      58.444
2014    5       15     5  44    7.37   524.2    5.5      58.470
2014    5       15     5  49    7.36   524.5    5.5      58.497
2014    5       15     5  54    7.36   524.8    5.5      58.524
2014    5       15     6   0    7.36   525.1    5.5      58.552
2014    5       15     6   5    7.35   525.3    5.5      58.580
2014    5       15     6  11    7.35   525.6    5.5      58.609
2014    5       15     6  16    7.34   525.9    5.4      58.637
2014    5       15     6  22    7.34   526.2    5.4      58.666
2014    5       15     6  27    7.33   526.5    5.4      58.695
2014    5       15     6  33    7.33   526.7    5.4      58.724
2014    5       15     6  38    7.32   527.0    5.4      58.753
2014    5       15     6  43    7.32   527.3    5.4      58.782
2014    5       15     6  49    7.31   527.6    5.4      58.811
2014    5       15     6  54    7.31   527.9    5.4      58.840
2014    5       15     7   0    7.30   528.1    5.4      58.868
2014    5       15     7   5    7.30   528.4    5.4      58.897
2014    5       15     7  11    7.29   528.7    5.4      58.925
2014    5       15     7  16    7.29   528.9    5.3      58.954
2014    5       15     7  22    7.28   529.2    5.3      58.982
2014    5       15     7  27    7.28   529.5    5.3      59.011
2014    5       15     7  33    7.27   529.7    5.3      59.040
2014    5       15     7  38    7.27   530.0    5.3      59.069
2014    5       15     7  43    7.26   530.2    5.3      59.098
2014    5       15     7  49    7.26   530.5    5.3      59.127
2014    5       15     7  54    7.25   530.8    5.3      59.156
2014    5       15     8   0    7.25   531.0    5.3      59.185
2014    5       15     8   5    7.24   531.3    5.3      59.214
2014    5       15     8  11    7.24   531.5    5.3      59.242
2014    5       15     8  16    7.23   531.8    5.3      59.270
2014    5       15     8  22    7.22   532.0    5.2      59.298
2014    5       15     8  27    7.22   532.3    5.2      59.326
2014    5       15     8  32    7.21   532.5    5.2      59.354
2014    5       15     8  38    7.21   532.7    5.2      59.381
2014    5       15     8  43    7.20   533.0    5.2      59.409
2014    5       15     8  49    7.20   533.2    5.2      59.436
2014    5       15     8  54    7.19   533.5    5.2      59.464
2014    5       15     9   0    7.19   533.7    5.2      59.491
2014    5       15     9   5    7.18   534.0    5.2      59.519
2014    5       15     9  11    7.18   534.2    5.2      59.546
2014    5       15     9  16    7.17   534.4    5.2      59.574
2014    5       15     9  21    7.17   534.7    5.2      59.601
2014    5       15     9  27    7.16   534.9    5.1      59.628
2014    5       15     9  32    7.16   535.1    5.1      59.654
2014    5       15     9  38    7.15   535.4    5.1      59.681
2014    5       15     9  43    7.15   535.6    5.1      59.706
2014    5       15     9  49    7.14   535.9    5.1      59.731
2014    5       15     9  54    7.14   536.1    5.1      59.755
2014    5       15    10   0    7.13   536.3    5.1      59.778
2014    5       15    10   5    7.13   536.6    5.1      59.801
2014    5       15    10  10    7.12   536.8    5.1      59.822
2014    5       15    10  16    7.12   537.1    5.1      59.844
2014    5       15    10  21    7.11   537.3    5.1      59.865
2014    5       15    10  27    7.11   537.5    5.1      59.885
2014    5       15    10  32    7.10   537.8    5.1      59.904
2014    5       15    10  38    7.09   538.0    5.0      59.923
2014    5       15    10  43    7.09   538.3    5.0      59.941
2014    5       15    10  49    7.08   538.5    5.0      59.958
2014    5       15    10  54    7.08   538.8    5.0      59.974
2014    5       15    10  59    7.07   539.0    5.0      59.991
2014    5       15    11   5    7.07   539.2    5.0      60.006
2014    5       15    11  10    7.06   539.5    5.0      60.021
2014    5       15    11  16    7.06   539.7    5.0      60.036
2014    5       15    11  21    7.05   540.0    5.0      60.050
2014    5       15    11  27    7.05   540.2    5.0      60.063
2014    5       15    11  32    7.04   540.4    5.0      60.076
2014    5       15    11  38    7.04   540.7    5.0      60.088
2014    5       15    11  43    7.03   540.9    5.0      60.100
2014    5       15    11  48    7.02   541.1    4.9      60.111
2014    5       15    11  54    7.02   541.4    4.9      60.122
2014    5       15    11  59    7.01   541.6    4.9      60.132
2014    5       15    12   5    7.01   541.8    4.9      60.142
2014    5       15    12  10    7.00   542.1    4.9      60.151
2014    5       15    12  16    7.00   542.3    4.9      60.161
2014    5       15    12  21    6.99   542.5    4.9      60.170
2014    5       15    12  27    6.99   542.7    4.9      60.178
2014    5       15    12  32    6.98   543.0    4.9      60.187
2014    5       15    12  38    6.97   543.2    4.9      60.196
2014    5       15    12  43    6.97   543.4    4.9      60.205
2014    5       15    12  48    6.96   543.6    4.9      60.214
2014    5       15    12  54    6.96   543.9    4.8      60.223
2014    5       15    12  59    6.95   544.1    4.8      60.232
2014    5       15    13   5    6.95   544.3    4.8      60.241
2014    5       15    13  10    6.94   544.6    4.8      60.250
2014    5       15    13  16    6.93   544.8    4.8      60.259
2014    5       15    13  21    6.93   545.0    4.8      60.268
2014    5       15    13  27    6.92   545.2    4.8      60.276
2014    5       15    13  32    6.92   545.5    4.8      60.285
2014    5       15    13  37    6.91   545.7    4.8      60.293
2014    5       15    13  43    6.91   545.9    4.8      60.301
2014    5       15    13  48    6.90   546.1    4.8      60.309
2014    5       15    13  54    6.89   546.3    4.8      60.316
2014    5       15    13  59    6.89   546.5    4.7      60.323
2014    5       15    14   5    6.88   546.8    4.7      60.330
2014    5       15    14  10    6.88   547.0    4.7      60.337
2014    5       15    14  16    6.87   547.2    4.7      60.344
2014    5       15    14  21    6.86   547.4    4.7      60.351
2014    5       15    14  26    6.86   547.6    4.7      60.358
2014    5       15    14  32    6.85   547.8    4.7      60.366
2014    5       15    14  37    6.85   548.0    4.7      60.373
2014    5       15    14  43    6.84   548.2    4.7      60.380
2014    5       15    14  48    6.83   548.4    4.7      60.388
2014    5       15    14  54    6.83   548.6    4.7      60.396
2014    5       15    14  59    6.82   548.8    4.7      60.404
2014    5       15    15   5    6.82   549.0    4.7      60.412
2014    5       15    15  10    6.81   549.2    4.7      60.420
2014    5       15    15  15    6.80   549.3    4.6      60.429
2014    5       15    15  21    6.80   549.5    4.6      60.438
2014    5       15    15  26    6.79   549.7    4.6      60.447
2014    5       15    15  32    6.79   549.9    4.6      60.456
2014    5       15    15  37    6.78   550.1    4.6      60.466
2014    5       15    15  43    6.77   550.3    4.6      60.475
2014    5       15    15  48    6.77   550.4    4.6      60.485
2014    5       15    15  54    6.76   550.6    4.6      60.495
2014    5       15    15  59    6.76   550.8    4.6      60.505
2014    5       15    16   4    6.75   550.9    4.6      60.515
2014    5       15    16  10    6.74   551.1    4.6      60.525
2014    5       15    16  15    6.74   551.3    4.6      60.535
2014    5       15    16  21    6.73   551.5    4.6      60.544
2014    5       15    16  26    6.73   551.6    4.6      60.554
2014    5       15    16  32    6.72   551.8    4.6      60.563
2014    5       15    16  37    6.72   552.0    4.5      60.571
2014    5       15    16  43    6.71   552.1    4.5      60.579
2014    5       15    16  48    6.70   552.3    4.5      60.586
2014    5       15    16  53    6.70   552.4    4.5      60.593
2014    5       15    16  59    6.69   552.6    4.5      60.599
2014    5       15    17   4    6.69   552.8    4.5      60.604
2014    5       15    17  10    6.68   552.9    4.5      60.608
2014    5       15    17  15    6.67   553.1    4.5      60.612
2014    5       15    17  21    6.67   553.3    4.5      60.615
2014    5       15    17  26    6.66   553.4    4.5      60.618
2014    5       15    17  32    6.66   553.6    4.5      60.619
2014    5       15    17  37    6.65   553.7    4.5      60.620
2014    5       15    17  42    6.65   553.9    4.5      60.620
2014    5       15    17  48    6.64   554.1    4.5      60.619
2014    5       15    17  53    6.63   554.2    4.5      60.618
2014    5       15    17  59    6.63   554.4    4.5      60.616
2014    5       15    18   4    6.62   554.5    4.5      60.614
2014    5       15    18  10    6.62   554.7    4.5      60.611
2014    5       15    18  15    6.61   554.8    4.4      60.608
2014    5       15    18  21    6.61   555.0    4.4      60.604
2014    5       15    18  26    6.60   555.2    4.4      60.600
2014    5       15    18  32    6.59   555.3    4.4      60.595
2014    5       15    18  37    6.59   555.5    4.4      60.590
2014    5       15    18  42    6.58   555.6    4.4      60.584
2014    5       15    18  48    6.58   555.8    4.4      60.578
2014    5       15    18  53    6.57   555.9    4.4      60.572
2014    5       15    18  59    6.57   556.1    4.4      60.565
2014    5       15    19   4    6.56   556.2    4.4      60.558
2014    5       15    19  10    6.55   556.4    4.4      60.550
2014    5       15    19  15    6.55   556.5    4.4      60.543
2014    5       15    19  21    6.54   556.7    4.4      60.535
2014    5       15    19  26    6.54   556.9    4.4      60.527
2014    5       15    19  31    6.53   557.0    4.4      60.519
2014    5       15    19  37    6.52   557.1    4.4      60.511
2014    5       15    19  42    6.52   557.3    4.4      60.502
2014    5       15    19  48    6.51   557.4    4.3      60.494
2014    5       15    19  53    6.51   557.6    4.3      60.486
2014    5       15    19  59    6.50   557.7    4.3      60.477
2014    5       15    20   4    6.50   557.9    4.3      60.468
2014    5       15    20  10    6.49   558.0    4.3      60.460
2014    5       15    20  15    6.48   558.2    4.3      60.452
2014    5       15    20  20    6.48   558.3    4.3      60.443
2014    5       15    20  26    6.47   558.5    4.3      60.435
2014    5       15    20  31    6.47   558.6    4.3      60.427
2014    5       15    20  37    6.46   558.7    4.3      60.420
2014    5       15    20  42    6.46   558.9    4.3      60.412
2014    5       15    20  48    6.45   559.0    4.3      60.405
2014    5       15    20  53    6.44   559.2    4.3      60.398
2014    5       15    20  59    6.44   559.3    4.3      60.391
2014    5       15    21   4    6.43   559.4    4.3      60.385
2014    5       15    21   9    6.43   559.6    4.3      60.378
2014    5       15    21  15    6.42   559.7    4.3      60.372
2014    5       15    21  20    6.42   559.9    4.2      60.366
2014    5       15    21  26    6.41   560.0    4.2      60.361
2014    5       15    21  31    6.40   560.1    4.2      60.355
2014    5       15    21  37    6.40   560.3    4.2      60.349
2014    5       15    21  42    6.39   560.4    4.2      60.344
2014    5       15    21  48    6.39   560.5    4.2      60.339
2014    5       15    21  53    6.38   560.6    4.2      60.334
2014    5       15    21  58    6.38   560.8    4.2      60.329
2014    5       15    22   4    6.37   560.9    4.2      60.324
2014    5       15    22   9    6.36   561.0    4.2      60.319
2014    5       15    22  15    6.36   561.2    4.2      60.315
2014    5       15    22  20    6.35   561.3    4.2      60.310
2014    5       15    22  26    6.35   561.4    4.2      60.305
2014    5       15    22  31    6.34   561.5    4.2      60.300
2014    5       15    22  37    6.33   561.6    4.2      60.295
2014    5       15    22  42    6.33   561.8    4.2      60.290
2014    5       15    22  47    6.32   561.9    4.2      60.285
2014    5       15    22  53    6.32   562.0    4.2      60.280
2014    5       15    22  58    6.31   562.1    4.2      60.275
2014    5       15    23   4    6.31   562.2    4.1      60.269
2014    5       15    23   9    6.30   562.3    4.1      60.264
2014    5       15    23  15    6.29   562.4    4.1      60.258
2014    5       15    23  20    6.29   562.6    4.1      60.252
2014    5       15    23  26    6.28   562.7    4.1      60.245
2014    5       15    23  31    6.28   562.8    4.1      60.238
2014    5       15    23  37    6.27   562.9    4.1      60.231
2014    5       15    23  42    6.27   563.0    4.1      60.223
2014    5       15    23  47    6.26   563.1    4.1      60.215
2014    5       15    23  53    6.25   563.2    4.1      60.207
2014    5       15    23  58    6.25   563.3    4.1      60.198
2014    5       16     0   4    6.24   563.4    4.1      60.188
2014    5       16     0   9    6.24   563.5    4.1      60.178
2014    5       16     0  15    6.23   563.6    4.1      60.166
2014    5       16     0  20    6.22   563.7    4.1      60.154
2014    5       16     0  26    6.22   563.8    4.1      60.141
2014    5       16     0  31    6.21   563.9    4.1      60.127
2014    5       16     0  36    6.21   563.9    4.1      60.112
2014    5       16     0  42    6.20   564.0    4.1      60.097
2014    5       16     0  47    6.20   564.1    4.1      60.080
2014    5       16     0  53    6.19   564.2    4.1      60.063
2014    5       16     0  58    6.18   564.3    4.1      60.046
2014    5       16     1   4    6.18   564.4    4.0      60.027
2014    5       16     1   9    6.17   564.5    4.0      60.008
2014    5       16     1  15    6.17   564.5    4.0      59.989
2014    5       16     1  20    6.16   564.6    4.0      59.969
2014    5       16     1  25    6.16   564.7    4.0      59.948
2014    5       16     1  31    6.15   564.8    4.0      59.927
2014    5       16     1  36    6.15   564.8    4.0      59.906
2014    5       16     1  42    6.14   564.9    4.0      59.884
2014    5       16     1  47    6.13   565.0    4.0      59.862
2014    5       16     1  53    6.13   565.0    4.0      59.840
2014    5       16     1  58    6.12   565.1    4.0      59.817
2014    5       16     2   4    6.12   565.2    4.0      59.794
2014    5       16     2   9    6.11   565.3    4.0      59.771
2014    5       16     2  14    6.11   565.3    4.0      59.748
2014    5       16     2  20    6.10   565.4    4.0      59.725
2014    5       16     2  25    6.10   565.4    4.0      59.701
2014    5       16     2  31    6.09   565.5    4.0      59.678
2014    5       16     2  36    6.08   565.6    4.0      59.654
2014    5       16     2  42    6.08   565.6    4.0      59.631
2014    5       16     2  47    6.07   565.7    4.0      59.607
2014    5       16     2  53    6.07   565.8    4.0      59.584
2014    5       16     2  58    6.06   565.8    4.0      59.561
2014    5       16     3   3    6.06   565.9    3.9      59.538
2014    5       16     3   9    6.05   565.9    3.9      59.515
2014    5       16     3  14    6.05   566.0    3.9      59.492
2014    5       16     3  20    6.04   566.0    3.9      59.469
2014    5       16     3  25    6.04   566.1    3.9      59.446
2014    5       16     3  31    6.03   566.1    3.9      59.424
2014    5       16     3  36    6.03   566.2    3.9      59.402
2014    5       16     3  42    6.02   566.2    3.9      59.379
2014    5       16     3  47    6.01   566.3    3.9      59.358
2014    5       16     3  52    6.01   566.3    3.9      59.336
2014    5       16     3  58    6.00   566.4    3.9      59.314
2014    5       16     4   3    6.00   566.4    3.9      59.293
2014    5       16     4   9    5.99   566.5    3.9      59.272
2014    5       16     4  14    5.99   566.5    3.9      59.251
2014    5       16     4  20    5.98   566.6    3.9      59.230
2014    5       16     4  25    5.98   566.6    3.9      59.210
2014    5       16     4  31    5.97   566.7    3.9      59.190
2014    5       16     4  36    5.97   566.7    3.9      59.170
2014    5       16     4  41    5.96   566.8    3.9      59.151
2014    5       16     4  47    5.96   566.8    3.9      59.132
2014    5       16     4  52    5.95   566.9    3.9      59.113
2014    5       16     4  58    5.95   566.9    3.9      59.095
2014    5       16     5   3    5.94   566.9    3.9      59.077
2014    5       16     5   9    5.94   567.0    3.9      59.059
2014    5       16     5  14    5.93   567.0    3.8      59.042
2014    5       16     5  20    5.93   567.1    3.8      59.025
2014    5       16     5  25    5.92   567.1    3.8      59.009
2014    5       16     5  30    5.92   567.2    3.8      58.993
2014    5       16     5  36    5.91   567.2    3.8      58.977
2014    5       16     5  41    5.91   567.2    3.8      58.961
2014    5       16     5  47    5.90   567.3    3.8      58.946
2014    5       16     5  52    5.90   567.3    3.8      58.932
2014    5       16     5  58    5.89   567.4    3.8      58.917
2014    5       16     6   3    5.89   567.4    3.8      58.903
2014    5       16     6   9    5.88   567.4    3.8      58.890
2014    5       16     6  14    5.88   567.5    3.8      58.876
2014    5       16     6  20    5.87   567.5    3.8      58.863
2014    5       16     6  25    5.87   567.6    3.8      58.851
2014    5       16     6  30    5.86   567.6    3.8      58.838
2014    5       16     6  36    5.86   567.6    3.8      58.826
2014    5       16     6  41    5.85   567.7    3.8      58.813
2014    5       16     6  47    5.85   567.7    3.8      58.801
2014    5       16     6  52    5.84   567.7    3.8      58.789
2014    5       16     6  58    5.84   567.8    3.8      58.777
2014    5       16     7   3    5.83   567.8    3.8      58.765
2014    5       16     7   9    5.83   567.9    3.8      58.752
2014    5       16     7  14    5.82   567.9    3.8      58.740
2014    5       16     7  19    5.82   567.9    3.8      58.727
2014    5       16     7  25    5.81   567.9    3.8      58.714
2014    5       16     7  30    5.81   568.0    3.8      58.701
2014    5       16     7  36    5.80   568.0    3.8      58.687
2014    5       16     7  41    5.80   568.0    3.8      58.672
2014    5       16     7  47    5.79   568.1    3.8      58.656
2014    5       16     7  52    5.79   568.1    3.8      58.640
2014    5       16     7  58    5.78   568.1    3.8      58.622
2014    5       16     8   3    5.78   568.1    3.8      58.603
2014    5       16     8   8    5.77   568.1    3.8      58.584
2014    5       16     8  14    5.77   568.2    3.8      58.564
2014    5       16     8  19    5.76   568.2    3.8      58.543
2014    5       16     8  25    5.76   568.2    3.8      58.521
2014    5       16     8  30    5.75   568.2    3.7      58.498
2014    5       16     8  36    5.75   568.2    3.7      58.475
2014    5       16     8  41    5.74   568.2    3.7      58.451
2014    5       16     8  47    5.74   568.2    3.7      58.427
2014    5       16     8  52    5.73   568.2    3.7      58.402
2014    5       16     8  57    5.73   568.2    3.7      58.377
2014    5       16     9   3    5.72   568.2    3.7      58.350
2014    5       16     9   8    5.72   568.2    3.7      58.324
2014    5       16     9  14    5.71   568.2    3.7      58.297
2014    5       16     9  19    5.71   568.2    3.7      58.269
2014    5       16     9  25    5.70   568.2    3.7      58.241
2014    5       16     9  30    5.70   568.2    3.7      58.212
2014    5       16     9  36    5.69   568.2    3.7      58.184
2014    5       16     9  41    5.69   568.2    3.7      58.154
2014    5       16     9  46    5.69   568.2    3.7      58.124
2014    5       16     9  52    5.68   568.2    3.7      58.094
2014    5       16     9  57    5.68   568.2    3.7      58.064
2014    5       16    10   3    5.67   568.1    3.7      58.033
2014    5       16    10   8    5.67   568.1    3.7      58.002
2014    5       16    10  14    5.66   568.1    3.7      57.971
2014    5       16    10  19    5.66   568.1    3.7      57.940
2014    5       16    10  25    5.65   568.1    3.7      57.908
2014    5       16    10  30    5.65   568.1    3.7      57.876
2014    5       16    10  35    5.64   568.0    3.7      57.844
2014    5       16    10  41    5.64   568.0    3.7      57.812
2014    5       16    10  46    5.64   568.0    3.7      57.780
2014    5       16    10  52    5.63   568.0    3.7      57.747
2014    5       16    10  57    5.63   567.9    3.7      57.715
2014    5       16    11   3    5.62   567.9    3.7      57.682
2014    5       16    11   8    5.62   567.9    3.7      57.649
2014    5       16    11  14    5.61   567.9    3.7      57.617
2014    5       16    11  19    5.61   567.8    3.7      57.584
2014    5       16    11  24    5.60   567.8    3.7      57.551
2014    5       16    11  30    5.60   567.8    3.7      57.519
2014    5       16    11  35    5.60   567.8    3.6      57.487
2014    5       16    11  41    5.59   567.7    3.6      57.455
2014    5       16    11  46    5.59   567.7    3.6      57.423
2014    5       16    11  52    5.58   567.7    3.6      57.391
2014    5       16    11  57    5.58   567.6    3.6      57.360
2014    5       16    12   3    5.57   567.6    3.6      57.329
2014    5       16    12   8    5.57   567.6    3.6      57.298
2014    5       16    12  13    5.57   567.5    3.6      57.268
2014    5       16    12  19    5.56   567.5    3.6      57.239
2014    5       16    12  24    5.56   567.5    3.6      57.210
2014    5       16    12  30    5.55   567.4    3.6      57.182
2014    5       16    12  35    5.55   567.4    3.6      57.154
2014    5       16    12  41    5.55   567.4    3.6      57.127
2014    5       16    12  46    5.54   567.3    3.6      57.100
2014    5       16    12  52    5.54   567.3    3.6      57.075
2014    5       16    12  57    5.53   567.3    3.6      57.050
2014    5       16    13   3    5.53   567.2    3.6      57.026
2014    5       16    13   8    5.53   567.2    3.6      57.002
2014    5       16    13  13    5.52   567.2    3.6      56.980
2014    5       16    13  19    5.52   567.2    3.6      56.958
2014    5       16    13  24    5.51   567.1    3.6      56.936
2014    5       16    13  30    5.51   567.1    3.6      56.915
2014    5       16    13  35    5.50   567.1    3.6      56.895
2014    5       16    13  41    5.50   567.1    3.6      56.875
2014    5       16    13  46    5.50   567.0    3.6      56.856
2014    5       16    13  52    5.49   567.0    3.6      56.837
2014    5       16    13  57    5.49   567.0    3.6      56.818
2014    5       16    14   2    5.48   566.9    3.6      56.800
2014    5       16    14   8    5.48   566.9    3.6      56.782
2014    5       16    14  13    5.48   566.9    3.6      56.765
2014    5       16    14  19    5.47   566.8    3.6      56.747
2014    5       16    14  24    5.47   566.8    3.6      56.730
2014    5       16    14  30    5.46   566.8    3.6      56.713
2014    5       16    14  35    5.46   566.8    3.6      56.696
2014    5       16    14  41    5.46   566.7    3.6      56.678
2014    5       16    14  46    5.45   566.7    3.6      56.661
2014    5       16    14  51    5.45   566.7    3.6      56.643
2014    5       16    14  57    5.44   566.6    3.6      56.625
2014    5       16    15   2    5.44   566.6    3.6      56.607
2014    5       16    15   8    5.44   566.6    3.6      56.588
2014    5       16    15  13    5.43   566.5    3.6      56.569
2014    5       16    15  19    5.43   566.5    3.6      56.549
2014    5       16    15  24    5.42   566.5    3.6      56.529
2014    5       16    15  30    5.42   566.4    3.6      56.508
2014    5       16    15  35    5.42   566.4    3.6      56.486
2014    5       16    15  40    5.41   566.3    3.6      56.465
2014    5       16    15  46    5.41   566.3    3.6      56.443
2014    5       16    15  51    5.40   566.2    3.6      56.420
2014    5       16    15  57    5.40   566.2    3.6      56.398
2014    5       16    16   2    5.40   566.2    3.6      56.375
2014    5       16    16   8    5.39   566.1    3.6      56.353
2014    5       16    16  13    5.39   566.1    3.6      56.330
2014    5       16    16  19    5.38   566.0    3.5      56.307
2014    5       16    16  24    5.38   566.0    3.5      56.285
2014    5       16    16  29    5.38   565.9    3.5      56.262
2014    5       16    16  35    5.37   565.9    3.5      56.240
2014    5       16    16  40    5.37   565.8    3.5      56.218
2014    5       16    16  46    5.37   565.8    3.5      56.196
2014    5       16    16  51    5.36   565.7    3.5      56.174
2014    5       16    16  57    5.36   565.7    3.5      56.152
2014    5       16    17   2    5.36   565.6    3.5      56.130
2014    5       16    17   8    5.35   565.6    3.5      56.108
2014    5       16    17  13    5.35   565.5    3.5      56.086
2014    5       16    17  18    5.34   565.5    3.5      56.064
2014    5       16    17  24    5.34   565.5    3.5      56.041
2014    5       16    17  29    5.34   565.4    3.5      56.017
2014    5       16    17  35    5.33   565.3    3.5      55.992
2014    5       16    17  40    5.33   565.3    3.5      55.966
2014    5       16    17  46    5.33   565.2    3.5      55.940
2014    5       16    17  51    5.32   565.2    3.5      55.912
2014    5       16    17  57    5.32   565.1    3.5      55.884
2014    5       16    18   2    5.31   565.1    3.5      55.855
2014    5       16    18   7    5.31   565.0    3.5      55.825
2014    5       16    18  13    5.31   564.9    3.5      55.795
2014    5       16    18  18    5.30   564.9    3.5      55.764
2014    5       16    18  24    5.30   564.8    3.5      55.733
2014    5       16    18  29    5.29   564.7    3.5      55.701
2014    5       16    18  35    5.29   564.6    3.5      55.668
2014    5       16    18  40    5.29   564.6    3.5      55.636
2014    5       16    18  46    5.28   564.5    3.5      55.603
2014    5       16    18  51    5.28   564.4    3.5      55.569
2014    5       16    18  56    5.28   564.3    3.5      55.536
2014    5       16    19   2    5.27   564.3    3.5      55.502
2014    5       16    19   7    5.27   564.2    3.5      55.468
2014    5       16    19  13    5.26   564.1    3.5      55.434
2014    5       16    19  18    5.26   564.0    3.5      55.400
2014    5       16    19  24    5.26   564.0    3.5      55.367
2014    5       16    19  29    5.25   563.9    3.5      55.333
2014    5       16    19  35    5.25   563.8    3.5      55.299
2014    5       16    19  40    5.25   563.7    3.5      55.266
2014    5       16    19  46    5.24   563.6    3.5      55.233
2014    5       16    19  51    5.24   563.6    3.5      55.200
2014    5       16    19  56    5.24   563.5    3.5      55.167
2014    5       16    20   2    5.23   563.4    3.5      55.135
2014    5       16    20   7    5.23   563.3    3.5      55.103
2014    5       16    20  13    5.23   563.2    3.5      55.071
2014    5       16    20  18    5.22   563.1    3.5      55.040
2014    5       16    20  24    5.22   563.1    3.5      55.009
2014    5       16    20  29    5.22   563.0    3.5      54.978
2014    5       16    20  35    5.21   562.9    3.5      54.948
2014    5       16    20  40    5.21   562.8    3.5      54.918
2014    5       16    20  45    5.21   562.7    3.5      54.888
2014    5       16    20  51    5.20   562.7    3.5      54.858
2014    5       16    20  56    5.20   562.6    3.5      54.828
2014    5       16    21   2    5.20   562.5    3.5      54.799
2014    5       16    21   7    5.19   562.4    3.5      54.770
2014    5       16    21  13    5.19   562.3    3.5      54.740
2014    5       16    21  18    5.19   562.3    3.5      54.712
2014    5       16    21  24    5.18   562.2    3.5      54.682
2014    5       16    21  29    5.18   562.1    3.5      54.653
2014    5       16    21  34    5.18   562.0    3.5      54.624
2014    5       16    21  40    5.17   561.9    3.5      54.595
2014    5       16    21  45    5.17   561.8    3.5      54.566
2014    5       16    21  51    5.17   561.7    3.5      54.537
2014    5       16    21  56    5.16   561.6    3.5      54.507
2014    5       16    22   2    5.16   561.6    3.5      54.478
2014    5       16    22   7    5.16   561.5    3.5      54.449
2014    5       16    22  13    5.15   561.4    3.5      54.419
2014    5       16    22  18    5.15   561.3    3.5      54.390
2014    5       16    22  23    5.15   561.2    3.5      54.360
2014    5       16    22  29    5.14   561.1    3.5      54.331
2014    5       16    22  34    5.14   561.0    3.5      54.301
2014    5       16    22  40    5.14   560.9    3.5      54.272
2014    5       16    22  45    5.14   560.8    3.4      54.242
2014    5       16    22  51    5.13   560.7    3.4      54.213
2014    5       16    22  56    5.13   560.6    3.4      54.184
2014    5       16    23   2    5.13   560.6    3.4      54.156
2014    5       16    23   7    5.12   560.5    3.4      54.127
2014    5       16    23  12    5.12   560.4    3.4      54.099
2014    5       16    23  18    5.12   560.3    3.4      54.072
2014    5       16    23  23    5.12   560.2    3.4      54.045
2014    5       16    23  29    5.11   560.1    3.4      54.019
2014    5       16    23  34    5.11   560.0    3.4      53.994
2014    5       16    23  40    5.11   559.9    3.4      53.969
2014    5       16    23  45    5.10   559.8    3.4      53.946
2014    5       16    23  51    5.10   559.7    3.4      53.923
2014    5       16    23  56    5.10   559.7    3.4      53.901
2014    5       17     0   1    5.10   559.6    3.4      53.880
2014    5       17     0   7    5.09   559.5    3.4      53.859
2014    5       17     0  12    5.09   559.4    3.4      53.840
2014    5       17     0  18    5.09   559.3    3.4      53.821
2014    5       17     0  23    5.08   559.2    3.4      53.803
2014    5       17     0  29    5.08   559.2    3.4      53.786
2014    5       17     0  34    5.08   559.1    3.4      53.769
2014    5       17     0  40    5.08   559.0    3.4      53.752
2014    5       17     0  45    5.07   558.9    3.4      53.735
2014    5       17     0  50    5.07   558.9    3.4      53.717
2014    5       17     0  56    5.07   558.8    3.4      53.698
2014    5       17     1   1    5.06   558.7    3.4      53.678
2014    5       17     1   7    5.06   558.6    3.4      53.656
2014    5       17     1  12    5.06   558.5    3.4      53.632
2014    5       17     1  18    5.05   558.4    3.4      53.607
2014    5       17     1  23    5.05   558.3    3.4      53.581
2014    5       17     1  29    5.05   558.3    3.4      53.555
2014    5       17     1  34    5.04   558.2    3.4      53.527
2014    5       17     1  39    5.04   558.1    3.4      53.499
2014    5       17     1  45    5.04   558.0    3.4      53.470
2014    5       17     1  50    5.03   557.9    3.4      53.441
2014    5       17     1  56    5.03   557.8    3.4      53.411
2014    5       17     2   1    5.03   557.7    3.4      53.380
2014    5       17     2   7    5.02   557.6    3.4      53.350
2014    5       17     2  12    5.02   557.5    3.4      53.318
2014    5       17     2  18    5.02   557.4    3.4      53.287
2014    5       17     2  23    5.02   557.2    3.4      53.255
2014    5       17     2  29    5.01   557.1    3.4      53.222
2014    5       17     2  34    5.01   557.0    3.4      53.189
2014    5       17     2  39    5.01   556.9    3.4      53.156
2014    5       17     2  45    5.00   556.8    3.4      53.123
2014    5       17     2  50    5.00   556.7    3.4      53.089
2014    5       17     2  56    5.00   556.6    3.4      53.055
2014    5       17     3   1    4.99   556.5    3.4      53.021
2014    5       17     3   7    4.99   556.4    3.4      52.986
2014    5       17     3  12    4.99   556.3    3.4      52.952
2014    5       17     3  18    4.99   556.2    3.4      52.917
2014    5       17     3  23    4.98   556.0    3.4      52.882
2014    5       17     3  28    4.98   555.9    3.4      52.847
2014    5       17     3  34    4.98   555.8    3.4      52.813
2014    5       17     3  39    4.98   555.7    3.4      52.778
2014    5       17     3  45    4.97   555.6    3.4      52.743
2014    5       17     3  50    4.97   555.5    3.4      52.709
2014    5       17     3  56    4.97   555.4    3.4      52.675
2014    5       17     4   1    4.96   555.2    3.4      52.641
2014    5       17     4   7    4.96   555.1    3.4      52.607
2014    5       17     4  12    4.96   555.0    3.4      52.574
2014    5       17     4  17    4.96   554.9    3.4      52.541
2014    5       17     4  23    4.95   554.8    3.4      52.509
2014    5       17     4  28    4.95   554.7    3.4      52.477
2014    5       17     4  34    4.95   554.5    3.4      52.447
2014    5       17     4  39    4.95   554.4    3.4      52.416
2014    5       17     4  45    4.95   554.3    3.4      52.387
2014    5       17     4  50    4.94   554.2    3.4      52.359
2014    5       17     4  56    4.94   554.1    3.4      52.331
2014    5       17     5   1    4.94   554.0    3.4      52.303
2014    5       17     5   6    4.94   553.8    3.4      52.278
2014    5       17     5  12    4.93   553.7    3.4      52.255
2014    5       17     5  17    4.93   553.6    3.4      52.233
2014    5       17     5  23    4.93   553.5    3.4      52.212
2014    5       17     5  28    4.93   553.4    3.4      52.193
2014    5       17     5  34    4.93   553.3    3.4      52.175
2014    5       17     5  39    4.92   553.2    3.4      52.157
2014    5       17     5  45    4.92   553.1    3.4      52.138
2014    5       17     5  50    4.92   553.0    3.4      52.118
2014    5       17     5  55    4.92   552.8    3.4      52.097
2014    5       17     6   1    4.91   552.7    3.4      52.077
2014    5       17     6   6    4.91   552.6    3.4      52.055
2014    5       17     6  12    4.91   552.5    3.4      52.033
2014    5       17     6  17    4.91   552.4    3.4      52.010
2014    5       17     6  23    4.90   552.3    3.4      51.986
2014    5       17     6  28    4.90   552.2    3.4      51.961
2014    5       17     6  34    4.90   552.1    3.4      51.936
2014    5       17     6  39    4.90   551.9    3.4      51.910
2014    5       17     6  44    4.89   551.8    3.4      51.884
2014    5       17     6  50    4.89   551.7    3.4      51.858
2014    5       17     6  55    4.89   551.6    3.4      51.831
2014    5       17     7   1    4.89   551.5    3.4      51.803
2014    5       17     7   6    4.88   551.3    3.4      51.776
2014    5       17     7  12    4.88   551.2    3.4      51.749
2014    5       17     7  17    4.88   551.1    3.4      51.722
2014    5       17     7  23    4.88   551.0    3.4      51.694
2014    5       17     7  28    4.87   550.9    3.4      51.667
2014    5       17     7  33    4.87   550.7    3.4      51.639
2014    5       17     7  39    4.87   550.6    3.4      51.612
2014    5       17     7  44    4.87   550.5    3.4      51.585
2014    5       17     7  50    4.86   550.4    3.4      51.558
2014    5       17     7  55    4.86   550.3    3.4      51.531
2014    5       17     8   1    4.86   550.1    3.4      51.504
2014    5       17     8   6    4.86   550.0    3.4      51.477
2014    5       17     8  12    4.85   549.9    3.4      51.450
2014    5       17     8  17    4.85   549.8    3.4      51.422
2014    5       17     8  22    4.85   549.7    3.4      51.395
2014    5       17     8  28    4.85   549.5    3.4      51.366
2014    5       17     8  33    4.84   549.4    3.4      51.337
2014    5       17     8  39    4.84   549.3    3.4      51.307
2014    5       17     8  44    4.84   549.2    3.4      51.276
2014    5       17     8  50    4.84   549.0    3.4      51.244
2014    5       17     8  55    4.83   548.9    3.4      51.212
2014    5       17     9   1    4.83   548.8    3.4      51.178
2014    5       17     9   6    4.83   548.7    3.4      51.144
2014    5       17     9  11    4.83   548.5    3.4      51.110
2014    5       17     9  17    4.82   548.4    3.4      51.075
2014    5       17     9  22    4.82   548.3    3.4      51.039
2014    5       17     9  28    4.82   548.1    3.4      51.004
2014    5       17     9  33    4.82   548.0    3.4      50.967
2014    5       17     9  39    4.82   547.9    3.4      50.931
2014    5       17     9  44    4.81   547.7    3.4      50.894
2014    5       17     9  50    4.81   547.6    3.4      50.857
2014    5       17     9  55    4.81   547.4    3.4      50.820
2014    5       17    10   0    4.81   547.3    3.4      50.783
2014    5       17    10   6    4.80   547.2    3.4      50.746
2014    5       17    10  11    4.80   547.0    3.4      50.708
2014    5       17    10  17    4.80   546.9    3.4      50.671
2014    5       17    10  22    4.80   546.8    3.4      50.634
2014    5       17    10  28    4.80   546.6    3.4      50.597
2014    5       17    10  33    4.79   546.5    3.4      50.560
2014    5       17    10  39    4.79   546.3    3.4      50.524
2014    5       17    10  44    4.79   546.2    3.4      50.488
2014    5       17    10  50    4.79   546.1    3.4      50.452
2014    5       17    10  55    4.79   545.9    3.4      50.417
2014    5       17    11   0    4.78   545.8    3.4      50.382
2014    5       17    11   6    4.78   545.6    3.4      50.347
2014    5       17    11  11    4.78   545.5    3.4      50.313
2014    5       17    11  17    4.78   545.4    3.4      50.280
2014    5       17    11  22    4.78   545.2    3.4      50.247
2014    5       17    11  28    4.77   545.1    3.4      50.215
2014    5       17    11  33    4.77   545.0    3.4      50.184
2014    5       17    11  39    4.77   544.8    3.4      50.154
2014    5       17    11  44    4.77   544.7    3.4      50.125
2014    5       17    11  49    4.77   544.6    3.4      50.096
2014    5       17    11  55    4.77   544.4    3.4      50.069
2014    5       17    12   0    4.76   544.3    3.4      50.042
2014    5       17    12   6    4.76   544.2    3.4      50.017
2014    5       17    12  11    4.76   544.1    3.4      49.992
2014    5       17    12  17    4.76   543.9    3.4      49.968
2014    5       17    12  22    4.76   543.8    3.4      49.946
2014    5       17    12  28    4.76   543.7    3.4      49.926
2014    5       17    12  33    4.75   543.6    3.4      49.908
2014    5       17    12  38    4.75   543.4    3.4      49.891
2014    5       17    12  44    4.75   543.3    3.4      49.875
2014    5       17    12  49    4.75   543.2    3.4      49.861
2014    5       17    12  55    4.75   543.1    3.4      49.846
2014    5       17    13   0    4.74   543.0    3.4      49.830
2014    5       17    13   6    4.74   542.8    3.4      49.815
2014    5       17    13  11    4.74   542.7    3.4      49.798
2014    5       17    13  17    4.74   542.6    3.4      49.781
2014    5       17    13  22    4.74   542.5    3.4      49.764
2014    5       17    13  27    4.73   542.3    3.4      49.745
2014    5       17    13  33    4.73   542.2    3.4      49.726
2014    5       17    13  38    4.73   542.1    3.4      49.706
2014    5       17    13  44    4.73   541.9    3.4      49.685
2014    5       17    13  49    4.72   541.8    3.4      49.663
2014    5       17    13  55    4.72   541.7    3.4      49.641
2014    5       17    14   0    4.72   541.5    3.4      49.618
2014    5       17    14   6    4.72   541.4    3.4      49.595
2014    5       17    14  11    4.72   541.3    3.4      49.571
2014    5       17    14  16    4.71   541.1    3.4      49.547
2014    5       17    14  22    4.71   541.0    3.4      49.522
2014    5       17    14  27    4.71   540.9    3.4      49.497
2014    5       17    14  33    4.71   540.7    3.4      49.471
2014    5       17    14  38    4.70   540.6    3.4      49.445
2014    5       17    14  44    4.70   540.4    3.4      49.419
2014    5       17    14  49    4.70   540.3    3.4      49.392
2014    5       17    14  55    4.70   540.1    3.4      49.366
2014    5       17    15   0    4.70   540.0    3.4      49.339
2014    5       17    15   5    4.69   539.8    3.4      49.311
2014    5       17    15  11    4.69   539.7    3.4      49.284
2014    5       17    15  16    4.69   539.5    3.4      49.256
2014    5       17    15  22    4.69   539.4    3.4      49.228
2014    5       17    15  27    4.68   539.2    3.4      49.201
2014    5       17    15  33    4.68   539.1    3.4      49.173
2014    5       17    15  38    4.68   538.9    3.4      49.145
2014    5       17    15  44    4.68   538.7    3.4      49.118
2014    5       17    15  49    4.68   538.6    3.4      49.090
2014    5       17    15  54    4.68   538.4    3.4      49.063
2014    5       17    16   0    4.67   538.3    3.4      49.036
2014    5       17    16   5    4.67   538.1    3.4      49.009
2014    5       17    16  11    4.67   538.0    3.4      48.983
2014    5       17    16  16    4.67   537.8    3.4      48.958
2014    5       17    16  22    4.67   537.7    3.4      48.933
2014    5       17    16  27    4.67   537.5    3.4      48.909
2014    5       17    16  33    4.66   537.4    3.4      48.886
2014    5       17    16  38    4.66   537.2    3.4      48.862
2014    5       17    16  43    4.66   537.1    3.4      48.839
2014    5       17    16  49    4.66   536.9    3.4      48.815
2014    5       17    16  54    4.66   536.8    3.4      48.790
2014    5       17    17   0    4.66   536.6    3.4      48.765
2014    5       17    17   5    4.65   536.4    3.4      48.740
2014    5       17    17  11    4.65   536.3    3.4      48.714
2014    5       17    17  16    4.65   536.1    3.4      48.687
2014    5       17    17  22    4.65   536.0    3.4      48.660
2014    5       17    17  27    4.65   535.8    3.4      48.633
2014    5       17    17  32    4.65   535.7    3.4      48.605
2014    5       17    17  38    4.64   535.5    3.4      48.576
2014    5       17    17  43    4.64   535.4    3.4      48.548
2014    5       17    17  49    4.64   535.2    3.4      48.519
2014    5       17    17  54    4.64   535.1    3.4      48.489
2014    5       17    18   0    4.64   534.9    3.4      48.460
2014    5       17    18   5    4.64   534.8    3.4      48.430
2014    5       17    18  11    4.63   534.6    3.4      48.401
2014    5       17    18  16    4.63   534.5    3.4      48.371
2014    5       17    18  22    4.63   534.3    3.4      48.341
2014    5       17    18  27    4.63   534.2    3.4      48.311
2014    5       17    18  32    4.63   534.0    3.4      48.281
2014    5       17    18  38    4.63   533.9    3.4      48.251
2014    5       17    18  43    4.63   533.7    3.4      48.221
2014    5       17    18  49    4.62   533.6    3.4      48.190
2014    5       17    18  54    4.62   533.4    3.4      48.160
2014    5       17    19   0    4.62   533.3    3.4      48.130
2014    5       17    19   5    4.62   533.1    3.4      48.099
2014    5       17    19  11    4.62   533.0    3.4      48.069
2014    5       17    19  16    4.62   532.8    3.4      48.038
2014    5       17    19  21    4.61   532.7    3.4      48.008
2014    5       17    19  27    4.61   532.5    3.4      47.977
2014    5       17    19  32    4.61   532.4    3.4      47.946
2014    5       17    19  38    4.61   532.2    3.4      47.915
2014    5       17    19  43    4.61   532.1    3.4      47.883
2014    5       17    19  49    4.60   531.9    3.4      47.852
2014    5       17    19  54    4.60   531.8    3.4      47.821
2014    5       17    20   0    4.60   531.6    3.4      47.789
2014    5       17    20   5    4.60   531.5    3.4      47.757
2014    5       17    20  10    4.60   531.3    3.4      47.725
2014    5       17    20  16    4.60   531.2    3.4      47.693
2014    5       17    20  21    4.59   531.0    3.4      47.660
2014    5       17    20  27    4.59   530.9    3.4      47.628
2014    5       17    20  32    4.59   530.7    3.4      47.595
2014    5       17    20  38    4.59   530.5    3.4      47.563
2014    5       17    20  43    4.59   530.4    3.4      47.530
2014    5       17    20  49    4.58   530.2    3.4      47.497
2014    5       17    20  54    4.58   530.1    3.4      47.464
2014    5       17    20  59    4.58   529.9    3.4      47.431
2014    5       17    21   5    4.58   529.7    3.4      47.398
2014    5       17    21  10    4.58   529.6    3.4      47.365
2014    5       17    21  16    4.57   529.4    3.4      47.332
2014    5       17    21  21    4.57   529.2    3.4      47.299
2014    5       17    21  27    4.57   529.0    3.4      47.266
2014    5       17    21  32    4.57   528.9    3.4      47.233
2014    5       17    21  38    4.57   528.7    3.4      47.200
2014    5       17    21  43    4.56   528.5    3.4      47.166
2014    5       17    21  48    4.56   528.3    3.4      47.133
2014    5       17    21  54    4.56   528.2    3.4      47.101
2014    5       17    21  59    4.56   528.0    3.4      47.068
2014    5       17    22   5    4.56   527.8    3.4      47.036
2014    5       17    22  10    4.56   527.6    3.4      47.004
2014    5       17    22  16    4.55   527.4    3.4      46.972
2014    5       17    22  21    4.55   527.3    3.4      46.941
2014    5       17    22  27    4.55   527.1    3.4      46.910
2014    5       17    22  32    4.55   526.9    3.4      46.879
2014    5       17    22  37    4.55   526.7    3.4      46.850
2014    5       17    22  43    4.55   526.5    3.4      46.821
2014    5       17    22  48    4.54   526.3    3.4      46.793
2014    5       17    22  54    4.54   526.1    3.4      46.766
2014    5       17    22  59    4.54   526.0    3.4      46.739
2014    5       17    23   5    4.54   525.8    3.4      46.714
2014    5       17    23  10    4.54   525.6    3.4      46.691
2014    5       17    23  16    4.54   525.4    3.4      46.668
2014    5       17    23  21    4.54   525.2    3.4      46.647
2014    5       17    23  26    4.54   525.0    3.4      46.626
2014    5       17    23  32    4.54   524.9    3.4      46.608
2014    5       17    23  37    4.53   524.7    3.4      46.591
2014    5       17    23  43    4.53   524.5    3.4      46.576
2014    5       17    23  48    4.53   524.4    3.4      46.563
2014    5       17    23  54    4.53   524.2    3.4      46.551
2014    5       17    23  59    4.53   524.0    3.4      46.540
2014    5       18     0   5    4.53   523.9    3.4      46.530
