year    month   day   hour  minute  B_enl V_enl   n_enl       T_enl
[year] [month] [day] [hour][minute] [nT]  [km/s]  [cm-3]      [kK]
2014    5        8     0   3    5.45   507.5    4.8      45.567
2014    5        8     0   8    5.46   507.5    4.8      45.575
2014    5        8     0  13    5.46   507.4    4.8      45.583
2014    5        8     0  19    5.46   507.4    4.8      45.591
2014    5        8     0  24    5.46   507.4    4.9      45.599
2014    5        8     0  30    5.46   507.3    4.9      45.607
2014    5        8     0  35    5.46   507.3    4.9      45.616
2014    5        8     0  40    5.47   507.3    4.9      45.625
2014    5        8     0  46    5.47   507.3    4.9      45.633
2014    5        8     0  51    5.47   507.2    4.9      45.642
2014    5        8     0  57    5.47   507.2    4.9      45.652
2014    5        8     1   2    5.47   507.2    4.9      45.661
2014    5        8     1   8    5.48   507.2    4.9      45.671
2014    5        8     1  13    5.48   507.1    4.9      45.681
2014    5        8     1  18    5.48   507.1    4.9      45.692
2014    5        8     1  24    5.48   507.1    4.9      45.702
2014    5        8     1  29    5.48   507.1    4.9      45.713
2014    5        8     1  35    5.48   507.1    4.9      45.725
2014    5        8     1  40    5.49   507.0    4.9      45.738
2014    5        8     1  45    5.49   507.0    4.9      45.751
2014    5        8     1  51    5.49   507.0    4.9      45.765
2014    5        8     1  56    5.49   507.0    4.9      45.781
2014    5        8     2   2    5.49   507.0    4.9      45.798
2014    5        8     2   7    5.49   507.0    4.9      45.815
2014    5        8     2  12    5.50   507.0    4.9      45.833
2014    5        8     2  18    5.50   506.9    4.9      45.852
2014    5        8     2  23    5.50   506.9    4.9      45.870
2014    5        8     2  29    5.50   506.9    4.9      45.889
2014    5        8     2  34    5.50   506.9    4.9      45.907
2014    5        8     2  40    5.51   506.9    4.9      45.925
2014    5        8     2  45    5.51   506.9    4.9      45.942
2014    5        8     2  50    5.51   506.9    4.9      45.960
2014    5        8     2  56    5.51   506.9    4.9      45.977
2014    5        8     3   1    5.51   506.9    4.9      45.993
2014    5        8     3   7    5.51   506.9    4.9      46.010
2014    5        8     3  12    5.51   506.9    4.9      46.026
2014    5        8     3  17    5.52   506.9    4.9      46.041
2014    5        8     3  23    5.52   506.8    4.9      46.057
2014    5        8     3  28    5.52   506.8    4.9      46.072
2014    5        8     3  34    5.52   506.8    4.9      46.087
2014    5        8     3  39    5.52   506.8    4.9      46.102
2014    5        8     3  44    5.52   506.8    4.9      46.117
2014    5        8     3  50    5.52   506.8    4.9      46.132
2014    5        8     3  55    5.53   506.8    5.0      46.147
2014    5        8     4   1    5.53   506.8    5.0      46.163
2014    5        8     4   6    5.53   506.8    5.0      46.177
2014    5        8     4  12    5.53   506.8    5.0      46.192
2014    5        8     4  17    5.53   506.8    5.0      46.206
2014    5        8     4  22    5.53   506.8    5.0      46.220
2014    5        8     4  28    5.53   506.9    5.0      46.233
2014    5        8     4  33    5.54   506.9    5.0      46.246
2014    5        8     4  39    5.54   506.9    5.0      46.259
2014    5        8     4  44    5.54   506.9    5.0      46.271
2014    5        8     4  49    5.54   506.9    5.0      46.283
2014    5        8     4  55    5.54   506.9    5.0      46.294
2014    5        8     5   0    5.54   506.9    5.0      46.306
2014    5        8     5   6    5.54   506.9    5.0      46.317
2014    5        8     5  11    5.54   506.9    5.0      46.328
2014    5        8     5  17    5.55   506.9    5.0      46.339
2014    5        8     5  22    5.55   506.9    5.0      46.350
2014    5        8     5  27    5.55   506.9    5.0      46.360
2014    5        8     5  33    5.55   506.9    5.0      46.371
2014    5        8     5  38    5.55   506.9    5.0      46.382
2014    5        8     5  44    5.55   506.9    5.0      46.393
2014    5        8     5  49    5.55   506.9    5.0      46.403
2014    5        8     5  54    5.55   506.9    5.0      46.414
2014    5        8     6   0    5.56   506.9    5.0      46.425
2014    5        8     6   5    5.56   507.0    5.0      46.437
2014    5        8     6  11    5.56   507.0    5.0      46.449
2014    5        8     6  16    5.56   507.0    5.0      46.461
2014    5        8     6  21    5.56   507.0    5.0      46.473
2014    5        8     6  27    5.56   507.0    5.0      46.486
2014    5        8     6  32    5.56   507.0    5.0      46.499
2014    5        8     6  38    5.56   507.1    5.0      46.512
2014    5        8     6  43    5.57   507.1    5.0      46.525
2014    5        8     6  49    5.57   507.1    5.0      46.539
2014    5        8     6  54    5.57   507.1    5.0      46.552
2014    5        8     6  59    5.57   507.1    5.0      46.565
2014    5        8     7   5    5.57   507.2    5.0      46.578
2014    5        8     7  10    5.57   507.2    5.0      46.590
2014    5        8     7  16    5.57   507.2    5.0      46.603
2014    5        8     7  21    5.57   507.2    5.0      46.614
2014    5        8     7  26    5.57   507.2    5.0      46.626
2014    5        8     7  32    5.57   507.3    5.0      46.637
2014    5        8     7  37    5.58   507.3    5.0      46.648
2014    5        8     7  43    5.58   507.3    5.0      46.659
2014    5        8     7  48    5.58   507.3    5.0      46.669
2014    5        8     7  54    5.58   507.4    5.0      46.680
2014    5        8     7  59    5.58   507.4    5.0      46.690
2014    5        8     8   4    5.58   507.4    5.0      46.700
2014    5        8     8  10    5.58   507.4    5.0      46.710
2014    5        8     8  15    5.58   507.4    5.0      46.719
2014    5        8     8  21    5.58   507.5    5.0      46.729
2014    5        8     8  26    5.58   507.5    5.0      46.739
2014    5        8     8  31    5.58   507.5    5.0      46.749
2014    5        8     8  37    5.59   507.5    5.0      46.759
2014    5        8     8  42    5.59   507.5    5.0      46.769
2014    5        8     8  48    5.59   507.6    5.0      46.779
2014    5        8     8  53    5.59   507.6    5.0      46.789
2014    5        8     8  58    5.59   507.6    5.0      46.801
2014    5        8     9   4    5.59   507.6    5.0      46.813
2014    5        8     9   9    5.59   507.7    5.0      46.825
2014    5        8     9  15    5.59   507.7    5.0      46.839
2014    5        8     9  20    5.59   507.7    5.0      46.853
2014    5        8     9  26    5.59   507.7    5.0      46.867
2014    5        8     9  31    5.59   507.8    5.0      46.881
2014    5        8     9  36    5.59   507.8    5.0      46.895
2014    5        8     9  42    5.59   507.8    5.0      46.909
2014    5        8     9  47    5.59   507.8    5.0      46.923
2014    5        8     9  53    5.59   507.9    5.0      46.937
2014    5        8     9  58    5.60   507.9    5.0      46.951
2014    5        8    10   3    5.60   507.9    5.0      46.966
2014    5        8    10   9    5.60   508.0    5.0      46.980
2014    5        8    10  14    5.60   508.0    5.0      46.995
2014    5        8    10  20    5.60   508.0    5.0      47.009
2014    5        8    10  25    5.60   508.0    5.0      47.024
2014    5        8    10  30    5.60   508.1    5.0      47.038
2014    5        8    10  36    5.60   508.1    5.0      47.052
2014    5        8    10  41    5.60   508.1    5.0      47.065
2014    5        8    10  47    5.60   508.2    5.0      47.078
2014    5        8    10  52    5.60   508.2    5.0      47.090
2014    5        8    10  58    5.60   508.2    5.0      47.102
2014    5        8    11   3    5.60   508.3    5.0      47.113
2014    5        8    11   8    5.60   508.3    5.0      47.124
2014    5        8    11  14    5.60   508.3    5.0      47.135
2014    5        8    11  19    5.60   508.3    5.0      47.145
2014    5        8    11  25    5.60   508.4    5.0      47.154
2014    5        8    11  30    5.60   508.4    5.0      47.163
2014    5        8    11  35    5.60   508.4    5.0      47.172
2014    5        8    11  41    5.60   508.5    5.0      47.181
2014    5        8    11  46    5.60   508.5    5.0      47.189
2014    5        8    11  52    5.60   508.5    5.0      47.197
2014    5        8    11  57    5.60   508.6    5.0      47.205
2014    5        8    12   3    5.60   508.6    5.0      47.213
2014    5        8    12   8    5.60   508.6    5.0      47.220
2014    5        8    12  13    5.61   508.6    5.0      47.228
2014    5        8    12  19    5.61   508.7    5.0      47.235
2014    5        8    12  24    5.61   508.7    5.0      47.243
2014    5        8    12  30    5.61   508.7    5.0      47.250
2014    5        8    12  35    5.61   508.8    5.0      47.257
2014    5        8    12  40    5.61   508.8    5.0      47.265
2014    5        8    12  46    5.61   508.8    5.0      47.272
2014    5        8    12  51    5.61   508.9    5.0      47.280
2014    5        8    12  57    5.61   508.9    5.0      47.287
2014    5        8    13   2    5.61   508.9    5.0      47.295
2014    5        8    13   7    5.61   509.0    5.0      47.302
2014    5        8    13  13    5.61   509.0    5.0      47.310
2014    5        8    13  18    5.61   509.0    5.0      47.319
2014    5        8    13  24    5.61   509.1    5.0      47.328
2014    5        8    13  29    5.61   509.1    5.0      47.336
2014    5        8    13  35    5.61   509.2    5.0      47.346
2014    5        8    13  40    5.61   509.2    5.0      47.355
2014    5        8    13  45    5.61   509.2    5.0      47.365
2014    5        8    13  51    5.61   509.3    5.0      47.374
2014    5        8    13  56    5.61   509.3    5.0      47.383
2014    5        8    14   2    5.61   509.3    5.0      47.392
2014    5        8    14   7    5.61   509.4    5.0      47.401
2014    5        8    14  12    5.61   509.4    5.0      47.410
2014    5        8    14  18    5.61   509.5    5.0      47.419
2014    5        8    14  23    5.61   509.5    5.0      47.427
2014    5        8    14  29    5.61   509.5    5.0      47.434
2014    5        8    14  34    5.61   509.6    5.0      47.441
2014    5        8    14  39    5.61   509.6    5.0      47.448
2014    5        8    14  45    5.61   509.7    5.0      47.455
2014    5        8    14  50    5.61   509.7    5.0      47.461
2014    5        8    14  56    5.61   509.8    5.0      47.466
2014    5        8    15   1    5.61   509.8    5.0      47.471
2014    5        8    15   7    5.61   509.8    5.0      47.476
2014    5        8    15  12    5.61   509.9    5.0      47.480
2014    5        8    15  17    5.61   509.9    5.0      47.484
2014    5        8    15  23    5.61   510.0    5.0      47.487
2014    5        8    15  28    5.61   510.0    5.0      47.490
2014    5        8    15  34    5.61   510.1    5.0      47.493
2014    5        8    15  39    5.61   510.1    5.0      47.495
2014    5        8    15  44    5.61   510.1    5.0      47.498
2014    5        8    15  50    5.61   510.2    5.0      47.499
2014    5        8    15  55    5.60   510.2    5.0      47.501
2014    5        8    16   1    5.60   510.3    5.0      47.502
2014    5        8    16   6    5.60   510.3    5.0      47.504
2014    5        8    16  12    5.60   510.3    5.0      47.505
2014    5        8    16  17    5.60   510.4    5.0      47.506
2014    5        8    16  22    5.60   510.4    5.0      47.506
2014    5        8    16  28    5.60   510.4    5.0      47.507
2014    5        8    16  33    5.60   510.5    5.0      47.508
2014    5        8    16  39    5.60   510.5    5.0      47.508
2014    5        8    16  44    5.60   510.6    5.0      47.509
2014    5        8    16  49    5.60   510.6    5.0      47.509
2014    5        8    16  55    5.60   510.6    5.0      47.510
2014    5        8    17   0    5.60   510.7    5.0      47.510
2014    5        8    17   6    5.60   510.7    5.0      47.510
2014    5        8    17  11    5.60   510.7    5.0      47.511
2014    5        8    17  16    5.60   510.8    5.0      47.512
2014    5        8    17  22    5.60   510.8    5.0      47.514
2014    5        8    17  27    5.60   510.8    5.0      47.516
2014    5        8    17  33    5.59   510.9    5.0      47.518
2014    5        8    17  38    5.59   510.9    5.0      47.520
2014    5        8    17  44    5.59   510.9    5.0      47.523
2014    5        8    17  49    5.59   511.0    5.0      47.525
2014    5        8    17  54    5.59   511.0    5.0      47.527
2014    5        8    18   0    5.59   511.0    5.0      47.529
2014    5        8    18   5    5.59   511.1    5.0      47.531
2014    5        8    18  11    5.59   511.1    5.0      47.532
2014    5        8    18  16    5.59   511.2    5.0      47.533
2014    5        8    18  21    5.59   511.2    5.0      47.534
2014    5        8    18  27    5.59   511.2    5.0      47.535
2014    5        8    18  32    5.59   511.3    5.0      47.536
2014    5        8    18  38    5.59   511.3    5.0      47.536
2014    5        8    18  43    5.58   511.3    5.0      47.536
2014    5        8    18  48    5.58   511.3    5.0      47.536
2014    5        8    18  54    5.58   511.4    5.0      47.536
2014    5        8    18  59    5.58   511.4    5.0      47.536
2014    5        8    19   5    5.58   511.4    5.0      47.536
2014    5        8    19  10    5.58   511.5    5.0      47.536
2014    5        8    19  16    5.58   511.5    5.0      47.536
2014    5        8    19  21    5.58   511.5    5.0      47.536
2014    5        8    19  26    5.58   511.6    5.0      47.536
2014    5        8    19  32    5.58   511.6    5.0      47.536
2014    5        8    19  37    5.57   511.6    5.0      47.536
2014    5        8    19  43    5.57   511.6    5.0      47.536
2014    5        8    19  48    5.57   511.7    5.0      47.537
2014    5        8    19  53    5.57   511.7    5.0      47.537
2014    5        8    19  59    5.57   511.7    5.0      47.538
2014    5        8    20   4    5.57   511.8    4.9      47.538
2014    5        8    20  10    5.57   511.8    4.9      47.539
2014    5        8    20  15    5.57   511.8    4.9      47.540
2014    5        8    20  21    5.57   511.8    4.9      47.541
2014    5        8    20  26    5.57   511.9    4.9      47.542
2014    5        8    20  31    5.56   511.9    4.9      47.543
2014    5        8    20  37    5.56   511.9    4.9      47.545
2014    5        8    20  42    5.56   512.0    4.9      47.546
2014    5        8    20  48    5.56   512.0    4.9      47.548
2014    5        8    20  53    5.56   512.0    4.9      47.549
2014    5        8    20  58    5.56   512.0    4.9      47.551
2014    5        8    21   4    5.56   512.1    4.9      47.553
2014    5        8    21   9    5.56   512.1    4.9      47.555
2014    5        8    21  15    5.56   512.1    4.9      47.557
2014    5        8    21  20    5.55   512.1    4.9      47.559
2014    5        8    21  25    5.55   512.2    4.9      47.561
2014    5        8    21  31    5.55   512.2    4.9      47.563
2014    5        8    21  36    5.55   512.2    4.9      47.564
2014    5        8    21  42    5.55   512.2    4.9      47.564
2014    5        8    21  47    5.55   512.3    4.9      47.565
2014    5        8    21  53    5.55   512.3    4.9      47.564
2014    5        8    21  58    5.54   512.3    4.9      47.564
2014    5        8    22   3    5.54   512.3    4.9      47.562
2014    5        8    22   9    5.54   512.4    4.9      47.560
2014    5        8    22  14    5.54   512.4    4.9      47.558
2014    5        8    22  20    5.54   512.4    4.9      47.554
2014    5        8    22  25    5.54   512.5    4.9      47.551
2014    5        8    22  30    5.54   512.5    4.9      47.546
2014    5        8    22  36    5.53   512.5    4.9      47.541
2014    5        8    22  41    5.53   512.5    4.9      47.536
2014    5        8    22  47    5.53   512.6    4.9      47.530
2014    5        8    22  52    5.53   512.6    4.9      47.523
2014    5        8    22  58    5.53   512.6    4.9      47.516
2014    5        8    23   3    5.53   512.6    4.9      47.509
2014    5        8    23   8    5.53   512.7    4.9      47.501
2014    5        8    23  14    5.52   512.7    4.9      47.493
2014    5        8    23  19    5.52   512.7    4.9      47.484
2014    5        8    23  25    5.52   512.7    4.9      47.475
2014    5        8    23  30    5.52   512.7    4.9      47.465
2014    5        8    23  35    5.52   512.8    4.9      47.455
2014    5        8    23  41    5.51   512.8    4.9      47.445
2014    5        8    23  46    5.51   512.8    4.9      47.435
2014    5        8    23  52    5.51   512.8    4.9      47.424
2014    5        8    23  57    5.51   512.9    4.9      47.412
2014    5        9     0   2    5.51   512.9    4.9      47.401
2014    5        9     0   8    5.51   512.9    4.9      47.389
2014    5        9     0  13    5.50   512.9    4.9      47.376
2014    5        9     0  19    5.50   512.9    4.9      47.364
2014    5        9     0  24    5.50   512.9    4.9      47.351
2014    5        9     0  30    5.50   513.0    4.9      47.338
2014    5        9     0  35    5.50   513.0    4.9      47.325
2014    5        9     0  40    5.49   513.0    4.9      47.311
2014    5        9     0  46    5.49   513.0    4.9      47.297
2014    5        9     0  51    5.49   513.0    4.9      47.283
2014    5        9     0  57    5.49   513.0    4.9      47.269
2014    5        9     1   2    5.49   513.1    4.9      47.254
2014    5        9     1   7    5.48   513.1    4.9      47.240
2014    5        9     1  13    5.48   513.1    4.9      47.225
2014    5        9     1  18    5.48   513.1    4.9      47.209
2014    5        9     1  24    5.48   513.1    4.9      47.194
2014    5        9     1  29    5.48   513.1    4.8      47.179
2014    5        9     1  34    5.47   513.1    4.8      47.163
2014    5        9     1  40    5.47   513.1    4.8      47.147
2014    5        9     1  45    5.47   513.2    4.8      47.131
2014    5        9     1  51    5.47   513.2    4.8      47.116
2014    5        9     1  56    5.46   513.2    4.8      47.100
2014    5        9     2   2    5.46   513.2    4.8      47.083
2014    5        9     2   7    5.46   513.2    4.8      47.067
2014    5        9     2  12    5.46   513.2    4.8      47.051
2014    5        9     2  18    5.46   513.2    4.8      47.035
2014    5        9     2  23    5.45   513.2    4.8      47.019
2014    5        9     2  29    5.45   513.2    4.8      47.003
2014    5        9     2  34    5.45   513.2    4.8      46.987
2014    5        9     2  39    5.45   513.2    4.8      46.972
2014    5        9     2  45    5.44   513.2    4.8      46.956
2014    5        9     2  50    5.44   513.2    4.8      46.940
2014    5        9     2  56    5.44   513.2    4.8      46.925
2014    5        9     3   1    5.44   513.2    4.8      46.910
2014    5        9     3   6    5.43   513.2    4.8      46.895
2014    5        9     3  12    5.43   513.2    4.8      46.880
2014    5        9     3  17    5.43   513.2    4.8      46.866
2014    5        9     3  23    5.43   513.2    4.8      46.851
2014    5        9     3  28    5.43   513.1    4.8      46.837
2014    5        9     3  34    5.42   513.1    4.8      46.823
2014    5        9     3  39    5.42   513.1    4.8      46.810
2014    5        9     3  44    5.42   513.1    4.8      46.796
2014    5        9     3  50    5.42   513.1    4.8      46.783
2014    5        9     3  55    5.41   513.1    4.8      46.770
2014    5        9     4   1    5.41   513.1    4.8      46.757
2014    5        9     4   6    5.41   513.1    4.8      46.744
2014    5        9     4  11    5.41   513.1    4.8      46.731
2014    5        9     4  17    5.40   513.0    4.8      46.718
2014    5        9     4  22    5.40   513.0    4.8      46.705
2014    5        9     4  28    5.40   513.0    4.8      46.693
2014    5        9     4  33    5.40   513.0    4.8      46.680
2014    5        9     4  39    5.40   513.0    4.8      46.666
2014    5        9     4  44    5.39   512.9    4.8      46.653
2014    5        9     4  49    5.39   512.9    4.8      46.639
2014    5        9     4  55    5.39   512.9    4.8      46.625
2014    5        9     5   0    5.39   512.9    4.8      46.610
2014    5        9     5   6    5.38   512.9    4.8      46.596
2014    5        9     5  11    5.38   512.8    4.8      46.581
2014    5        9     5  16    5.38   512.8    4.8      46.565
2014    5        9     5  22    5.38   512.8    4.8      46.549
2014    5        9     5  27    5.38   512.8    4.8      46.533
2014    5        9     5  33    5.37   512.7    4.8      46.517
2014    5        9     5  38    5.37   512.7    4.8      46.500
2014    5        9     5  43    5.37   512.7    4.8      46.483
2014    5        9     5  49    5.37   512.7    4.8      46.466
2014    5        9     5  54    5.36   512.6    4.8      46.449
2014    5        9     6   0    5.36   512.6    4.8      46.431
2014    5        9     6   5    5.36   512.6    4.8      46.414
2014    5        9     6  10    5.36   512.6    4.8      46.397
2014    5        9     6  15    5.35   512.5    4.8      46.379
2014    5        9     6  20    5.35   512.5    4.8      46.362
2014    5        9     6  25    5.35   512.5    4.8      46.345
2014    5        9     6  30    5.35   512.5    4.8      46.328
2014    5        9     6  35    5.35   512.4    4.8      46.311
2014    5        9     6  40    5.34   512.4    4.8      46.293
2014    5        9     6  45    5.34   512.4    4.8      46.276
2014    5        9     6  50    5.34   512.3    4.8      46.259
2014    5        9     6  55    5.34   512.3    4.8      46.241
2014    5        9     7   0    5.33   512.3    4.8      46.224
2014    5        9     7   5    5.33   512.3    4.8      46.206
2014    5        9     7  10    5.33   512.2    4.8      46.188
2014    5        9     7  15    5.33   512.2    4.8      46.170
2014    5        9     7  20    5.33   512.2    4.8      46.152
2014    5        9     7  25    5.32   512.1    4.8      46.133
2014    5        9     7  30    5.32   512.1    4.7      46.114
2014    5        9     7  35    5.32   512.1    4.7      46.095
2014    5        9     7  39    5.32   512.1    4.7      46.076
2014    5        9     7  44    5.31   512.0    4.7      46.056
2014    5        9     7  49    5.31   512.0    4.7      46.036
2014    5        9     7  54    5.31   512.0    4.7      46.016
2014    5        9     7  59    5.31   511.9    4.7      45.995
2014    5        9     8   4    5.31   511.9    4.7      45.974
2014    5        9     8   9    5.30   511.9    4.7      45.953
2014    5        9     8  14    5.30   511.9    4.7      45.932
2014    5        9     8  19    5.30   511.8    4.7      45.911
2014    5        9     8  24    5.30   511.8    4.7      45.889
2014    5        9     8  29    5.29   511.8    4.7      45.867
2014    5        9     8  34    5.29   511.7    4.7      45.845
2014    5        9     8  38    5.29   511.7    4.7      45.823
2014    5        9     8  43    5.29   511.7    4.7      45.800
2014    5        9     8  48    5.28   511.6    4.7      45.777
2014    5        9     8  53    5.28   511.6    4.7      45.754
2014    5        9     8  58    5.28   511.6    4.7      45.731
2014    5        9     9   3    5.28   511.5    4.7      45.708
2014    5        9     9   8    5.27   511.5    4.7      45.685
2014    5        9     9  13    5.27   511.5    4.7      45.662
2014    5        9     9  18    5.27   511.4    4.7      45.638
2014    5        9     9  23    5.27   511.4    4.7      45.614
2014    5        9     9  27    5.26   511.4    4.7      45.591
2014    5        9     9  32    5.26   511.3    4.7      45.567
2014    5        9     9  37    5.26   511.3    4.7      45.543
2014    5        9     9  42    5.26   511.2    4.7      45.518
2014    5        9     9  47    5.26   511.2    4.7      45.494
2014    5        9     9  52    5.25   511.2    4.7      45.469
2014    5        9     9  57    5.25   511.1    4.7      45.445
2014    5        9    10   2    5.25   511.1    4.7      45.420
2014    5        9    10   7    5.25   511.0    4.7      45.395
2014    5        9    10  12    5.24   511.0    4.7      45.371
2014    5        9    10  16    5.24   511.0    4.7      45.346
2014    5        9    10  21    5.24   510.9    4.7      45.321
2014    5        9    10  26    5.24   510.9    4.7      45.296
2014    5        9    10  31    5.23   510.8    4.7      45.270
2014    5        9    10  36    5.23   510.8    4.7      45.245
2014    5        9    10  41    5.23   510.7    4.7      45.220
2014    5        9    10  46    5.23   510.7    4.7      45.195
2014    5        9    10  51    5.22   510.6    4.7      45.170
2014    5        9    10  56    5.22   510.6    4.7      45.144
2014    5        9    11   1    5.22   510.5    4.7      45.119
2014    5        9    11   6    5.22   510.5    4.7      45.094
2014    5        9    11  11    5.22   510.4    4.7      45.069
2014    5        9    11  16    5.21   510.4    4.7      45.043
2014    5        9    11  21    5.21   510.3    4.7      45.018
2014    5        9    11  25    5.21   510.3    4.7      44.992
2014    5        9    11  30    5.21   510.2    4.7      44.967
2014    5        9    11  35    5.20   510.2    4.7      44.941
2014    5        9    11  40    5.20   510.1    4.7      44.915
2014    5        9    11  45    5.20   510.1    4.7      44.889
2014    5        9    11  50    5.20   510.0    4.7      44.863
2014    5        9    11  55    5.19   509.9    4.7      44.837
2014    5        9    12   0    5.19   509.9    4.7      44.811
2014    5        9    12   5    5.19   509.8    4.7      44.784
2014    5        9    12  10    5.19   509.8    4.7      44.758
2014    5        9    12  15    5.19   509.7    4.7      44.731
2014    5        9    12  20    5.18   509.6    4.7      44.704
2014    5        9    12  25    5.18   509.6    4.7      44.677
2014    5        9    12  30    5.18   509.5    4.7      44.649
2014    5        9    12  35    5.18   509.4    4.7      44.622
2014    5        9    12  40    5.18   509.4    4.7      44.594
2014    5        9    12  45    5.17   509.3    4.7      44.566
2014    5        9    12  50    5.17   509.3    4.7      44.538
2014    5        9    12  55    5.17   509.2    4.7      44.509
2014    5        9    13   0    5.17   509.1    4.7      44.480
2014    5        9    13   5    5.16   509.1    4.7      44.450
2014    5        9    13  10    5.16   509.0    4.7      44.420
2014    5        9    13  15    5.16   508.9    4.7      44.390
2014    5        9    13  21    5.16   508.8    4.7      44.360
2014    5        9    13  26    5.16   508.8    4.7      44.329
2014    5        9    13  31    5.15   508.7    4.7      44.298
2014    5        9    13  36    5.15   508.6    4.7      44.267
2014    5        9    13  41    5.15   508.6    4.7      44.236
2014    5        9    13  46    5.15   508.5    4.7      44.204
2014    5        9    13  51    5.14   508.4    4.7      44.172
2014    5        9    13  57    5.14   508.3    4.7      44.140
2014    5        9    14   2    5.14   508.3    4.7      44.108
2014    5        9    14   7    5.14   508.2    4.7      44.075
2014    5        9    14  12    5.13   508.1    4.7      44.043
2014    5        9    14  17    5.13   508.0    4.7      44.010
2014    5        9    14  23    5.13   507.9    4.7      43.977
2014    5        9    14  28    5.13   507.9    4.7      43.944
2014    5        9    14  33    5.13   507.8    4.7      43.911
2014    5        9    14  38    5.12   507.7    4.7      43.877
2014    5        9    14  44    5.12   507.6    4.7      43.844
2014    5        9    14  49    5.12   507.6    4.7      43.810
2014    5        9    14  54    5.12   507.5    4.7      43.776
2014    5        9    15   0    5.11   507.4    4.7      43.741
2014    5        9    15   5    5.11   507.3    4.7      43.707
2014    5        9    15  10    5.11   507.2    4.7      43.672
2014    5        9    15  16    5.11   507.2    4.7      43.637
2014    5        9    15  21    5.10   507.1    4.7      43.601
2014    5        9    15  26    5.10   507.0    4.7      43.565
2014    5        9    15  32    5.10   506.9    4.7      43.529
2014    5        9    15  37    5.10   506.8    4.7      43.492
2014    5        9    15  42    5.09   506.7    4.7      43.456
2014    5        9    15  48    5.09   506.7    4.7      43.419
2014    5        9    15  53    5.09   506.6    4.7      43.381
2014    5        9    15  58    5.09   506.5    4.7      43.344
2014    5        9    16   4    5.09   506.4    4.7      43.306
2014    5        9    16   9    5.08   506.3    4.7      43.268
2014    5        9    16  15    5.08   506.2    4.7      43.229
2014    5        9    16  20    5.08   506.1    4.7      43.191
2014    5        9    16  25    5.08   506.1    4.7      43.152
2014    5        9    16  31    5.07   506.0    4.7      43.114
2014    5        9    16  36    5.07   505.9    4.6      43.075
2014    5        9    16  42    5.07   505.8    4.6      43.036
2014    5        9    16  47    5.07   505.7    4.6      42.997
2014    5        9    16  52    5.06   505.6    4.6      42.958
2014    5        9    16  58    5.06   505.5    4.6      42.919
2014    5        9    17   3    5.06   505.4    4.6      42.880
2014    5        9    17   9    5.06   505.4    4.6      42.841
2014    5        9    17  14    5.06   505.3    4.6      42.801
2014    5        9    17  20    5.05   505.2    4.6      42.762
2014    5        9    17  25    5.05   505.1    4.6      42.722
2014    5        9    17  30    5.05   505.0    4.6      42.682
2014    5        9    17  36    5.05   504.9    4.6      42.641
2014    5        9    17  41    5.04   504.8    4.6      42.601
2014    5        9    17  47    5.04   504.7    4.6      42.560
2014    5        9    17  52    5.04   504.6    4.6      42.520
2014    5        9    17  57    5.04   504.5    4.6      42.479
2014    5        9    18   3    5.03   504.5    4.6      42.438
2014    5        9    18   8    5.03   504.4    4.6      42.397
2014    5        9    18  14    5.03   504.3    4.6      42.356
2014    5        9    18  19    5.03   504.2    4.6      42.315
2014    5        9    18  24    5.03   504.1    4.6      42.273
2014    5        9    18  30    5.02   504.0    4.6      42.232
2014    5        9    18  35    5.02   503.9    4.6      42.190
2014    5        9    18  41    5.02   503.8    4.6      42.148
2014    5        9    18  46    5.02   503.7    4.6      42.106
2014    5        9    18  52    5.02   503.6    4.6      42.063
2014    5        9    18  57    5.01   503.5    4.6      42.021
2014    5        9    19   2    5.01   503.4    4.6      41.978
2014    5        9    19   8    5.01   503.3    4.6      41.936
2014    5        9    19  13    5.01   503.2    4.6      41.893
2014    5        9    19  19    5.00   503.1    4.6      41.850
2014    5        9    19  24    5.00   503.0    4.6      41.807
2014    5        9    19  29    5.00   502.9    4.6      41.764
2014    5        9    19  35    5.00   502.8    4.6      41.721
2014    5        9    19  40    5.00   502.7    4.6      41.678
2014    5        9    19  46    4.99   502.6    4.6      41.635
2014    5        9    19  51    4.99   502.5    4.6      41.591
2014    5        9    19  56    4.99   502.4    4.6      41.548
2014    5        9    20   2    4.99   502.3    4.6      41.504
2014    5        9    20   7    4.99   502.2    4.6      41.460
2014    5        9    20  13    4.98   502.1    4.6      41.416
2014    5        9    20  18    4.98   502.0    4.6      41.371
2014    5        9    20  24    4.98   501.9    4.6      41.326
2014    5        9    20  29    4.98   501.8    4.6      41.281
2014    5        9    20  34    4.98   501.7    4.6      41.236
2014    5        9    20  40    4.97   501.6    4.6      41.191
2014    5        9    20  45    4.97   501.5    4.6      41.145
2014    5        9    20  51    4.97   501.3    4.6      41.099
2014    5        9    20  56    4.97   501.2    4.6      41.053
2014    5        9    21   1    4.96   501.1    4.6      41.007
2014    5        9    21   7    4.96   501.0    4.6      40.960
2014    5        9    21  12    4.96   500.9    4.6      40.914
2014    5        9    21  18    4.96   500.8    4.6      40.867
2014    5        9    21  23    4.96   500.7    4.6      40.820
2014    5        9    21  28    4.95   500.5    4.6      40.773
2014    5        9    21  34    4.95   500.4    4.6      40.726
2014    5        9    21  39    4.95   500.3    4.6      40.679
2014    5        9    21  45    4.95   500.2    4.6      40.632
2014    5        9    21  50    4.95   500.1    4.6      40.584
2014    5        9    21  56    4.94   500.0    4.6      40.537
2014    5        9    22   1    4.94   499.8    4.6      40.490
2014    5        9    22   6    4.94   499.7    4.6      40.443
2014    5        9    22  12    4.94   499.6    4.6      40.396
2014    5        9    22  17    4.94   499.5    4.6      40.349
2014    5        9    22  23    4.93   499.3    4.6      40.301
2014    5        9    22  28    4.93   499.2    4.6      40.254
2014    5        9    22  33    4.93   499.1    4.6      40.207
2014    5        9    22  39    4.93   499.0    4.6      40.160
2014    5        9    22  44    4.93   498.8    4.6      40.114
2014    5        9    22  50    4.92   498.7    4.6      40.067
2014    5        9    22  55    4.92   498.6    4.6      40.020
2014    5        9    23   0    4.92   498.5    4.6      39.974
2014    5        9    23   6    4.92   498.3    4.6      39.927
2014    5        9    23  11    4.92   498.2    4.6      39.881
2014    5        9    23  17    4.91   498.1    4.6      39.835
2014    5        9    23  22    4.91   497.9    4.6      39.788
2014    5        9    23  28    4.91   497.8    4.6      39.742
2014    5        9    23  33    4.91   497.7    4.6      39.697
2014    5        9    23  38    4.91   497.5    4.6      39.651
2014    5        9    23  44    4.91   497.4    4.6      39.605
2014    5        9    23  49    4.90   497.3    4.6      39.560
2014    5        9    23  55    4.90   497.1    4.6      39.514
2014    5       10     0   0    4.90   497.0    4.6      39.469
2014    5       10     0   5    4.90   496.9    4.6      39.424
2014    5       10     0  11    4.90   496.7    4.6      39.378
2014    5       10     0  16    4.90   496.6    4.6      39.333
2014    5       10     0  22    4.89   496.5    4.6      39.288
2014    5       10     0  27    4.89   496.3    4.6      39.243
2014    5       10     0  32    4.89   496.2    4.6      39.197
2014    5       10     0  38    4.89   496.1    4.6      39.152
2014    5       10     0  43    4.89   495.9    4.6      39.106
2014    5       10     0  49    4.89   495.8    4.6      39.060
2014    5       10     0  54    4.88   495.7    4.6      39.015
2014    5       10     1   0    4.88   495.5    4.6      38.969
2014    5       10     1   5    4.88   495.4    4.6      38.923
2014    5       10     1  10    4.88   495.3    4.6      38.877
2014    5       10     1  16    4.88   495.1    4.6      38.831
2014    5       10     1  21    4.88   495.0    4.6      38.785
2014    5       10     1  27    4.87   494.8    4.6      38.739
2014    5       10     1  32    4.87   494.7    4.6      38.693
2014    5       10     1  37    4.87   494.6    4.6      38.647
2014    5       10     1  43    4.87   494.4    4.6      38.602
2014    5       10     1  48    4.87   494.3    4.6      38.556
2014    5       10     1  54    4.87   494.1    4.6      38.510
2014    5       10     1  59    4.86   494.0    4.6      38.464
2014    5       10     2   5    4.86   493.8    4.6      38.419
2014    5       10     2  10    4.86   493.7    4.6      38.373
2014    5       10     2  15    4.86   493.6    4.6      38.328
2014    5       10     2  21    4.86   493.4    4.6      38.282
2014    5       10     2  26    4.86   493.3    4.6      38.237
2014    5       10     2  32    4.85   493.1    4.6      38.192
2014    5       10     2  37    4.85   493.0    4.6      38.147
2014    5       10     2  42    4.85   492.8    4.6      38.102
2014    5       10     2  48    4.85   492.7    4.6      38.057
2014    5       10     2  53    4.85   492.5    4.6      38.012
2014    5       10     2  59    4.85   492.4    4.6      37.967
2014    5       10     3   4    4.85   492.2    4.6      37.922
2014    5       10     3   9    4.84   492.1    4.6      37.877
2014    5       10     3  15    4.84   491.9    4.6      37.832
2014    5       10     3  20    4.84   491.8    4.6      37.788
2014    5       10     3  26    4.84   491.6    4.6      37.743
2014    5       10     3  31    4.84   491.5    4.6      37.699
2014    5       10     3  37    4.84   491.3    4.6      37.654
2014    5       10     3  42    4.83   491.2    4.6      37.610
2014    5       10     3  47    4.83   491.0    4.6      37.565
2014    5       10     3  53    4.83   490.9    4.6      37.521
2014    5       10     3  58    4.83   490.7    4.6      37.476
2014    5       10     4   4    4.83   490.6    4.6      37.432
2014    5       10     4   9    4.83   490.4    4.6      37.388
2014    5       10     4  14    4.83   490.3    4.6      37.344
2014    5       10     4  20    4.82   490.1    4.6      37.300
2014    5       10     4  25    4.82   489.9    4.6      37.256
2014    5       10     4  31    4.82   489.8    4.6      37.212
2014    5       10     4  36    4.82   489.6    4.6      37.168
2014    5       10     4  41    4.82   489.4    4.6      37.124
2014    5       10     4  47    4.82   489.3    4.6      37.081
2014    5       10     4  52    4.82   489.1    4.6      37.038
2014    5       10     4  58    4.81   489.0    4.6      36.995
2014    5       10     5   3    4.81   488.8    4.6      36.952
2014    5       10     5   9    4.81   488.6    4.6      36.909
2014    5       10     5  14    4.81   488.5    4.6      36.866
2014    5       10     5  19    4.81   488.3    4.6      36.824
2014    5       10     5  25    4.81   488.1    4.6      36.782
2014    5       10     5  30    4.81   488.0    4.6      36.740
2014    5       10     5  36    4.80   487.8    4.6      36.698
2014    5       10     5  41    4.80   487.6    4.6      36.657
2014    5       10     5  46    4.80   487.4    4.6      36.615
2014    5       10     5  52    4.80   487.3    4.6      36.574
2014    5       10     5  57    4.80   487.1    4.7      36.533
2014    5       10     6   3    4.80   486.9    4.7      36.493
2014    5       10     6   8    4.80   486.8    4.7      36.452
2014    5       10     6  14    4.80   486.6    4.7      36.412
2014    5       10     6  19    4.80   486.4    4.7      36.371
2014    5       10     6  24    4.79   486.2    4.7      36.331
2014    5       10     6  30    4.79   486.1    4.7      36.291
2014    5       10     6  35    4.79   485.9    4.7      36.251
2014    5       10     6  41    4.79   485.7    4.7      36.211
2014    5       10     6  46    4.79   485.5    4.7      36.171
2014    5       10     6  51    4.79   485.4    4.7      36.132
2014    5       10     6  57    4.79   485.2    4.7      36.092
2014    5       10     7   2    4.79   485.0    4.7      36.053
2014    5       10     7   8    4.79   484.8    4.7      36.013
2014    5       10     7  13    4.78   484.6    4.7      35.974
2014    5       10     7  18    4.78   484.5    4.7      35.935
2014    5       10     7  24    4.78   484.3    4.7      35.896
2014    5       10     7  29    4.78   484.1    4.7      35.857
2014    5       10     7  35    4.78   483.9    4.7      35.818
2014    5       10     7  40    4.78   483.7    4.7      35.779
2014    5       10     7  46    4.78   483.5    4.7      35.740
2014    5       10     7  51    4.78   483.4    4.7      35.702
2014    5       10     7  56    4.78   483.2    4.7      35.663
2014    5       10     8   2    4.77   483.0    4.7      35.625
2014    5       10     8   7    4.77   482.8    4.7      35.587
2014    5       10     8  13    4.77   482.6    4.7      35.549
2014    5       10     8  18    4.77   482.4    4.7      35.510
2014    5       10     8  23    4.77   482.2    4.7      35.473
2014    5       10     8  29    4.77   482.0    4.7      35.435
2014    5       10     8  34    4.77   481.9    4.7      35.397
2014    5       10     8  40    4.77   481.7    4.7      35.359
2014    5       10     8  45    4.77   481.5    4.7      35.322
2014    5       10     8  50    4.77   481.3    4.7      35.284
2014    5       10     8  56    4.77   481.1    4.7      35.247
2014    5       10     9   1    4.76   480.9    4.7      35.210
2014    5       10     9   7    4.76   480.7    4.7      35.173
2014    5       10     9  12    4.76   480.5    4.7      35.136
2014    5       10     9  18    4.76   480.3    4.7      35.100
2014    5       10     9  23    4.76   480.1    4.7      35.064
2014    5       10     9  28    4.76   479.9    4.7      35.028
2014    5       10     9  34    4.76   479.7    4.7      34.992
2014    5       10     9  39    4.76   479.5    4.7      34.956
2014    5       10     9  45    4.76   479.3    4.7      34.920
2014    5       10     9  50    4.76   479.1    4.7      34.885
2014    5       10     9  55    4.76   478.9    4.7      34.850
2014    5       10    10   1    4.76   478.7    4.7      34.815
2014    5       10    10   6    4.76   478.5    4.7      34.781
2014    5       10    10  12    4.75   478.3    4.7      34.746
2014    5       10    10  17    4.75   478.1    4.7      34.712
2014    5       10    10  23    4.75   477.9    4.7      34.678
2014    5       10    10  28    4.75   477.7    4.7      34.644
2014    5       10    10  33    4.75   477.5    4.7      34.611
2014    5       10    10  39    4.75   477.3    4.7      34.578
2014    5       10    10  44    4.75   477.1    4.7      34.545
2014    5       10    10  50    4.75   476.9    4.7      34.512
2014    5       10    10  55    4.75   476.7    4.7      34.479
2014    5       10    11   0    4.75   476.4    4.7      34.447
2014    5       10    11   6    4.75   476.2    4.7      34.415
2014    5       10    11  11    4.75   476.0    4.7      34.383
2014    5       10    11  17    4.75   475.8    4.7      34.352
2014    5       10    11  22    4.75   475.6    4.7      34.320
2014    5       10    11  27    4.75   475.4    4.8      34.289
2014    5       10    11  33    4.75   475.2    4.8      34.258
2014    5       10    11  38    4.75   475.0    4.8      34.228
2014    5       10    11  44    4.75   474.8    4.8      34.197
2014    5       10    11  49    4.75   474.6    4.8      34.167
2014    5       10    11  55    4.75   474.3    4.8      34.137
2014    5       10    12   0    4.75   474.1    4.8      34.107
2014    5       10    12   5    4.75   473.9    4.8      34.078
2014    5       10    12  11    4.75   473.7    4.8      34.048
2014    5       10    12  16    4.75   473.5    4.8      34.019
2014    5       10    12  22    4.75   473.3    4.8      33.990
2014    5       10    12  27    4.75   473.1    4.8      33.961
2014    5       10    12  32    4.75   472.9    4.8      33.932
2014    5       10    12  38    4.75   472.7    4.8      33.904
2014    5       10    12  43    4.75   472.4    4.8      33.875
2014    5       10    12  49    4.75   472.2    4.8      33.847
2014    5       10    12  54    4.75   472.0    4.8      33.818
2014    5       10    13   0    4.75   471.8    4.8      33.790
2014    5       10    13   5    4.75   471.6    4.8      33.762
2014    5       10    13  10    4.75   471.4    4.8      33.734
2014    5       10    13  16    4.75   471.2    4.8      33.706
2014    5       10    13  21    4.75   471.0    4.8      33.678
2014    5       10    13  27    4.75   470.8    4.8      33.650
2014    5       10    13  32    4.75   470.6    4.8      33.623
2014    5       10    13  37    4.75   470.3    4.8      33.595
2014    5       10    13  43    4.75   470.1    4.8      33.567
2014    5       10    13  48    4.75   469.9    4.8      33.540
2014    5       10    13  54    4.75   469.7    4.8      33.512
2014    5       10    13  59    4.75   469.5    4.8      33.485
2014    5       10    14   4    4.75   469.3    4.8      33.457
2014    5       10    14  10    4.75   469.1    4.8      33.430
2014    5       10    14  15    4.75   468.9    4.8      33.403
2014    5       10    14  21    4.75   468.6    4.9      33.376
2014    5       10    14  26    4.75   468.4    4.9      33.349
2014    5       10    14  32    4.75   468.2    4.9      33.322
2014    5       10    14  37    4.76   468.0    4.9      33.295
2014    5       10    14  42    4.76   467.8    4.9      33.269
2014    5       10    14  48    4.76   467.6    4.9      33.243
2014    5       10    14  53    4.76   467.4    4.9      33.217
2014    5       10    14  59    4.76   467.2    4.9      33.191
2014    5       10    15   4    4.76   466.9    4.9      33.165
2014    5       10    15   9    4.76   466.7    4.9      33.140
2014    5       10    15  15    4.76   466.5    4.9      33.115
2014    5       10    15  20    4.76   466.3    4.9      33.090
2014    5       10    15  26    4.76   466.1    4.9      33.065
2014    5       10    15  31    4.76   465.9    4.9      33.041
2014    5       10    15  37    4.76   465.7    4.9      33.017
2014    5       10    15  42    4.76   465.4    4.9      32.993
2014    5       10    15  47    4.77   465.2    4.9      32.969
2014    5       10    15  53    4.77   465.0    4.9      32.946
2014    5       10    15  58    4.77   464.8    4.9      32.923
2014    5       10    16   4    4.77   464.6    4.9      32.900
2014    5       10    16   9    4.77   464.4    4.9      32.877
2014    5       10    16  14    4.77   464.2    4.9      32.855
2014    5       10    16  20    4.77   464.0    4.9      32.833
2014    5       10    16  25    4.77   463.7    4.9      32.811
2014    5       10    16  31    4.77   463.5    4.9      32.789
2014    5       10    16  36    4.78   463.3    4.9      32.768
2014    5       10    16  41    4.78   463.1    5.0      32.747
2014    5       10    16  47    4.78   462.9    5.0      32.726
2014    5       10    16  52    4.78   462.7    5.0      32.705
2014    5       10    16  58    4.78   462.5    5.0      32.685
2014    5       10    17   3    4.78   462.3    5.0      32.664
2014    5       10    17   9    4.78   462.1    5.0      32.644
2014    5       10    17  14    4.79   461.9    5.0      32.624
2014    5       10    17  19    4.79   461.6    5.0      32.605
2014    5       10    17  25    4.79   461.4    5.0      32.585
2014    5       10    17  30    4.79   461.2    5.0      32.566
2014    5       10    17  36    4.79   461.0    5.0      32.546
2014    5       10    17  41    4.79   460.8    5.0      32.527
2014    5       10    17  46    4.79   460.6    5.0      32.508
2014    5       10    17  52    4.80   460.4    5.0      32.489
2014    5       10    17  57    4.80   460.2    5.0      32.470
2014    5       10    18   3    4.80   460.0    5.0      32.451
2014    5       10    18   8    4.80   459.8    5.0      32.432
2014    5       10    18  14    4.80   459.6    5.0      32.414
2014    5       10    18  19    4.81   459.3    5.0      32.395
2014    5       10    18  24    4.81   459.1    5.0      32.376
2014    5       10    18  30    4.81   458.9    5.0      32.357
2014    5       10    18  35    4.81   458.7    5.0      32.339
2014    5       10    18  41    4.81   458.5    5.1      32.320
2014    5       10    18  46    4.81   458.3    5.1      32.302
2014    5       10    18  51    4.82   458.1    5.1      32.283
2014    5       10    18  57    4.82   457.9    5.1      32.265
2014    5       10    19   2    4.82   457.7    5.1      32.246
2014    5       10    19   8    4.82   457.5    5.1      32.228
2014    5       10    19  13    4.82   457.3    5.1      32.209
2014    5       10    19  19    4.83   457.1    5.1      32.191
2014    5       10    19  24    4.83   456.9    5.1      32.172
2014    5       10    19  29    4.83   456.7    5.1      32.154
2014    5       10    19  35    4.83   456.5    5.1      32.135
2014    5       10    19  40    4.84   456.3    5.1      32.117
2014    5       10    19  46    4.84   456.1    5.1      32.099
2014    5       10    19  51    4.84   455.8    5.1      32.081
2014    5       10    19  56    4.84   455.6    5.1      32.063
2014    5       10    20   2    4.85   455.4    5.1      32.045
2014    5       10    20   7    4.85   455.2    5.1      32.027
2014    5       10    20  13    4.85   455.0    5.1      32.009
2014    5       10    20  18    4.85   454.8    5.1      31.992
2014    5       10    20  24    4.86   454.6    5.1      31.974
2014    5       10    20  29    4.86   454.4    5.1      31.957
2014    5       10    20  34    4.86   454.2    5.1      31.940
2014    5       10    20  40    4.86   454.0    5.2      31.924
2014    5       10    20  45    4.87   453.8    5.2      31.907
2014    5       10    20  51    4.87   453.6    5.2      31.891
2014    5       10    20  56    4.87   453.4    5.2      31.875
2014    5       10    21   1    4.88   453.2    5.2      31.860
2014    5       10    21   7    4.88   453.1    5.2      31.844
2014    5       10    21  12    4.88   452.9    5.2      31.830
2014    5       10    21  18    4.88   452.7    5.2      31.815
2014    5       10    21  23    4.89   452.5    5.2      31.801
2014    5       10    21  28    4.89   452.3    5.2      31.787
2014    5       10    21  34    4.89   452.1    5.2      31.773
2014    5       10    21  39    4.90   451.9    5.2      31.760
2014    5       10    21  45    4.90   451.7    5.2      31.748
2014    5       10    21  50    4.90   451.5    5.2      31.735
2014    5       10    21  56    4.91   451.3    5.2      31.724
2014    5       10    22   1    4.91   451.2    5.2      31.712
2014    5       10    22   6    4.91   451.0    5.2      31.701
2014    5       10    22  12    4.92   450.8    5.2      31.690
2014    5       10    22  17    4.92   450.6    5.3      31.680
2014    5       10    22  23    4.92   450.4    5.3      31.670
2014    5       10    22  28    4.93   450.3    5.3      31.661
2014    5       10    22  33    4.93   450.1    5.3      31.651
2014    5       10    22  39    4.93   449.9    5.3      31.643
2014    5       10    22  44    4.94   449.7    5.3      31.634
2014    5       10    22  50    4.94   449.6    5.3      31.626
2014    5       10    22  55    4.95   449.4    5.3      31.618
2014    5       10    23   1    4.95   449.2    5.3      31.611
2014    5       10    23   6    4.95   449.1    5.3      31.604
2014    5       10    23  11    4.96   448.9    5.3      31.597
2014    5       10    23  17    4.96   448.7    5.3      31.590
2014    5       10    23  22    4.96   448.6    5.3      31.584
2014    5       10    23  28    4.97   448.4    5.3      31.578
2014    5       10    23  33    4.97   448.2    5.3      31.572
2014    5       10    23  38    4.98   448.1    5.4      31.567
2014    5       10    23  44    4.98   447.9    5.4      31.561
2014    5       10    23  49    4.98   447.7    5.4      31.556
2014    5       10    23  55    4.99   447.6    5.4      31.550
2014    5       11     0   0    4.99   447.4    5.4      31.545
2014    5       11     0   5    5.00   447.3    5.4      31.540
2014    5       11     0  11    5.00   447.1    5.4      31.536
2014    5       11     0  16    5.00   446.9    5.4      31.531
2014    5       11     0  22    5.01   446.8    5.4      31.526
2014    5       11     0  27    5.01   446.6    5.4      31.521
2014    5       11     0  33    5.02   446.5    5.4      31.517
2014    5       11     0  38    5.02   446.3    5.4      31.512
2014    5       11     0  43    5.02   446.2    5.4      31.508
2014    5       11     0  49    5.03   446.0    5.4      31.504
2014    5       11     0  54    5.03   445.9    5.4      31.499
2014    5       11     1   0    5.04   445.7    5.5      31.495
2014    5       11     1   5    5.04   445.6    5.5      31.490
2014    5       11     1  10    5.04   445.4    5.5      31.486
2014    5       11     1  16    5.05   445.3    5.5      31.481
2014    5       11     1  21    5.05   445.1    5.5      31.477
2014    5       11     1  27    5.06   445.0    5.5      31.472
2014    5       11     1  32    5.06   444.8    5.5      31.468
2014    5       11     1  38    5.07   444.7    5.5      31.463
2014    5       11     1  43    5.07   444.5    5.5      31.459
2014    5       11     1  48    5.07   444.4    5.5      31.454
2014    5       11     1  54    5.08   444.2    5.5      31.450
2014    5       11     1  59    5.08   444.1    5.5      31.446
2014    5       11     2   5    5.09   443.9    5.5      31.441
2014    5       11     2  10    5.09   443.8    5.5      31.437
2014    5       11     2  15    5.10   443.7    5.5      31.433
2014    5       11     2  21    5.10   443.5    5.5      31.429
2014    5       11     2  26    5.10   443.4    5.6      31.425
2014    5       11     2  32    5.11   443.2    5.6      31.421
2014    5       11     2  37    5.11   443.1    5.6      31.417
2014    5       11     2  43    5.12   442.9    5.6      31.413
2014    5       11     2  48    5.12   442.8    5.6      31.410
2014    5       11     2  53    5.13   442.7    5.6      31.406
2014    5       11     2  59    5.13   442.5    5.6      31.403
2014    5       11     3   4    5.13   442.4    5.6      31.400
2014    5       11     3  10    5.14   442.3    5.6      31.397
2014    5       11     3  15    5.14   442.1    5.6      31.395
2014    5       11     3  20    5.15   442.0    5.6      31.392
2014    5       11     3  26    5.15   441.9    5.6      31.390
2014    5       11     3  31    5.16   441.7    5.6      31.388
2014    5       11     3  37    5.16   441.6    5.6      31.387
2014    5       11     3  42    5.17   441.5    5.6      31.386
2014    5       11     3  47    5.17   441.3    5.6      31.385
2014    5       11     3  53    5.18   441.2    5.6      31.384
2014    5       11     3  58    5.18   441.1    5.7      31.383
2014    5       11     4   4    5.19   440.9    5.7      31.383
2014    5       11     4   9    5.19   440.8    5.7      31.383
2014    5       11     4  15    5.19   440.7    5.7      31.384
2014    5       11     4  20    5.20   440.6    5.7      31.385
2014    5       11     4  25    5.20   440.4    5.7      31.386
2014    5       11     4  31    5.21   440.3    5.7      31.387
2014    5       11     4  36    5.21   440.2    5.7      31.389
2014    5       11     4  42    5.22   440.1    5.7      31.391
2014    5       11     4  47    5.22   440.0    5.7      31.393
2014    5       11     4  52    5.23   439.8    5.7      31.396
2014    5       11     4  58    5.23   439.7    5.7      31.399
2014    5       11     5   3    5.24   439.6    5.7      31.403
2014    5       11     5   9    5.24   439.5    5.7      31.406
2014    5       11     5  14    5.25   439.4    5.7      31.410
2014    5       11     5  20    5.25   439.3    5.8      31.414
2014    5       11     5  25    5.26   439.2    5.8      31.419
2014    5       11     5  30    5.26   439.1    5.8      31.424
2014    5       11     5  36    5.27   438.9    5.8      31.429
2014    5       11     5  41    5.27   438.8    5.8      31.434
2014    5       11     5  47    5.28   438.7    5.8      31.440
2014    5       11     5  52    5.28   438.6    5.8      31.445
2014    5       11     5  57    5.29   438.5    5.8      31.451
2014    5       11     6   3    5.29   438.4    5.8      31.458
2014    5       11     6   8    5.30   438.3    5.8      31.464
2014    5       11     6  14    5.30   438.2    5.8      31.470
2014    5       11     6  19    5.31   438.1    5.8      31.477
2014    5       11     6  25    5.31   438.0    5.8      31.484
2014    5       11     6  30    5.32   437.9    5.8      31.491
2014    5       11     6  35    5.32   437.8    5.8      31.498
2014    5       11     6  41    5.33   437.7    5.9      31.506
2014    5       11     6  46    5.33   437.6    5.9      31.513
2014    5       11     6  52    5.34   437.5    5.9      31.521
2014    5       11     6  57    5.34   437.4    5.9      31.529
2014    5       11     7   2    5.35   437.3    5.9      31.537
2014    5       11     7   8    5.35   437.2    5.9      31.544
2014    5       11     7  13    5.36   437.1    5.9      31.552
2014    5       11     7  19    5.36   437.0    5.9      31.561
2014    5       11     7  24    5.37   437.0    5.9      31.569
2014    5       11     7  30    5.37   436.9    5.9      31.577
2014    5       11     7  35    5.38   436.8    5.9      31.586
2014    5       11     7  40    5.38   436.7    5.9      31.594
2014    5       11     7  46    5.39   436.6    5.9      31.603
2014    5       11     7  51    5.39   436.5    5.9      31.612
2014    5       11     7  57    5.40   436.4    6.0      31.621
2014    5       11     8   2    5.40   436.3    6.0      31.630
2014    5       11     8   7    5.41   436.2    6.0      31.639
2014    5       11     8  13    5.41   436.2    6.0      31.648
2014    5       11     8  18    5.42   436.1    6.0      31.657
2014    5       11     8  24    5.42   436.0    6.0      31.667
2014    5       11     8  29    5.43   435.9    6.0      31.676
2014    5       11     8  34    5.43   435.8    6.0      31.686
2014    5       11     8  40    5.44   435.7    6.0      31.695
2014    5       11     8  45    5.44   435.7    6.0      31.705
2014    5       11     8  51    5.45   435.6    6.0      31.715
2014    5       11     8  56    5.45   435.5    6.0      31.725
2014    5       11     9   2    5.46   435.4    6.0      31.735
2014    5       11     9   7    5.46   435.3    6.0      31.746
2014    5       11     9  12    5.47   435.3    6.0      31.756
2014    5       11     9  18    5.47   435.2    6.0      31.767
2014    5       11     9  23    5.48   435.1    6.1      31.778
2014    5       11     9  29    5.48   435.0    6.1      31.788
2014    5       11     9  34    5.49   435.0    6.1      31.800
2014    5       11     9  39    5.49   434.9    6.1      31.811
2014    5       11     9  45    5.50   434.8    6.1      31.822
2014    5       11     9  50    5.51   434.7    6.1      31.834
2014    5       11     9  56    5.51   434.7    6.1      31.846
2014    5       11    10   1    5.52   434.6    6.1      31.858
2014    5       11    10   7    5.52   434.5    6.1      31.870
2014    5       11    10  12    5.53   434.5    6.1      31.883
2014    5       11    10  17    5.53   434.4    6.1      31.895
2014    5       11    10  23    5.54   434.3    6.1      31.908
2014    5       11    10  28    5.54   434.3    6.1      31.921
2014    5       11    10  34    5.55   434.2    6.1      31.934
2014    5       11    10  39    5.55   434.1    6.1      31.947
2014    5       11    10  44    5.56   434.1    6.1      31.961
2014    5       11    10  50    5.56   434.0    6.2      31.975
2014    5       11    10  55    5.57   434.0    6.2      31.988
2014    5       11    11   1    5.57   433.9    6.2      32.003
2014    5       11    11   6    5.58   433.8    6.2      32.017
2014    5       11    11  12    5.58   433.8    6.2      32.032
2014    5       11    11  17    5.59   433.7    6.2      32.046
2014    5       11    11  22    5.59   433.7    6.2      32.062
2014    5       11    11  28    5.60   433.6    6.2      32.077
2014    5       11    11  33    5.60   433.6    6.2      32.092
2014    5       11    11  39    5.61   433.5    6.2      32.108
2014    5       11    11  44    5.61   433.4    6.2      32.124
2014    5       11    11  49    5.62   433.4    6.2      32.140
2014    5       11    11  55    5.62   433.3    6.2      32.156
2014    5       11    12   0    5.63   433.3    6.2      32.172
2014    5       11    12   6    5.63   433.2    6.2      32.188
2014    5       11    12  11    5.64   433.2    6.2      32.204
2014    5       11    12  17    5.64   433.1    6.3      32.220
2014    5       11    12  22    5.64   433.1    6.3      32.237
2014    5       11    12  27    5.65   433.0    6.3      32.253
2014    5       11    12  33    5.65   433.0    6.3      32.269
2014    5       11    12  38    5.66   432.9    6.3      32.285
2014    5       11    12  44    5.66   432.9    6.3      32.301
2014    5       11    12  49    5.67   432.8    6.3      32.318
2014    5       11    12  54    5.67   432.8    6.3      32.334
2014    5       11    13   0    5.68   432.7    6.3      32.350
2014    5       11    13   5    5.68   432.7    6.3      32.366
2014    5       11    13  11    5.69   432.6    6.3      32.382
2014    5       11    13  16    5.69   432.6    6.3      32.398
2014    5       11    13  21    5.70   432.5    6.3      32.414
2014    5       11    13  27    5.70   432.5    6.3      32.430
2014    5       11    13  32    5.71   432.4    6.3      32.446
2014    5       11    13  38    5.71   432.4    6.3      32.462
2014    5       11    13  43    5.72   432.4    6.3      32.477
2014    5       11    13  49    5.72   432.3    6.4      32.493
2014    5       11    13  54    5.73   432.3    6.4      32.509
2014    5       11    13  59    5.73   432.2    6.4      32.525
2014    5       11    14   5    5.74   432.2    6.4      32.541
2014    5       11    14  10    5.74   432.1    6.4      32.557
2014    5       11    14  16    5.75   432.1    6.4      32.573
2014    5       11    14  21    5.75   432.0    6.4      32.589
2014    5       11    14  26    5.76   432.0    6.4      32.605
2014    5       11    14  32    5.76   432.0    6.4      32.622
2014    5       11    14  37    5.77   431.9    6.4      32.638
2014    5       11    14  43    5.77   431.9    6.4      32.655
2014    5       11    14  48    5.78   431.8    6.4      32.671
2014    5       11    14  54    5.78   431.8    6.4      32.688
2014    5       11    14  59    5.78   431.7    6.4      32.705
2014    5       11    15   4    5.79   431.7    6.4      32.722
2014    5       11    15  10    5.79   431.7    6.4      32.739
2014    5       11    15  15    5.80   431.6    6.4      32.756
2014    5       11    15  21    5.80   431.6    6.4      32.774
2014    5       11    15  26    5.81   431.6    6.4      32.791
2014    5       11    15  31    5.81   431.5    6.4      32.809
2014    5       11    15  37    5.82   431.5    6.5      32.827
2014    5       11    15  42    5.82   431.4    6.5      32.845
2014    5       11    15  48    5.83   431.4    6.5      32.863
2014    5       11    15  53    5.83   431.4    6.5      32.882
2014    5       11    15  59    5.84   431.3    6.5      32.901
2014    5       11    16   4    5.84   431.3    6.5      32.920
2014    5       11    16   9    5.85   431.3    6.5      32.939
2014    5       11    16  15    5.85   431.2    6.5      32.959
2014    5       11    16  20    5.86   431.2    6.5      32.978
2014    5       11    16  26    5.86   431.2    6.5      32.998
2014    5       11    16  31    5.87   431.1    6.5      33.018
2014    5       11    16  36    5.87   431.1    6.5      33.039
2014    5       11    16  42    5.88   431.1    6.5      33.059
2014    5       11    16  47    5.88   431.1    6.5      33.080
2014    5       11    16  53    5.89   431.0    6.5      33.101
2014    5       11    16  58    5.89   431.0    6.5      33.122
2014    5       11    17   4    5.90   431.0    6.5      33.144
2014    5       11    17   9    5.90   431.0    6.5      33.166
2014    5       11    17  14    5.91   430.9    6.5      33.188
2014    5       11    17  20    5.91   430.9    6.6      33.210
2014    5       11    17  25    5.92   430.9    6.6      33.232
2014    5       11    17  31    5.92   430.9    6.6      33.255
2014    5       11    17  36    5.93   430.9    6.6      33.278
2014    5       11    17  41    5.93   430.8    6.6      33.302
2014    5       11    17  47    5.94   430.8    6.6      33.325
2014    5       11    17  52    5.94   430.8    6.6      33.349
2014    5       11    17  58    5.95   430.8    6.6      33.373
2014    5       11    18   3    5.95   430.8    6.6      33.397
2014    5       11    18   9    5.96   430.8    6.6      33.422
2014    5       11    18  14    5.96   430.7    6.6      33.446
2014    5       11    18  19    5.97   430.7    6.6      33.471
2014    5       11    18  25    5.97   430.7    6.6      33.496
2014    5       11    18  30    5.97   430.7    6.6      33.521
2014    5       11    18  36    5.98   430.7    6.6      33.546
2014    5       11    18  41    5.98   430.7    6.6      33.571
2014    5       11    18  46    5.99   430.7    6.6      33.596
2014    5       11    18  52    5.99   430.7    6.7      33.622
2014    5       11    18  57    6.00   430.7    6.7      33.648
2014    5       11    19   3    6.00   430.6    6.7      33.674
2014    5       11    19   8    6.01   430.6    6.7      33.700
2014    5       11    19  13    6.01   430.6    6.7      33.726
2014    5       11    19  19    6.02   430.6    6.7      33.753
2014    5       11    19  24    6.02   430.6    6.7      33.780
2014    5       11    19  30    6.02   430.6    6.7      33.807
2014    5       11    19  35    6.03   430.6    6.7      33.834
2014    5       11    19  41    6.03   430.6    6.7      33.861
2014    5       11    19  46    6.04   430.6    6.7      33.888
2014    5       11    19  51    6.04   430.6    6.7      33.915
2014    5       11    19  57    6.05   430.6    6.7      33.942
2014    5       11    20   2    6.05   430.6    6.7      33.968
2014    5       11    20   8    6.06   430.6    6.7      33.994
2014    5       11    20  13    6.06   430.6    6.7      34.020
2014    5       11    20  18    6.06   430.6    6.7      34.046
2014    5       11    20  24    6.07   430.6    6.7      34.072
2014    5       11    20  29    6.07   430.6    6.7      34.097
2014    5       11    20  35    6.08   430.6    6.7      34.123
2014    5       11    20  40    6.08   430.6    6.7      34.148
2014    5       11    20  46    6.09   430.6    6.7      34.173
2014    5       11    20  51    6.09   430.6    6.8      34.197
2014    5       11    20  56    6.09   430.6    6.8      34.222
2014    5       11    21   2    6.10   430.6    6.8      34.246
2014    5       11    21   7    6.10   430.6    6.8      34.270
2014    5       11    21  13    6.11   430.6    6.8      34.295
2014    5       11    21  18    6.11   430.6    6.8      34.319
2014    5       11    21  23    6.12   430.6    6.8      34.342
2014    5       11    21  29    6.12   430.6    6.8      34.366
2014    5       11    21  34    6.12   430.6    6.8      34.390
2014    5       11    21  40    6.13   430.6    6.8      34.414
2014    5       11    21  45    6.13   430.6    6.8      34.437
2014    5       11    21  51    6.14   430.6    6.8      34.461
2014    5       11    21  56    6.14   430.6    6.8      34.484
2014    5       11    22   1    6.15   430.6    6.8      34.508
2014    5       11    22   7    6.15   430.6    6.8      34.531
2014    5       11    22  12    6.15   430.6    6.8      34.555
2014    5       11    22  18    6.16   430.6    6.8      34.578
2014    5       11    22  23    6.16   430.6    6.8      34.602
2014    5       11    22  28    6.17   430.6    6.8      34.625
2014    5       11    22  34    6.17   430.6    6.8      34.649
2014    5       11    22  39    6.18   430.6    6.8      34.673
2014    5       11    22  45    6.18   430.6    6.8      34.696
2014    5       11    22  50    6.18   430.6    6.8      34.720
2014    5       11    22  56    6.19   430.6    6.8      34.744
2014    5       11    23   1    6.19   430.6    6.8      34.768
2014    5       11    23   6    6.20   430.6    6.8      34.792
2014    5       11    23  12    6.20   430.6    6.8      34.817
2014    5       11    23  17    6.21   430.6    6.8      34.841
2014    5       11    23  23    6.21   430.6    6.8      34.866
2014    5       11    23  28    6.21   430.7    6.9      34.891
2014    5       11    23  33    6.22   430.7    6.9      34.916
2014    5       11    23  39    6.22   430.7    6.9      34.942
2014    5       11    23  44    6.23   430.7    6.9      34.968
2014    5       11    23  50    6.23   430.7    6.9      34.993
2014    5       11    23  55    6.24   430.7    6.9      35.020
2014    5       12     0   0    6.24   430.7    6.9      35.046
2014    5       12     0   6    6.25   430.7    6.9      35.073
2014    5       12     0  11    6.25   430.7    6.9      35.100
2014    5       12     0  17    6.25   430.8    6.9      35.127
2014    5       12     0  22    6.26   430.8    6.9      35.154
2014    5       12     0  28    6.26   430.8    6.9      35.182
2014    5       12     0  33    6.27   430.8    6.9      35.210
2014    5       12     0  38    6.27   430.8    6.9      35.238
2014    5       12     0  44    6.28   430.8    6.9      35.267
2014    5       12     0  49    6.28   430.9    6.9      35.296
2014    5       12     0  55    6.28   430.9    6.9      35.325
2014    5       12     1   0    6.29   430.9    6.9      35.355
2014    5       12     1   5    6.29   430.9    6.9      35.386
2014    5       12     1  11    6.30   430.9    6.9      35.416
2014    5       12     1  16    6.30   431.0    6.9      35.447
2014    5       12     1  22    6.31   431.0    6.9      35.479
2014    5       12     1  27    6.31   431.0    6.9      35.510
2014    5       12     1  33    6.32   431.0    6.9      35.542
2014    5       12     1  38    6.32   431.1    7.0      35.573
2014    5       12     1  43    6.32   431.1    7.0      35.605
2014    5       12     1  49    6.33   431.1    7.0      35.637
2014    5       12     1  54    6.33   431.1    7.0      35.669
2014    5       12     2   0    6.34   431.2    7.0      35.701
2014    5       12     2   5    6.34   431.2    7.0      35.735
2014    5       12     2  10    6.35   431.2    7.0      35.769
2014    5       12     2  16    6.35   431.3    7.0      35.804
2014    5       12     2  21    6.35   431.3    7.0      35.840
2014    5       12     2  27    6.36   431.4    7.0      35.876
2014    5       12     2  32    6.36   431.4    7.0      35.912
2014    5       12     2  38    6.37   431.4    7.0      35.949
2014    5       12     2  43    6.37   431.5    7.0      35.986
2014    5       12     2  48    6.38   431.5    7.0      36.022
2014    5       12     2  54    6.38   431.6    7.0      36.059
2014    5       12     2  59    6.38   431.6    7.0      36.095
2014    5       12     3   5    6.39   431.6    7.0      36.130
2014    5       12     3  10    6.39   431.7    7.0      36.166
2014    5       12     3  15    6.40   431.7    7.0      36.201
2014    5       12     3  21    6.40   431.8    7.0      36.236
2014    5       12     3  26    6.40   431.8    7.0      36.271
2014    5       12     3  32    6.41   431.9    7.0      36.305
2014    5       12     3  37    6.41   431.9    7.0      36.339
2014    5       12     3  43    6.41   431.9    7.0      36.372
2014    5       12     3  48    6.42   432.0    7.0      36.406
2014    5       12     3  53    6.42   432.0    7.0      36.439
2014    5       12     3  59    6.43   432.1    7.1      36.471
2014    5       12     4   4    6.43   432.1    7.1      36.503
2014    5       12     4  10    6.43   432.1    7.1      36.535
2014    5       12     4  15    6.44   432.2    7.1      36.567
2014    5       12     4  20    6.44   432.2    7.1      36.599
2014    5       12     4  26    6.45   432.3    7.1      36.630
2014    5       12     4  31    6.45   432.3    7.1      36.661
2014    5       12     4  37    6.45   432.4    7.1      36.691
2014    5       12     4  42    6.46   432.4    7.1      36.722
2014    5       12     4  48    6.46   432.4    7.1      36.752
2014    5       12     4  53    6.46   432.5    7.1      36.782
2014    5       12     4  58    6.47   432.5    7.1      36.812
2014    5       12     5   4    6.47   432.6    7.1      36.841
2014    5       12     5   9    6.47   432.6    7.1      36.870
2014    5       12     5  15    6.48   432.7    7.1      36.900
2014    5       12     5  20    6.48   432.7    7.1      36.929
2014    5       12     5  25    6.49   432.7    7.1      36.957
2014    5       12     5  31    6.49   432.8    7.1      36.986
2014    5       12     5  36    6.49   432.8    7.1      37.015
2014    5       12     5  42    6.50   432.9    7.1      37.043
2014    5       12     5  47    6.50   432.9    7.1      37.071
2014    5       12     5  52    6.50   433.0    7.1      37.100
2014    5       12     5  58    6.51   433.0    7.1      37.128
2014    5       12     6   3    6.51   433.1    7.1      37.156
2014    5       12     6   9    6.52   433.1    7.1      37.184
2014    5       12     6  14    6.52   433.1    7.1      37.212
2014    5       12     6  20    6.52   433.2    7.1      37.240
2014    5       12     6  25    6.53   433.2    7.1      37.269
2014    5       12     6  30    6.53   433.3    7.1      37.297
2014    5       12     6  36    6.53   433.3    7.1      37.325
2014    5       12     6  41    6.54   433.4    7.1      37.354
2014    5       12     6  47    6.54   433.4    7.1      37.383
2014    5       12     6  52    6.54   433.5    7.1      37.411
2014    5       12     6  57    6.55   433.5    7.1      37.440
2014    5       12     7   3    6.55   433.6    7.1      37.469
2014    5       12     7   8    6.55   433.6    7.1      37.498
2014    5       12     7  14    6.56   433.7    7.1      37.528
2014    5       12     7  19    6.56   433.7    7.1      37.557
2014    5       12     7  25    6.57   433.8    7.1      37.587
2014    5       12     7  30    6.57   433.8    7.1      37.617
2014    5       12     7  35    6.57   433.9    7.1      37.647
2014    5       12     7  41    6.58   434.0    7.1      37.678
2014    5       12     7  46    6.58   434.0    7.1      37.708
2014    5       12     7  52    6.58   434.1    7.1      37.739
2014    5       12     7  57    6.59   434.1    7.1      37.771
2014    5       12     8   2    6.59   434.2    7.1      37.803
2014    5       12     8   8    6.59   434.2    7.1      37.834
2014    5       12     8  13    6.60   434.3    7.1      37.866
2014    5       12     8  19    6.60   434.4    7.1      37.899
2014    5       12     8  24    6.60   434.4    7.1      37.931
2014    5       12     8  30    6.61   434.5    7.1      37.964
2014    5       12     8  35    6.61   434.6    7.2      37.996
2014    5       12     8  40    6.62   434.6    7.2      38.029
2014    5       12     8  46    6.62   434.7    7.2      38.061
2014    5       12     8  51    6.62   434.7    7.2      38.094
2014    5       12     8  57    6.63   434.8    7.2      38.127
2014    5       12     9   2    6.63   434.9    7.2      38.160
2014    5       12     9   7    6.63   434.9    7.2      38.194
2014    5       12     9  13    6.64   435.0    7.2      38.229
2014    5       12     9  18    6.64   435.1    7.2      38.264
2014    5       12     9  24    6.64   435.1    7.2      38.300
2014    5       12     9  29    6.65   435.2    7.2      38.336
2014    5       12     9  35    6.65   435.3    7.2      38.372
2014    5       12     9  40    6.65   435.4    7.2      38.408
2014    5       12     9  45    6.66   435.4    7.2      38.445
2014    5       12     9  51    6.66   435.5    7.2      38.481
2014    5       12     9  56    6.67   435.6    7.2      38.517
2014    5       12    10   2    6.67   435.7    7.2      38.554
2014    5       12    10   7    6.67   435.7    7.2      38.591
2014    5       12    10  12    6.68   435.8    7.2      38.629
2014    5       12    10  18    6.68   435.9    7.2      38.668
2014    5       12    10  23    6.68   436.0    7.2      38.707
2014    5       12    10  29    6.68   436.1    7.2      38.747
2014    5       12    10  34    6.69   436.1    7.2      38.788
2014    5       12    10  39    6.69   436.2    7.2      38.828
2014    5       12    10  45    6.69   436.3    7.2      38.869
2014    5       12    10  50    6.70   436.4    7.2      38.910
2014    5       12    10  56    6.70   436.5    7.2      38.950
2014    5       12    11   1    6.70   436.5    7.2      38.990
2014    5       12    11   7    6.71   436.6    7.2      39.030
2014    5       12    11  12    6.71   436.7    7.2      39.069
2014    5       12    11  17    6.71   436.8    7.2      39.108
2014    5       12    11  23    6.71   436.9    7.2      39.146
2014    5       12    11  28    6.72   437.0    7.2      39.184
2014    5       12    11  34    6.72   437.0    7.2      39.221
2014    5       12    11  39    6.72   437.1    7.2      39.258
2014    5       12    11  44    6.73   437.2    7.2      39.295
2014    5       12    11  50    6.73   437.3    7.2      39.331
2014    5       12    11  55    6.73   437.4    7.2      39.366
2014    5       12    12   1    6.73   437.4    7.2      39.401
2014    5       12    12   6    6.74   437.5    7.2      39.436
2014    5       12    12  12    6.74   437.6    7.2      39.470
2014    5       12    12  17    6.74   437.7    7.2      39.503
2014    5       12    12  22    6.74   437.8    7.2      39.537
2014    5       12    12  28    6.75   437.8    7.2      39.570
2014    5       12    12  33    6.75   437.9    7.2      39.602
2014    5       12    12  39    6.75   438.0    7.2      39.634
2014    5       12    12  44    6.75   438.1    7.2      39.666
2014    5       12    12  49    6.76   438.2    7.2      39.697
2014    5       12    12  55    6.76   438.2    7.2      39.728
2014    5       12    13   0    6.76   438.3    7.2      39.759
2014    5       12    13   6    6.76   438.4    7.2      39.789
2014    5       12    13  11    6.77   438.5    7.2      39.819
2014    5       12    13  17    6.77   438.6    7.2      39.848
2014    5       12    13  22    6.77   438.6    7.2      39.878
2014    5       12    13  27    6.77   438.7    7.2      39.906
2014    5       12    13  33    6.78   438.8    7.2      39.935
2014    5       12    13  38    6.78   438.9    7.2      39.964
2014    5       12    13  44    6.78   439.0    7.2      39.992
2014    5       12    13  49    6.78   439.0    7.2      40.020
2014    5       12    13  54    6.79   439.1    7.2      40.048
2014    5       12    14   0    6.79   439.2    7.2      40.075
2014    5       12    14   5    6.79   439.3    7.2      40.103
2014    5       12    14  11    6.79   439.4    7.2      40.130
2014    5       12    14  16    6.80   439.4    7.2      40.157
2014    5       12    14  22    6.80   439.5    7.2      40.184
2014    5       12    14  27    6.80   439.6    7.2      40.211
2014    5       12    14  32    6.80   439.7    7.2      40.237
2014    5       12    14  38    6.81   439.8    7.2      40.264
2014    5       12    14  43    6.81   439.8    7.2      40.291
2014    5       12    14  49    6.81   439.9    7.2      40.317
2014    5       12    14  54    6.81   440.0    7.2      40.343
2014    5       12    14  59    6.82   440.1    7.2      40.369
2014    5       12    15   5    6.82   440.2    7.2      40.395
2014    5       12    15  10    6.82   440.2    7.2      40.421
2014    5       12    15  16    6.82   440.3    7.2      40.447
2014    5       12    15  21    6.83   440.4    7.2      40.473
2014    5       12    15  27    6.83   440.5    7.2      40.499
2014    5       12    15  32    6.83   440.6    7.2      40.524
2014    5       12    15  37    6.83   440.7    7.2      40.550
2014    5       12    15  43    6.84   440.7    7.2      40.575
2014    5       12    15  48    6.84   440.8    7.2      40.601
2014    5       12    15  54    6.84   440.9    7.2      40.626
2014    5       12    15  59    6.84   441.0    7.2      40.652
2014    5       12    16   4    6.85   441.1    7.2      40.677
2014    5       12    16  10    6.85   441.1    7.2      40.703
2014    5       12    16  15    6.85   441.2    7.2      40.729
2014    5       12    16  21    6.86   441.3    7.2      40.754
2014    5       12    16  26    6.86   441.4    7.2      40.780
2014    5       12    16  31    6.86   441.5    7.2      40.806
2014    5       12    16  37    6.86   441.5    7.2      40.832
2014    5       12    16  42    6.87   441.6    7.2      40.859
2014    5       12    16  48    6.87   441.7    7.2      40.887
2014    5       12    16  53    6.87   441.8    7.2      40.915
2014    5       12    16  59    6.87   441.9    7.2      40.945
2014    5       12    17   4    6.88   442.0    7.2      40.975
2014    5       12    17   9    6.88   442.0    7.2      41.006
2014    5       12    17  15    6.88   442.1    7.2      41.038
2014    5       12    17  20    6.89   442.2    7.2      41.071
2014    5       12    17  26    6.89   442.3    7.2      41.104
2014    5       12    17  31    6.89   442.4    7.2      41.137
2014    5       12    17  36    6.89   442.5    7.2      41.170
2014    5       12    17  42    6.90   442.6    7.2      41.204
2014    5       12    17  47    6.90   442.7    7.2      41.239
2014    5       12    17  53    6.90   442.8    7.2      41.274
2014    5       12    17  58    6.91   442.9    7.2      41.310
2014    5       12    18   4    6.91   443.0    7.2      41.346
2014    5       12    18   9    6.91   443.1    7.2      41.383
2014    5       12    18  14    6.92   443.2    7.2      41.420
2014    5       12    18  20    6.92   443.3    7.2      41.457
2014    5       12    18  25    6.92   443.4    7.2      41.494
2014    5       12    18  31    6.93   443.5    7.2      41.531
2014    5       12    18  36    6.93   443.6    7.2      41.567
2014    5       12    18  41    6.93   443.7    7.2      41.602
2014    5       12    18  47    6.93   443.9    7.2      41.637
2014    5       12    18  52    6.94   444.0    7.2      41.671
2014    5       12    18  58    6.94   444.1    7.2      41.704
2014    5       12    19   3    6.94   444.2    7.2      41.736
2014    5       12    19   9    6.95   444.3    7.2      41.767
2014    5       12    19  14    6.95   444.4    7.2      41.798
2014    5       12    19  19    6.95   444.5    7.2      41.828
2014    5       12    19  25    6.95   444.7    7.2      41.857
2014    5       12    19  30    6.96   444.8    7.2      41.886
2014    5       12    19  36    6.96   444.9    7.2      41.914
2014    5       12    19  41    6.96   445.0    7.2      41.941
2014    5       12    19  46    6.96   445.1    7.2      41.968
2014    5       12    19  52    6.97   445.2    7.2      41.994
2014    5       12    19  57    6.97   445.4    7.2      42.020
2014    5       12    20   3    6.97   445.5    7.2      42.045
2014    5       12    20   8    6.97   445.6    7.2      42.070
2014    5       12    20  14    6.98   445.7    7.2      42.095
2014    5       12    20  19    6.98   445.8    7.2      42.119
2014    5       12    20  24    6.98   445.9    7.2      42.143
2014    5       12    20  30    6.98   446.0    7.2      42.166
2014    5       12    20  35    6.98   446.2    7.2      42.190
2014    5       12    20  41    6.99   446.3    7.2      42.213
2014    5       12    20  46    6.99   446.4    7.2      42.235
2014    5       12    20  51    6.99   446.5    7.2      42.258
2014    5       12    20  57    6.99   446.6    7.2      42.280
2014    5       12    21   2    7.00   446.7    7.2      42.301
2014    5       12    21   8    7.00   446.9    7.2      42.323
2014    5       12    21  13    7.00   447.0    7.2      42.344
2014    5       12    21  18    7.00   447.1    7.2      42.365
2014    5       12    21  24    7.01   447.2    7.2      42.386
2014    5       12    21  29    7.01   447.3    7.2      42.407
2014    5       12    21  35    7.01   447.4    7.2      42.428
2014    5       12    21  40    7.01   447.5    7.2      42.448
2014    5       12    21  46    7.01   447.7    7.2      42.468
2014    5       12    21  51    7.02   447.8    7.2      42.489
2014    5       12    21  56    7.02   447.9    7.2      42.509
2014    5       12    22   2    7.02   448.0    7.2      42.529
2014    5       12    22   7    7.02   448.1    7.2      42.549
2014    5       12    22  13    7.03   448.2    7.2      42.569
2014    5       12    22  18    7.03   448.4    7.2      42.589
2014    5       12    22  23    7.03   448.5    7.2      42.609
2014    5       12    22  29    7.03   448.6    7.2      42.629
2014    5       12    22  34    7.03   448.7    7.2      42.649
2014    5       12    22  40    7.04   448.8    7.2      42.669
2014    5       12    22  45    7.04   448.9    7.2      42.689
2014    5       12    22  51    7.04   449.1    7.2      42.710
2014    5       12    22  56    7.04   449.2    7.2      42.730
2014    5       12    23   1    7.04   449.3    7.2      42.751
2014    5       12    23   7    7.05   449.4    7.2      42.772
2014    5       12    23  12    7.05   449.5    7.2      42.793
2014    5       12    23  18    7.05   449.7    7.2      42.814
2014    5       12    23  23    7.05   449.8    7.2      42.835
2014    5       12    23  28    7.06   449.9    7.2      42.856
2014    5       12    23  34    7.06   450.0    7.2      42.878
2014    5       12    23  39    7.06   450.1    7.2      42.900
2014    5       12    23  45    7.06   450.3    7.2      42.923
2014    5       12    23  50    7.06   450.4    7.2      42.945
2014    5       12    23  56    7.07   450.5    7.2      42.968
2014    5       13     0   1    7.07   450.6    7.2      42.991
2014    5       13     0   6    7.07   450.8    7.2      43.014
2014    5       13     0  12    7.07   450.9    7.2      43.036
2014    5       13     0  17    7.07   451.0    7.2      43.059
2014    5       13     0  23    7.08   451.2    7.2      43.081
2014    5       13     0  28    7.08   451.3    7.2      43.103
2014    5       13     0  33    7.08   451.4    7.2      43.124
2014    5       13     0  39    7.08   451.5    7.2      43.145
2014    5       13     0  44    7.08   451.7    7.2      43.166
2014    5       13     0  50    7.09   451.8    7.2      43.187
2014    5       13     0  55    7.09   451.9    7.2      43.208
2014    5       13     1   1    7.09   452.1    7.2      43.228
2014    5       13     1   6    7.09   452.2    7.2      43.248
2014    5       13     1  11    7.09   452.3    7.2      43.268
2014    5       13     1  17    7.10   452.4    7.2      43.288
2014    5       13     1  22    7.10   452.6    7.2      43.308
2014    5       13     1  28    7.10   452.7    7.2      43.328
2014    5       13     1  33    7.10   452.8    7.2      43.348
2014    5       13     1  38    7.10   452.9    7.2      43.368
2014    5       13     1  44    7.10   453.0    7.2      43.389
2014    5       13     1  49    7.11   453.2    7.2      43.409
2014    5       13     1  55    7.11   453.3    7.2      43.430
2014    5       13     2   0    7.11   453.4    7.2      43.452
2014    5       13     2   5    7.11   453.5    7.2      43.475
2014    5       13     2  11    7.11   453.7    7.2      43.499
2014    5       13     2  16    7.12   453.8    7.2      43.525
2014    5       13     2  22    7.12   454.0    7.2      43.552
2014    5       13     2  27    7.12   454.1    7.2      43.580
2014    5       13     2  33    7.12   454.2    7.2      43.609
2014    5       13     2  38    7.12   454.4    7.2      43.639
2014    5       13     2  43    7.13   454.5    7.2      43.669
2014    5       13     2  49    7.13   454.7    7.2      43.699
2014    5       13     2  54    7.13   454.8    7.2      43.728
2014    5       13     3   0    7.13   454.9    7.2      43.758
2014    5       13     3   5    7.13   455.1    7.2      43.787
2014    5       13     3  10    7.13   455.2    7.2      43.816
2014    5       13     3  16    7.14   455.4    7.2      43.845
2014    5       13     3  21    7.14   455.5    7.2      43.874
2014    5       13     3  27    7.14   455.7    7.2      43.903
2014    5       13     3  32    7.14   455.8    7.2      43.931
2014    5       13     3  38    7.14   456.0    7.2      43.959
2014    5       13     3  43    7.14   456.1    7.2      43.986
2014    5       13     3  48    7.15   456.3    7.2      44.014
2014    5       13     3  54    7.15   456.4    7.2      44.041
2014    5       13     3  59    7.15   456.5    7.2      44.068
2014    5       13     4   5    7.15   456.7    7.2      44.095
2014    5       13     4  10    7.15   456.8    7.2      44.122
2014    5       13     4  15    7.15   457.0    7.1      44.149
2014    5       13     4  21    7.16   457.1    7.1      44.175
2014    5       13     4  26    7.16   457.3    7.1      44.201
2014    5       13     4  32    7.16   457.4    7.1      44.228
2014    5       13     4  37    7.16   457.6    7.1      44.254
2014    5       13     4  43    7.16   457.7    7.1      44.280
2014    5       13     4  48    7.16   457.9    7.1      44.306
2014    5       13     4  53    7.16   458.0    7.1      44.333
2014    5       13     4  59    7.17   458.2    7.1      44.359
2014    5       13     5   4    7.17   458.3    7.1      44.385
2014    5       13     5  10    7.17   458.5    7.1      44.411
2014    5       13     5  15    7.17   458.6    7.1      44.437
2014    5       13     5  20    7.17   458.8    7.1      44.464
2014    5       13     5  26    7.17   458.9    7.1      44.490
2014    5       13     5  31    7.17   459.1    7.1      44.517
2014    5       13     5  37    7.18   459.2    7.1      44.544
2014    5       13     5  42    7.18   459.4    7.1      44.571
2014    5       13     5  48    7.18   459.6    7.1      44.598
2014    5       13     5  53    7.18   459.7    7.1      44.626
2014    5       13     5  58    7.18   459.9    7.1      44.653
2014    5       13     6   4    7.18   460.0    7.1      44.682
2014    5       13     6   9    7.18   460.2    7.1      44.710
2014    5       13     6  15    7.19   460.3    7.1      44.739
2014    5       13     6  20    7.19   460.5    7.1      44.767
2014    5       13     6  25    7.19   460.6    7.1      44.796
2014    5       13     6  31    7.19   460.8    7.1      44.825
2014    5       13     6  36    7.19   461.0    7.1      44.853
2014    5       13     6  42    7.19   461.1    7.1      44.881
2014    5       13     6  47    7.19   461.3    7.1      44.909
2014    5       13     6  52    7.19   461.4    7.0      44.937
2014    5       13     6  58    7.19   461.6    7.0      44.965
2014    5       13     7   3    7.19   461.8    7.0      44.992
2014    5       13     7   9    7.20   461.9    7.0      45.019
2014    5       13     7  14    7.20   462.1    7.0      45.045
2014    5       13     7  20    7.20   462.2    7.0      45.072
2014    5       13     7  25    7.20   462.4    7.0      45.098
2014    5       13     7  30    7.20   462.6    7.0      45.123
2014    5       13     7  36    7.20   462.7    7.0      45.149
2014    5       13     7  41    7.20   462.9    7.0      45.174
2014    5       13     7  47    7.20   463.0    7.0      45.199
2014    5       13     7  52    7.20   463.2    7.0      45.223
2014    5       13     7  57    7.20   463.3    7.0      45.248
2014    5       13     8   3    7.20   463.5    7.0      45.272
2014    5       13     8   8    7.20   463.7    7.0      45.296
2014    5       13     8  14    7.20   463.8    7.0      45.319
2014    5       13     8  19    7.21   464.0    7.0      45.343
2014    5       13     8  25    7.21   464.1    7.0      45.366
2014    5       13     8  30    7.21   464.3    7.0      45.389
2014    5       13     8  35    7.21   464.5    7.0      45.411
2014    5       13     8  41    7.21   464.6    6.9      45.434
2014    5       13     8  46    7.21   464.8    6.9      45.456
2014    5       13     8  52    7.21   464.9    6.9      45.478
2014    5       13     8  57    7.21   465.1    6.9      45.500
2014    5       13     9   2    7.21   465.3    6.9      45.522
2014    5       13     9   8    7.21   465.4    6.9      45.543
2014    5       13     9  13    7.21   465.6    6.9      45.564
2014    5       13     9  19    7.21   465.7    6.9      45.585
2014    5       13     9  24    7.21   465.9    6.9      45.606
2014    5       13     9  30    7.21   466.0    6.9      45.627
2014    5       13     9  35    7.21   466.2    6.9      45.648
2014    5       13     9  40    7.21   466.4    6.9      45.668
2014    5       13     9  46    7.21   466.5    6.9      45.688
2014    5       13     9  51    7.21   466.7    6.9      45.708
2014    5       13     9  57    7.21   466.8    6.9      45.728
2014    5       13    10   2    7.21   467.0    6.9      45.747
2014    5       13    10   7    7.21   467.2    6.9      45.767
2014    5       13    10  13    7.21   467.3    6.9      45.786
2014    5       13    10  18    7.21   467.5    6.8      45.805
2014    5       13    10  24    7.21   467.6    6.8      45.824
2014    5       13    10  29    7.21   467.8    6.8      45.843
2014    5       13    10  34    7.21   467.9    6.8      45.862
2014    5       13    10  40    7.21   468.1    6.8      45.880
2014    5       13    10  45    7.21   468.3    6.8      45.899
2014    5       13    10  51    7.21   468.4    6.8      45.917
2014    5       13    10  56    7.21   468.6    6.8      45.935
2014    5       13    11   2    7.21   468.7    6.8      45.954
2014    5       13    11   7    7.21   468.9    6.8      45.972
2014    5       13    11  12    7.21   469.0    6.8      45.990
2014    5       13    11  18    7.21   469.2    6.8      46.009
2014    5       13    11  23    7.21   469.3    6.8      46.028
2014    5       13    11  29    7.21   469.5    6.8      46.046
2014    5       13    11  34    7.21   469.6    6.8      46.065
2014    5       13    11  39    7.21   469.8    6.8      46.084
2014    5       13    11  45    7.21   470.0    6.8      46.104
2014    5       13    11  50    7.21   470.1    6.8      46.123
2014    5       13    11  56    7.21   470.3    6.7      46.142
2014    5       13    12   1    7.21   470.4    6.7      46.162
2014    5       13    12   7    7.21   470.6    6.7      46.181
2014    5       13    12  12    7.21   470.7    6.7      46.201
2014    5       13    12  17    7.21   470.9    6.7      46.222
2014    5       13    12  23    7.21   471.0    6.7      46.243
2014    5       13    12  28    7.21   471.2    6.7      46.264
2014    5       13    12  34    7.21   471.3    6.7      46.286
2014    5       13    12  39    7.21   471.5    6.7      46.308
2014    5       13    12  44    7.21   471.6    6.7      46.331
2014    5       13    12  50    7.21   471.8    6.7      46.355
2014    5       13    12  55    7.21   472.0    6.7      46.378
2014    5       13    13   1    7.21   472.1    6.7      46.402
2014    5       13    13   6    7.21   472.3    6.7      46.427
2014    5       13    13  12    7.21   472.4    6.7      46.451
2014    5       13    13  17    7.21   472.6    6.7      46.476
2014    5       13    13  22    7.21   472.7    6.7      46.500
2014    5       13    13  28    7.21   472.9    6.7      46.525
2014    5       13    13  33    7.21   473.0    6.7      46.550
2014    5       13    13  39    7.21   473.2    6.7      46.575
2014    5       13    13  44    7.21   473.3    6.6      46.600
2014    5       13    13  49    7.21   473.5    6.6      46.625
2014    5       13    13  55    7.21   473.7    6.6      46.650
2014    5       13    14   0    7.21   473.8    6.6      46.675
2014    5       13    14   6    7.21   474.0    6.6      46.700
2014    5       13    14  11    7.20   474.1    6.6      46.725
2014    5       13    14  17    7.20   474.3    6.6      46.750
2014    5       13    14  22    7.20   474.4    6.6      46.775
2014    5       13    14  27    7.20   474.6    6.6      46.800
2014    5       13    14  33    7.20   474.7    6.6      46.825
2014    5       13    14  38    7.20   474.9    6.6      46.850
2014    5       13    14  44    7.20   475.0    6.6      46.874
2014    5       13    14  49    7.20   475.2    6.6      46.899
2014    5       13    14  54    7.20   475.3    6.6      46.923
2014    5       13    15   0    7.20   475.5    6.6      46.948
2014    5       13    15   5    7.20   475.6    6.6      46.972
2014    5       13    15  11    7.20   475.8    6.6      46.996
2014    5       13    15  16    7.20   476.0    6.6      47.020
2014    5       13    15  21    7.20   476.1    6.6      47.044
2014    5       13    15  27    7.20   476.3    6.6      47.068
2014    5       13    15  32    7.20   476.4    6.5      47.091
2014    5       13    15  38    7.20   476.6    6.5      47.115
2014    5       13    15  43    7.20   476.7    6.5      47.138
2014    5       13    15  49    7.19   476.9    6.5      47.162
2014    5       13    15  54    7.19   477.0    6.5      47.185
2014    5       13    15  59    7.19   477.2    6.5      47.208
2014    5       13    16   5    7.19   477.3    6.5      47.231
2014    5       13    16  10    7.19   477.5    6.5      47.254
2014    5       13    16  16    7.19   477.6    6.5      47.277
2014    5       13    16  21    7.19   477.7    6.5      47.300
2014    5       13    16  26    7.19   477.9    6.5      47.323
2014    5       13    16  32    7.19   478.0    6.5      47.346
2014    5       13    16  37    7.19   478.2    6.5      47.368
2014    5       13    16  43    7.19   478.3    6.5      47.391
2014    5       13    16  48    7.19   478.5    6.5      47.414
2014    5       13    16  54    7.19   478.6    6.5      47.438
2014    5       13    16  59    7.19   478.8    6.5      47.461
2014    5       13    17   4    7.18   478.9    6.5      47.484
2014    5       13    17  10    7.18   479.1    6.5      47.507
2014    5       13    17  15    7.18   479.2    6.5      47.531
2014    5       13    17  21    7.18   479.4    6.4      47.555
2014    5       13    17  26    7.18   479.5    6.4      47.579
2014    5       13    17  31    7.18   479.6    6.4      47.604
2014    5       13    17  37    7.18   479.8    6.4      47.628
2014    5       13    17  42    7.18   479.9    6.4      47.653
2014    5       13    17  48    7.18   480.1    6.4      47.678
2014    5       13    17  53    7.18   480.2    6.4      47.704
2014    5       13    17  59    7.18   480.4    6.4      47.729
2014    5       13    18   4    7.18   480.5    6.4      47.755
2014    5       13    18   9    7.18   480.7    6.4      47.780
2014    5       13    18  15    7.18   480.8    6.4      47.805
2014    5       13    18  20    7.18   481.0    6.4      47.831
2014    5       13    18  26    7.18   481.1    6.4      47.856
2014    5       13    18  31    7.18   481.3    6.4      47.881
2014    5       13    18  36    7.18   481.4    6.4      47.907
2014    5       13    18  42    7.17   481.6    6.4      47.932
2014    5       13    18  47    7.17   481.7    6.4      47.957
2014    5       13    18  53    7.17   481.9    6.4      47.982
2014    5       13    18  58    7.17   482.0    6.4      48.008
2014    5       13    19   3    7.17   482.2    6.4      48.033
2014    5       13    19   9    7.17   482.3    6.4      48.058
2014    5       13    19  14    7.17   482.5    6.4      48.084
2014    5       13    19  20    7.17   482.6    6.3      48.109
2014    5       13    19  25    7.17   482.7    6.3      48.134
2014    5       13    19  31    7.17   482.9    6.3      48.159
2014    5       13    19  36    7.17   483.0    6.3      48.184
2014    5       13    19  41    7.17   483.2    6.3      48.209
2014    5       13    19  47    7.17   483.3    6.3      48.234
2014    5       13    19  52    7.17   483.5    6.3      48.259
2014    5       13    19  58    7.17   483.6    6.3      48.284
2014    5       13    20   3    7.17   483.8    6.3      48.309
2014    5       13    20   8    7.17   483.9    6.3      48.334
2014    5       13    20  14    7.17   484.1    6.3      48.358
2014    5       13    20  19    7.17   484.2    6.3      48.383
2014    5       13    20  25    7.17   484.4    6.3      48.408
2014    5       13    20  30    7.17   484.5    6.3      48.433
2014    5       13    20  36    7.16   484.6    6.3      48.458
2014    5       13    20  41    7.16   484.8    6.3      48.483
2014    5       13    20  46    7.16   484.9    6.3      48.508
2014    5       13    20  52    7.16   485.1    6.3      48.532
2014    5       13    20  57    7.16   485.2    6.3      48.557
2014    5       13    21   3    7.16   485.4    6.3      48.582
2014    5       13    21   8    7.16   485.5    6.3      48.607
2014    5       13    21  13    7.16   485.7    6.3      48.632
2014    5       13    21  19    7.16   485.8    6.3      48.657
2014    5       13    21  24    7.16   486.0    6.2      48.682
2014    5       13    21  30    7.16   486.1    6.2      48.707
2014    5       13    21  35    7.16   486.3    6.2      48.733
2014    5       13    21  41    7.16   486.4    6.2      48.758
2014    5       13    21  46    7.16   486.6    6.2      48.783
2014    5       13    21  51    7.16   486.7    6.2      48.809
2014    5       13    21  57    7.16   486.9    6.2      48.835
2014    5       13    22   2    7.16   487.0    6.2      48.860
2014    5       13    22   8    7.16   487.2    6.2      48.887
2014    5       13    22  13    7.16   487.3    6.2      48.913
2014    5       13    22  18    7.16   487.5    6.2      48.939
2014    5       13    22  24    7.16   487.6    6.2      48.966
2014    5       13    22  29    7.16   487.8    6.2      48.993
2014    5       13    22  35    7.15   487.9    6.2      49.019
2014    5       13    22  40    7.15   488.1    6.2      49.046
2014    5       13    22  45    7.15   488.2    6.2      49.073
2014    5       13    22  51    7.15   488.4    6.2      49.100
2014    5       13    22  56    7.15   488.5    6.2      49.126
2014    5       13    23   2    7.15   488.7    6.2      49.153
2014    5       13    23   7    7.15   488.8    6.2      49.179
2014    5       13    23  13    7.15   489.0    6.2      49.206
2014    5       13    23  18    7.15   489.1    6.2      49.232
2014    5       13    23  23    7.15   489.3    6.2      49.258
2014    5       13    23  29    7.15   489.4    6.2      49.285
2014    5       13    23  34    7.15   489.6    6.1      49.311
2014    5       13    23  40    7.15   489.7    6.1      49.337
2014    5       13    23  45    7.15   489.9    6.1      49.363
2014    5       13    23  50    7.15   490.0    6.1      49.390
2014    5       13    23  56    7.15   490.2    6.1      49.416
2014    5       14     0   1    7.15   490.3    6.1      49.443
2014    5       14     0   7    7.15   490.4    6.1      49.469
2014    5       14     0  12    7.14   490.6    6.1      49.496
2014    5       14     0  18    7.14   490.7    6.1      49.523
2014    5       14     0  23    7.14   490.9    6.1      49.550
2014    5       14     0  28    7.14   491.0    6.1      49.577
2014    5       14     0  34    7.14   491.2    6.1      49.605
2014    5       14     0  39    7.14   491.3    6.1      49.633
2014    5       14     0  45    7.14   491.5    6.1      49.661
2014    5       14     0  50    7.14   491.6    6.1      49.690
2014    5       14     0  55    7.14   491.8    6.1      49.718
2014    5       14     1   1    7.14   491.9    6.1      49.748
2014    5       14     1   6    7.14   492.1    6.1      49.777
2014    5       14     1  12    7.14   492.2    6.1      49.808
2014    5       14     1  17    7.14   492.4    6.1      49.838
2014    5       14     1  23    7.14   492.5    6.1      49.870
2014    5       14     1  28    7.14   492.7    6.1      49.901
2014    5       14     1  33    7.14   492.8    6.1      49.933
2014    5       14     1  39    7.14   493.0    6.1      49.965
2014    5       14     1  44    7.14   493.2    6.1      49.997
2014    5       14     1  50    7.14   493.3    6.1      50.030
2014    5       14     1  55    7.14   493.5    6.1      50.062
2014    5       14     2   0    7.14   493.6    6.0      50.095
2014    5       14     2   6    7.14   493.8    6.0      50.127
2014    5       14     2  11    7.14   494.0    6.0      50.160
2014    5       14     2  17    7.14   494.1    6.0      50.192
2014    5       14     2  22    7.14   494.3    6.0      50.225
2014    5       14     2  27    7.14   494.4    6.0      50.257
2014    5       14     2  33    7.14   494.6    6.0      50.290
2014    5       14     2  38    7.14   494.8    6.0      50.322
2014    5       14     2  44    7.14   494.9    6.0      50.353
2014    5       14     2  49    7.14   495.1    6.0      50.385
2014    5       14     2  55    7.14   495.2    6.0      50.416
2014    5       14     3   0    7.14   495.4    6.0      50.447
2014    5       14     3   5    7.14   495.6    6.0      50.478
2014    5       14     3  11    7.14   495.7    6.0      50.508
2014    5       14     3  16    7.14   495.9    6.0      50.538
2014    5       14     3  22    7.14   496.0    6.0      50.568
2014    5       14     3  27    7.14   496.2    6.0      50.598
2014    5       14     3  32    7.14   496.4    6.0      50.627
2014    5       14     3  38    7.14   496.5    6.0      50.656
2014    5       14     3  43    7.14   496.7    6.0      50.685
2014    5       14     3  49    7.14   496.8    6.0      50.714
2014    5       14     3  54    7.14   497.0    6.0      50.743
2014    5       14     4   0    7.14   497.2    6.0      50.772
2014    5       14     4   5    7.14   497.3    6.0      50.800
2014    5       14     4  10    7.14   497.5    6.0      50.829
2014    5       14     4  16    7.14   497.6    6.0      50.858
2014    5       14     4  21    7.14   497.8    6.0      50.886
2014    5       14     4  27    7.14   498.0    5.9      50.915
2014    5       14     4  32    7.14   498.1    5.9      50.944
2014    5       14     4  37    7.14   498.3    5.9      50.972
2014    5       14     4  43    7.14   498.5    5.9      51.001
2014    5       14     4  48    7.14   498.6    5.9      51.031
2014    5       14     4  54    7.14   498.8    5.9      51.060
2014    5       14     4  59    7.14   498.9    5.9      51.089
2014    5       14     5   5    7.14   499.1    5.9      51.119
2014    5       14     5  10    7.14   499.3    5.9      51.149
2014    5       14     5  15    7.14   499.4    5.9      51.179
2014    5       14     5  21    7.14   499.6    5.9      51.209
2014    5       14     5  26    7.14   499.8    5.9      51.240
2014    5       14     5  32    7.14   499.9    5.9      51.271
2014    5       14     5  37    7.14   500.1    5.9      51.302
2014    5       14     5  42    7.14   500.3    5.9      51.333
2014    5       14     5  48    7.14   500.4    5.9      51.365
2014    5       14     5  53    7.14   500.6    5.9      51.397
2014    5       14     5  59    7.14   500.8    5.9      51.429
2014    5       14     6   4    7.14   501.0    5.9      51.462
2014    5       14     6   9    7.14   501.1    5.9      51.495
2014    5       14     6  15    7.14   501.3    5.9      51.528
2014    5       14     6  20    7.14   501.5    5.9      51.561
2014    5       14     6  26    7.14   501.6    5.9      51.595
2014    5       14     6  31    7.14   501.8    5.9      51.629
2014    5       14     6  37    7.14   502.0    5.9      51.663
2014    5       14     6  42    7.14   502.2    5.9      51.697
2014    5       14     6  47    7.14   502.3    5.9      51.732
2014    5       14     6  53    7.14   502.5    5.9      51.767
2014    5       14     6  58    7.14   502.7    5.8      51.802
2014    5       14     7   4    7.14   502.9    5.8      51.838
2014    5       14     7   9    7.14   503.0    5.8      51.874
2014    5       14     7  14    7.14   503.2    5.8      51.910
2014    5       14     7  20    7.14   503.4    5.8      51.946
2014    5       14     7  25    7.14   503.6    5.8      51.983
2014    5       14     7  31    7.14   503.7    5.8      52.019
2014    5       14     7  36    7.14   503.9    5.8      52.055
2014    5       14     7  42    7.14   504.1    5.8      52.091
2014    5       14     7  47    7.14   504.3    5.8      52.127
2014    5       14     7  52    7.14   504.4    5.8      52.162
2014    5       14     7  58    7.14   504.6    5.8      52.198
2014    5       14     8   3    7.14   504.8    5.8      52.233
2014    5       14     8   9    7.14   505.0    5.8      52.269
2014    5       14     8  14    7.14   505.2    5.8      52.304
2014    5       14     8  19    7.14   505.3    5.8      52.339
2014    5       14     8  25    7.14   505.5    5.8      52.375
2014    5       14     8  30    7.14   505.7    5.8      52.410
2014    5       14     8  36    7.14   505.9    5.8      52.445
2014    5       14     8  41    7.14   506.0    5.8      52.481
2014    5       14     8  46    7.14   506.2    5.8      52.516
2014    5       14     8  52    7.14   506.4    5.8      52.552
2014    5       14     8  57    7.14   506.6    5.8      52.587
2014    5       14     9   3    7.14   506.8    5.8      52.623
2014    5       14     9   8    7.14   506.9    5.8      52.659
2014    5       14     9  14    7.14   507.1    5.8      52.695
2014    5       14     9  19    7.14   507.3    5.7      52.731
2014    5       14     9  24    7.14   507.5    5.7      52.767
2014    5       14     9  30    7.14   507.7    5.7      52.804
2014    5       14     9  35    7.14   507.8    5.7      52.841
2014    5       14     9  41    7.14   508.0    5.7      52.878
2014    5       14     9  46    7.14   508.2    5.7      52.915
2014    5       14     9  51    7.14   508.4    5.7      52.952
2014    5       14     9  57    7.14   508.6    5.7      52.989
2014    5       14    10   2    7.14   508.8    5.7      53.027
2014    5       14    10   8    7.14   509.0    5.7      53.064
2014    5       14    10  13    7.14   509.1    5.7      53.101
2014    5       14    10  19    7.14   509.3    5.7      53.138
2014    5       14    10  24    7.14   509.5    5.7      53.175
2014    5       14    10  29    7.14   509.7    5.7      53.212
2014    5       14    10  35    7.14   509.9    5.7      53.249
2014    5       14    10  40    7.14   510.1    5.7      53.286
2014    5       14    10  46    7.14   510.3    5.7      53.323
2014    5       14    10  51    7.14   510.5    5.7      53.359
2014    5       14    10  56    7.14   510.6    5.7      53.396
2014    5       14    11   2    7.14   510.8    5.7      53.433
2014    5       14    11   7    7.14   511.0    5.7      53.470
2014    5       14    11  13    7.14   511.2    5.7      53.506
2014    5       14    11  18    7.14   511.4    5.7      53.543
2014    5       14    11  23    7.14   511.6    5.7      53.580
2014    5       14    11  29    7.14   511.8    5.7      53.617
2014    5       14    11  34    7.14   512.0    5.7      53.654
2014    5       14    11  40    7.14   512.2    5.6      53.691
2014    5       14    11  45    7.14   512.3    5.6      53.728
2014    5       14    11  51    7.14   512.5    5.6      53.766
2014    5       14    11  56    7.14   512.7    5.6      53.803
2014    5       14    12   1    7.15   512.9    5.6      53.841
2014    5       14    12   7    7.15   513.1    5.6      53.879
2014    5       14    12  12    7.15   513.3    5.6      53.918
2014    5       14    12  18    7.15   513.5    5.6      53.956
2014    5       14    12  23    7.15   513.7    5.6      53.996
2014    5       14    12  28    7.15   513.9    5.6      54.035
2014    5       14    12  34    7.15   514.1    5.6      54.075
2014    5       14    12  39    7.15   514.3    5.6      54.116
2014    5       14    12  45    7.15   514.5    5.6      54.157
2014    5       14    12  50    7.15   514.7    5.6      54.198
2014    5       14    12  56    7.15   514.9    5.6      54.239
2014    5       14    13   1    7.15   515.1    5.6      54.281
2014    5       14    13   6    7.15   515.3    5.6      54.323
2014    5       14    13  12    7.15   515.5    5.6      54.365
2014    5       14    13  17    7.15   515.7    5.6      54.407
2014    5       14    13  23    7.15   515.9    5.6      54.449
2014    5       14    13  28    7.15   516.1    5.6      54.492
2014    5       14    13  33    7.15   516.3    5.6      54.536
2014    5       14    13  39    7.15   516.5    5.6      54.581
2014    5       14    13  44    7.15   516.7    5.6      54.626
2014    5       14    13  50    7.15   516.9    5.6      54.672
2014    5       14    13  55    7.15   517.1    5.6      54.719
2014    5       14    14   0    7.15   517.3    5.6      54.766
2014    5       14    14   6    7.15   517.5    5.6      54.813
2014    5       14    14  11    7.15   517.7    5.5      54.860
2014    5       14    14  17    7.15   518.0    5.5      54.906
2014    5       14    14  22    7.15   518.2    5.5      54.953
2014    5       14    14  28    7.15   518.4    5.5      54.999
2014    5       14    14  33    7.15   518.6    5.5      55.044
2014    5       14    14  38    7.15   518.8    5.5      55.090
2014    5       14    14  44    7.15   519.0    5.5      55.134
2014    5       14    14  49    7.15   519.2    5.5      55.179
2014    5       14    14  55    7.15   519.4    5.5      55.223
2014    5       14    15   0    7.15   519.7    5.5      55.267
2014    5       14    15   5    7.15   519.9    5.5      55.311
2014    5       14    15  11    7.15   520.1    5.5      55.355
2014    5       14    15  16    7.15   520.3    5.5      55.399
2014    5       14    15  22    7.15   520.5    5.5      55.442
2014    5       14    15  27    7.15   520.7    5.5      55.485
2014    5       14    15  33    7.15   521.0    5.5      55.528
2014    5       14    15  38    7.15   521.2    5.5      55.571
2014    5       14    15  43    7.15   521.4    5.5      55.613
2014    5       14    15  49    7.15   521.6    5.5      55.655
2014    5       14    15  54    7.15   521.8    5.5      55.697
2014    5       14    16   0    7.15   522.1    5.5      55.739
2014    5       14    16   5    7.15   522.3    5.5      55.780
2014    5       14    16  10    7.15   522.5    5.5      55.821
2014    5       14    16  16    7.15   522.7    5.5      55.861
2014    5       14    16  21    7.15   522.9    5.4      55.901
2014    5       14    16  27    7.15   523.1    5.4      55.941
2014    5       14    16  32    7.15   523.4    5.4      55.981
2014    5       14    16  38    7.15   523.6    5.4      56.021
2014    5       14    16  43    7.15   523.8    5.4      56.060
2014    5       14    16  48    7.15   524.0    5.4      56.100
2014    5       14    16  54    7.15   524.2    5.4      56.139
2014    5       14    16  59    7.15   524.4    5.4      56.179
2014    5       14    17   5    7.15   524.7    5.4      56.219
2014    5       14    17  10    7.15   524.9    5.4      56.258
2014    5       14    17  15    7.15   525.1    5.4      56.298
2014    5       14    17  21    7.15   525.3    5.4      56.339
2014    5       14    17  26    7.15   525.5    5.4      56.379
2014    5       14    17  32    7.15   525.8    5.4      56.420
2014    5       14    17  37    7.15   526.0    5.4      56.461
2014    5       14    17  42    7.15   526.2    5.4      56.503
2014    5       14    17  48    7.15   526.4    5.4      56.545
2014    5       14    17  53    7.15   526.7    5.4      56.588
2014    5       14    17  59    7.15   526.9    5.4      56.631
2014    5       14    18   4    7.15   527.1    5.4      56.674
2014    5       14    18  10    7.15   527.3    5.4      56.718
2014    5       14    18  15    7.15   527.6    5.3      56.763
2014    5       14    18  20    7.15   527.8    5.3      56.808
2014    5       14    18  26    7.15   528.0    5.3      56.854
2014    5       14    18  31    7.15   528.3    5.3      56.900
2014    5       14    18  37    7.15   528.5    5.3      56.947
2014    5       14    18  42    7.15   528.7    5.3      56.995
2014    5       14    18  47    7.15   529.0    5.3      57.043
2014    5       14    18  53    7.15   529.2    5.3      57.092
2014    5       14    18  58    7.15   529.4    5.3      57.141
2014    5       14    19   4    7.15   529.7    5.3      57.192
2014    5       14    19   9    7.15   529.9    5.3      57.243
2014    5       14    19  15    7.15   530.1    5.3      57.295
2014    5       14    19  20    7.15   530.4    5.3      57.348
2014    5       14    19  25    7.15   530.6    5.3      57.401
2014    5       14    19  31    7.15   530.8    5.3      57.456
2014    5       14    19  36    7.15   531.1    5.3      57.513
2014    5       14    19  42    7.15   531.3    5.3      57.571
2014    5       14    19  47    7.15   531.6    5.3      57.631
2014    5       14    19  52    7.15   531.8    5.3      57.693
2014    5       14    19  58    7.15   532.1    5.3      57.756
2014    5       14    20   3    7.15   532.3    5.3      57.819
2014    5       14    20   9    7.15   532.6    5.3      57.884
2014    5       14    20  14    7.15   532.8    5.3      57.947
2014    5       14    20  19    7.15   533.1    5.3      58.010
2014    5       14    20  25    7.15   533.3    5.3      58.073
2014    5       14    20  30    7.15   533.6    5.3      58.134
2014    5       14    20  36    7.15   533.9    5.3      58.196
2014    5       14    20  41    7.15   534.1    5.2      58.256
2014    5       14    20  47    7.15   534.4    5.2      58.316
2014    5       14    20  52    7.15   534.6    5.2      58.376
2014    5       14    20  57    7.15   534.9    5.2      58.434
2014    5       14    21   3    7.15   535.1    5.2      58.493
2014    5       14    21   8    7.15   535.4    5.2      58.552
2014    5       14    21  14    7.15   535.7    5.2      58.610
2014    5       14    21  19    7.14   535.9    5.2      58.669
2014    5       14    21  24    7.14   536.2    5.2      58.727
2014    5       14    21  30    7.14   536.4    5.2      58.784
2014    5       14    21  35    7.14   536.7    5.2      58.841
2014    5       14    21  41    7.14   537.0    5.2      58.897
2014    5       14    21  46    7.14   537.2    5.2      58.952
2014    5       14    21  51    7.14   537.5    5.2      59.007
2014    5       14    21  57    7.14   537.8    5.2      59.061
2014    5       14    22   2    7.14   538.0    5.2      59.114
2014    5       14    22   8    7.14   538.3    5.2      59.166
2014    5       14    22  13    7.14   538.6    5.2      59.218
2014    5       14    22  19    7.14   538.9    5.2      59.269
2014    5       14    22  24    7.14   539.1    5.2      59.320
2014    5       14    22  29    7.14   539.4    5.1      59.370
2014    5       14    22  35    7.14   539.7    5.1      59.419
2014    5       14    22  40    7.14   539.9    5.1      59.468
2014    5       14    22  46    7.13   540.2    5.1      59.516
2014    5       14    22  51    7.13   540.5    5.1      59.564
2014    5       14    22  56    7.13   540.8    5.1      59.612
2014    5       14    23   2    7.13   541.0    5.1      59.659
2014    5       14    23   7    7.13   541.3    5.1      59.706
2014    5       14    23  13    7.13   541.6    5.1      59.752
2014    5       14    23  18    7.13   541.9    5.1      59.798
2014    5       14    23  24    7.13   542.1    5.1      59.844
2014    5       14    23  29    7.13   542.4    5.1      59.889
2014    5       14    23  34    7.13   542.7    5.1      59.934
2014    5       14    23  40    7.13   543.0    5.1      59.979
2014    5       14    23  45    7.13   543.2    5.1      60.024
2014    5       14    23  51    7.12   543.5    5.1      60.068
2014    5       14    23  56    7.12   543.8    5.1      60.113
2014    5       15     0   1    7.12   544.1    5.0      60.157
2014    5       15     0   7    7.12   544.4    5.0      60.201
2014    5       15     0  12    7.12   544.6    5.0      60.245
2014    5       15     0  18    7.12   544.9    5.0      60.290
2014    5       15     0  23    7.12   545.2    5.0      60.334
2014    5       15     0  29    7.12   545.5    5.0      60.379
2014    5       15     0  34    7.12   545.8    5.0      60.424
2014    5       15     0  39    7.11   546.0    5.0      60.469
2014    5       15     0  45    7.11   546.3    5.0      60.515
2014    5       15     0  50    7.11   546.6    5.0      60.560
2014    5       15     0  56    7.11   546.9    5.0      60.607
2014    5       15     1   1    7.11   547.2    5.0      60.654
2014    5       15     1   6    7.11   547.5    5.0      60.701
2014    5       15     1  12    7.11   547.7    5.0      60.749
2014    5       15     1  17    7.11   548.0    5.0      60.797
2014    5       15     1  23    7.10   548.3    5.0      60.846
2014    5       15     1  28    7.10   548.6    5.0      60.895
2014    5       15     1  33    7.10   548.9    4.9      60.945
2014    5       15     1  39    7.10   549.2    4.9      60.996
2014    5       15     1  44    7.10   549.5    4.9      61.047
2014    5       15     1  50    7.10   549.8    4.9      61.098
2014    5       15     1  55    7.10   550.0    4.9      61.150
2014    5       15     2   1    7.10   550.3    4.9      61.203
2014    5       15     2   6    7.09   550.6    4.9      61.256
2014    5       15     2  11    7.09   550.9    4.9      61.310
2014    5       15     2  17    7.09   551.2    4.9      61.364
2014    5       15     2  22    7.09   551.5    4.9      61.419
2014    5       15     2  28    7.09   551.8    4.9      61.475
2014    5       15     2  33    7.09   552.1    4.9      61.532
2014    5       15     2  38    7.08   552.4    4.9      61.589
2014    5       15     2  44    7.08   552.7    4.9      61.646
2014    5       15     2  49    7.08   552.9    4.9      61.705
2014    5       15     2  55    7.08   553.2    4.9      61.764
2014    5       15     3   0    7.08   553.5    4.9      61.826
2014    5       15     3   6    7.08   553.8    4.9      61.889
2014    5       15     3  11    7.07   554.1    4.9      61.955
2014    5       15     3  16    7.07   554.4    4.9      62.021
2014    5       15     3  22    7.07   554.7    4.8      62.089
2014    5       15     3  27    7.07   555.0    4.8      62.158
2014    5       15     3  33    7.07   555.3    4.8      62.227
2014    5       15     3  38    7.06   555.6    4.8      62.295
2014    5       15     3  43    7.06   555.9    4.8      62.363
2014    5       15     3  49    7.06   556.2    4.8      62.431
2014    5       15     3  54    7.06   556.5    4.8      62.498
2014    5       15     4   0    7.06   556.8    4.8      62.565
2014    5       15     4   5    7.05   557.1    4.8      62.631
2014    5       15     4  10    7.05   557.4    4.8      62.696
2014    5       15     4  16    7.05   557.7    4.8      62.760
2014    5       15     4  21    7.05   558.0    4.8      62.824
2014    5       15     4  27    7.04   558.3    4.8      62.887
2014    5       15     4  32    7.04   558.6    4.8      62.949
2014    5       15     4  38    7.04   558.9    4.8      63.010
2014    5       15     4  43    7.04   559.2    4.8      63.070
2014    5       15     4  48    7.04   559.5    4.8      63.130
2014    5       15     4  54    7.03   559.8    4.7      63.189
2014    5       15     4  59    7.03   560.1    4.7      63.247
2014    5       15     5   5    7.03   560.4    4.7      63.304
2014    5       15     5  10    7.03   560.7    4.7      63.361
2014    5       15     5  15    7.02   561.1    4.7      63.418
2014    5       15     5  21    7.02   561.4    4.7      63.473
2014    5       15     5  26    7.02   561.7    4.7      63.529
2014    5       15     5  32    7.02   562.0    4.7      63.583
2014    5       15     5  37    7.01   562.3    4.7      63.637
2014    5       15     5  42    7.01   562.6    4.7      63.691
2014    5       15     5  48    7.01   562.9    4.7      63.744
2014    5       15     5  53    7.01   563.2    4.7      63.797
2014    5       15     5  59    7.00   563.5    4.7      63.849
2014    5       15     6   4    7.00   563.8    4.7      63.901
2014    5       15     6  10    7.00   564.2    4.7      63.952
2014    5       15     6  15    7.00   564.5    4.6      64.003
2014    5       15     6  20    6.99   564.8    4.6      64.053
2014    5       15     6  26    6.99   565.1    4.6      64.103
2014    5       15     6  31    6.99   565.4    4.6      64.153
2014    5       15     6  37    6.98   565.7    4.6      64.202
2014    5       15     6  42    6.98   566.0    4.6      64.251
2014    5       15     6  47    6.98   566.4    4.6      64.299
2014    5       15     6  53    6.98   566.7    4.6      64.347
2014    5       15     6  58    6.97   567.0    4.6      64.395
2014    5       15     7   4    6.97   567.3    4.6      64.442
2014    5       15     7   9    6.97   567.6    4.6      64.489
2014    5       15     7  15    6.96   567.9    4.6      64.535
2014    5       15     7  20    6.96   568.2    4.6      64.582
2014    5       15     7  25    6.96   568.6    4.6      64.628
2014    5       15     7  31    6.95   568.9    4.6      64.674
2014    5       15     7  36    6.95   569.2    4.5      64.719
2014    5       15     7  42    6.95   569.5    4.5      64.764
2014    5       15     7  47    6.94   569.8    4.5      64.809
2014    5       15     7  52    6.94   570.1    4.5      64.854
2014    5       15     7  58    6.94   570.4    4.5      64.899
2014    5       15     8   3    6.93   570.7    4.5      64.944
2014    5       15     8   9    6.93   571.1    4.5      64.989
2014    5       15     8  14    6.93   571.4    4.5      65.033
2014    5       15     8  19    6.92   571.7    4.5      65.078
2014    5       15     8  25    6.92   572.0    4.5      65.122
2014    5       15     8  30    6.92   572.3    4.5      65.167
2014    5       15     8  36    6.91   572.6    4.5      65.212
2014    5       15     8  41    6.91   572.9    4.5      65.256
2014    5       15     8  47    6.91   573.2    4.5      65.301
2014    5       15     8  52    6.90   573.6    4.5      65.346
2014    5       15     8  57    6.90   573.9    4.4      65.391
2014    5       15     9   3    6.89   574.2    4.4      65.436
2014    5       15     9   8    6.89   574.5    4.4      65.481
2014    5       15     9  14    6.89   574.8    4.4      65.526
2014    5       15     9  19    6.88   575.1    4.4      65.571
2014    5       15     9  24    6.88   575.4    4.4      65.616
2014    5       15     9  30    6.88   575.7    4.4      65.661
2014    5       15     9  35    6.87   576.1    4.4      65.706
2014    5       15     9  41    6.87   576.4    4.4      65.751
2014    5       15     9  46    6.86   576.7    4.4      65.796
2014    5       15     9  52    6.86   577.0    4.4      65.841
2014    5       15     9  57    6.85   577.3    4.4      65.886
2014    5       15    10   2    6.85   577.6    4.4      65.931
2014    5       15    10   8    6.85   577.9    4.4      65.976
2014    5       15    10  13    6.84   578.2    4.4      66.021
2014    5       15    10  19    6.84   578.5    4.4      66.066
2014    5       15    10  24    6.83   578.8    4.3      66.111
2014    5       15    10  29    6.83   579.1    4.3      66.155
2014    5       15    10  35    6.83   579.4    4.3      66.200
2014    5       15    10  40    6.82   579.7    4.3      66.245
2014    5       15    10  46    6.82   580.0    4.3      66.289
2014    5       15    10  51    6.81   580.2    4.3      66.334
2014    5       15    10  56    6.81   580.5    4.3      66.378
2014    5       15    11   2    6.80   580.8    4.3      66.423
2014    5       15    11   7    6.80   581.1    4.3      66.467
2014    5       15    11  13    6.79   581.4    4.3      66.511
2014    5       15    11  18    6.79   581.7    4.3      66.555
2014    5       15    11  24    6.79   582.0    4.3      66.599
2014    5       15    11  29    6.78   582.3    4.3      66.643
2014    5       15    11  34    6.78   582.6    4.3      66.686
2014    5       15    11  40    6.77   582.8    4.3      66.729
2014    5       15    11  45    6.77   583.1    4.2      66.772
2014    5       15    11  51    6.76   583.4    4.2      66.814
2014    5       15    11  56    6.76   583.7    4.2      66.855
2014    5       15    12   1    6.75   584.0    4.2      66.896
2014    5       15    12   7    6.75   584.3    4.2      66.937
2014    5       15    12  12    6.74   584.5    4.2      66.977
2014    5       15    12  18    6.74   584.8    4.2      67.016
2014    5       15    12  23    6.74   585.1    4.2      67.055
2014    5       15    12  29    6.73   585.4    4.2      67.094
2014    5       15    12  34    6.73   585.6    4.2      67.132
2014    5       15    12  39    6.72   585.9    4.2      67.170
2014    5       15    12  45    6.72   586.2    4.2      67.207
2014    5       15    12  50    6.71   586.5    4.2      67.244
2014    5       15    12  56    6.71   586.7    4.2      67.281
2014    5       15    13   1    6.70   587.0    4.2      67.317
2014    5       15    13   6    6.70   587.3    4.2      67.354
2014    5       15    13  12    6.69   587.6    4.1      67.390
2014    5       15    13  17    6.69   587.8    4.1      67.425
2014    5       15    13  23    6.68   588.1    4.1      67.461
2014    5       15    13  28    6.68   588.4    4.1      67.496
2014    5       15    13  33    6.67   588.6    4.1      67.531
2014    5       15    13  39    6.67   588.9    4.1      67.566
2014    5       15    13  44    6.67   589.2    4.1      67.600
2014    5       15    13  50    6.66   589.4    4.1      67.635
2014    5       15    13  55    6.66   589.7    4.1      67.669
2014    5       15    14   1    6.65   590.0    4.1      67.702
2014    5       15    14   6    6.65   590.2    4.1      67.736
2014    5       15    14  11    6.64   590.5    4.1      67.769
2014    5       15    14  17    6.64   590.7    4.1      67.802
2014    5       15    14  22    6.63   591.0    4.1      67.834
2014    5       15    14  28    6.63   591.3    4.1      67.866
2014    5       15    14  33    6.62   591.5    4.1      67.897
2014    5       15    14  38    6.62   591.8    4.1      67.928
2014    5       15    14  44    6.61   592.0    4.0      67.958
2014    5       15    14  49    6.61   592.3    4.0      67.988
2014    5       15    14  55    6.60   592.5    4.0      68.016
2014    5       15    15   0    6.60   592.8    4.0      68.045
2014    5       15    15   5    6.59   593.0    4.0      68.072
2014    5       15    15  11    6.59   593.3    4.0      68.099
2014    5       15    15  16    6.58   593.5    4.0      68.126
2014    5       15    15  22    6.58   593.8    4.0      68.152
2014    5       15    15  27    6.57   594.0    4.0      68.177
2014    5       15    15  33    6.57   594.3    4.0      68.202
2014    5       15    15  38    6.56   594.5    4.0      68.226
2014    5       15    15  43    6.56   594.8    4.0      68.251
2014    5       15    15  49    6.55   595.0    4.0      68.274
2014    5       15    15  54    6.55   595.3    4.0      68.297
2014    5       15    16   0    6.54   595.5    4.0      68.320
2014    5       15    16   5    6.54   595.8    4.0      68.343
2014    5       15    16  10    6.53   596.0    4.0      68.365
2014    5       15    16  16    6.53   596.2    3.9      68.386
2014    5       15    16  21    6.52   596.5    3.9      68.408
2014    5       15    16  27    6.52   596.7    3.9      68.429
2014    5       15    16  32    6.51   596.9    3.9      68.450
2014    5       15    16  38    6.51   597.2    3.9      68.470
2014    5       15    16  43    6.50   597.4    3.9      68.491
2014    5       15    16  48    6.50   597.6    3.9      68.510
2014    5       15    16  54    6.49   597.9    3.9      68.530
2014    5       15    16  59    6.48   598.1    3.9      68.549
2014    5       15    17   5    6.48   598.3    3.9      68.568
2014    5       15    17  10    6.47   598.6    3.9      68.587
2014    5       15    17  15    6.47   598.8    3.9      68.605
2014    5       15    17  21    6.46   599.0    3.9      68.623
2014    5       15    17  26    6.46   599.2    3.9      68.640
2014    5       15    17  32    6.45   599.5    3.9      68.657
2014    5       15    17  37    6.45   599.7    3.9      68.674
2014    5       15    17  42    6.44   599.9    3.9      68.690
2014    5       15    17  48    6.44   600.1    3.9      68.706
2014    5       15    17  53    6.43   600.3    3.8      68.721
2014    5       15    17  59    6.43   600.6    3.8      68.736
2014    5       15    18   4    6.42   600.8    3.8      68.750
2014    5       15    18  10    6.42   601.0    3.8      68.764
2014    5       15    18  15    6.41   601.2    3.8      68.777
2014    5       15    18  20    6.41   601.4    3.8      68.790
2014    5       15    18  26    6.40   601.6    3.8      68.802
2014    5       15    18  31    6.39   601.8    3.8      68.813
2014    5       15    18  37    6.39   602.1    3.8      68.825
2014    5       15    18  42    6.38   602.3    3.8      68.835
2014    5       15    18  47    6.38   602.5    3.8      68.845
2014    5       15    18  53    6.37   602.7    3.8      68.855
2014    5       15    18  58    6.37   602.9    3.8      68.865
2014    5       15    19   4    6.36   603.1    3.8      68.874
2014    5       15    19   9    6.36   603.3    3.8      68.882
2014    5       15    19  14    6.35   603.5    3.8      68.890
2014    5       15    19  20    6.35   603.7    3.8      68.898
2014    5       15    19  25    6.34   603.9    3.8      68.906
2014    5       15    19  31    6.34   604.1    3.8      68.913
2014    5       15    19  36    6.33   604.2    3.7      68.920
2014    5       15    19  42    6.33   604.4    3.7      68.927
2014    5       15    19  47    6.32   604.6    3.7      68.934
2014    5       15    19  52    6.32   604.8    3.7      68.940
2014    5       15    19  58    6.31   605.0    3.7      68.946
2014    5       15    20   3    6.30   605.2    3.7      68.953
2014    5       15    20   9    6.30   605.4    3.7      68.959
2014    5       15    20  14    6.29   605.5    3.7      68.965
2014    5       15    20  19    6.29   605.7    3.7      68.971
2014    5       15    20  25    6.28   605.9    3.7      68.977
2014    5       15    20  30    6.28   606.1    3.7      68.983
2014    5       15    20  36    6.27   606.2    3.7      68.989
2014    5       15    20  41    6.27   606.4    3.7      68.995
2014    5       15    20  47    6.26   606.6    3.7      69.001
2014    5       15    20  52    6.26   606.8    3.7      69.007
2014    5       15    20  57    6.25   606.9    3.7      69.012
2014    5       15    21   3    6.25   607.1    3.7      69.018
2014    5       15    21   8    6.24   607.2    3.7      69.023
2014    5       15    21  14    6.24   607.4    3.7      69.028
2014    5       15    21  19    6.23   607.6    3.7      69.033
2014    5       15    21  24    6.23   607.7    3.7      69.038
2014    5       15    21  30    6.22   607.9    3.7      69.042
2014    5       15    21  35    6.22   608.1    3.6      69.046
2014    5       15    21  41    6.21   608.2    3.6      69.050
2014    5       15    21  46    6.21   608.4    3.6      69.052
2014    5       15    21  51    6.20   608.5    3.6      69.055
2014    5       15    21  57    6.20   608.7    3.6      69.056
2014    5       15    22   2    6.19   608.8    3.6      69.057
2014    5       15    22   8    6.19   609.0    3.6      69.057
2014    5       15    22  13    6.18   609.1    3.6      69.057
2014    5       15    22  19    6.18   609.3    3.6      69.055
2014    5       15    22  24    6.17   609.4    3.6      69.054
2014    5       15    22  29    6.17   609.6    3.6      69.051
2014    5       15    22  35    6.16   609.7    3.6      69.048
2014    5       15    22  40    6.16   609.9    3.6      69.045
2014    5       15    22  46    6.15   610.0    3.6      69.041
2014    5       15    22  51    6.15   610.1    3.6      69.037
2014    5       15    22  56    6.15   610.3    3.6      69.033
2014    5       15    23   2    6.14   610.4    3.6      69.028
2014    5       15    23   7    6.14   610.6    3.6      69.022
2014    5       15    23  13    6.13   610.7    3.6      69.017
2014    5       15    23  18    6.13   610.8    3.6      69.011
2014    5       15    23  23    6.12   611.0    3.6      69.005
2014    5       15    23  29    6.12   611.1    3.6      68.999
2014    5       15    23  34    6.11   611.2    3.6      68.992
2014    5       15    23  40    6.11   611.4    3.6      68.985
2014    5       15    23  45    6.10   611.5    3.5      68.979
2014    5       15    23  51    6.10   611.6    3.5      68.972
2014    5       15    23  56    6.09   611.8    3.5      68.965
2014    5       16     0   1    6.09   611.9    3.5      68.958
2014    5       16     0   7    6.08   612.0    3.5      68.951
2014    5       16     0  12    6.08   612.1    3.5      68.943
2014    5       16     0  18    6.07   612.3    3.5      68.936
2014    5       16     0  23    6.07   612.4    3.5      68.929
2014    5       16     0  28    6.06   612.5    3.5      68.921
2014    5       16     0  34    6.06   612.6    3.5      68.914
2014    5       16     0  39    6.05   612.8    3.5      68.907
2014    5       16     0  45    6.05   612.9    3.5      68.899
2014    5       16     0  50    6.04   613.0    3.5      68.892
2014    5       16     0  56    6.04   613.1    3.5      68.885
2014    5       16     1   1    6.03   613.3    3.5      68.877
2014    5       16     1   6    6.03   613.4    3.5      68.870
2014    5       16     1  12    6.02   613.5    3.5      68.862
2014    5       16     1  17    6.02   613.6    3.5      68.854
2014    5       16     1  23    6.01   613.7    3.5      68.847
2014    5       16     1  28    6.01   613.8    3.5      68.839
2014    5       16     1  33    6.00   613.9    3.5      68.831
2014    5       16     1  39    6.00   614.1    3.5      68.823
2014    5       16     1  44    5.99   614.2    3.5      68.815
2014    5       16     1  50    5.99   614.3    3.5      68.807
2014    5       16     1  55    5.98   614.4    3.5      68.799
2014    5       16     2   0    5.98   614.5    3.5      68.790
2014    5       16     2   6    5.97   614.6    3.5      68.782
2014    5       16     2  11    5.97   614.7    3.4      68.773
2014    5       16     2  17    5.96   614.8    3.4      68.764
2014    5       16     2  22    5.96   614.9    3.4      68.755
2014    5       16     2  28    5.96   615.0    3.4      68.745
2014    5       16     2  33    5.95   615.1    3.4      68.736
2014    5       16     2  38    5.95   615.2    3.4      68.726
2014    5       16     2  44    5.94   615.3    3.4      68.716
2014    5       16     2  49    5.94   615.4    3.4      68.705
2014    5       16     2  55    5.93   615.5    3.4      68.695
2014    5       16     3   0    5.93   615.6    3.4      68.684
2014    5       16     3   5    5.92   615.7    3.4      68.672
2014    5       16     3  11    5.92   615.8    3.4      68.661
2014    5       16     3  16    5.91   615.9    3.4      68.649
2014    5       16     3  22    5.91   616.0    3.4      68.637
2014    5       16     3  27    5.90   616.0    3.4      68.624
2014    5       16     3  32    5.90   616.1    3.4      68.612
2014    5       16     3  38    5.90   616.2    3.4      68.599
2014    5       16     3  43    5.89   616.3    3.4      68.586
2014    5       16     3  49    5.89   616.4    3.4      68.572
2014    5       16     3  54    5.88   616.5    3.4      68.558
2014    5       16     4   0    5.88   616.5    3.4      68.544
2014    5       16     4   5    5.87   616.6    3.4      68.530
2014    5       16     4  10    5.87   616.7    3.4      68.516
2014    5       16     4  16    5.87   616.8    3.4      68.501
2014    5       16     4  21    5.86   616.9    3.4      68.486
2014    5       16     4  27    5.86   616.9    3.4      68.471
2014    5       16     4  32    5.85   617.0    3.4      68.456
2014    5       16     4  37    5.85   617.1    3.4      68.440
2014    5       16     4  43    5.84   617.1    3.4      68.424
2014    5       16     4  48    5.84   617.2    3.4      68.408
2014    5       16     4  54    5.84   617.3    3.4      68.392
2014    5       16     4  59    5.83   617.4    3.4      68.375
2014    5       16     5   5    5.83   617.4    3.3      68.358
2014    5       16     5  10    5.82   617.5    3.3      68.341
2014    5       16     5  15    5.82   617.5    3.3      68.323
2014    5       16     5  21    5.81   617.6    3.3      68.306
2014    5       16     5  26    5.81   617.7    3.3      68.288
2014    5       16     5  32    5.81   617.7    3.3      68.269
2014    5       16     5  37    5.80   617.8    3.3      68.251
2014    5       16     5  42    5.80   617.9    3.3      68.232
2014    5       16     5  48    5.79   617.9    3.3      68.213
2014    5       16     5  53    5.79   618.0    3.3      68.194
2014    5       16     5  59    5.78   618.0    3.3      68.175
2014    5       16     6   4    5.78   618.1    3.3      68.155
2014    5       16     6   9    5.78   618.1    3.3      68.135
2014    5       16     6  15    5.77   618.2    3.3      68.116
2014    5       16     6  20    5.77   618.2    3.3      68.096
2014    5       16     6  26    5.76   618.3    3.3      68.076
2014    5       16     6  31    5.76   618.4    3.3      68.055
2014    5       16     6  37    5.75   618.4    3.3      68.035
2014    5       16     6  42    5.75   618.5    3.3      68.015
2014    5       16     6  47    5.75   618.5    3.3      67.994
2014    5       16     6  53    5.74   618.5    3.3      67.974
2014    5       16     6  58    5.74   618.6    3.3      67.953
2014    5       16     7   4    5.73   618.6    3.3      67.933
2014    5       16     7   9    5.73   618.7    3.3      67.912
2014    5       16     7  14    5.73   618.7    3.3      67.892
2014    5       16     7  20    5.72   618.8    3.3      67.872
2014    5       16     7  25    5.72   618.8    3.3      67.852
2014    5       16     7  31    5.71   618.9    3.3      67.832
2014    5       16     7  36    5.71   618.9    3.3      67.813
2014    5       16     7  41    5.70   618.9    3.3      67.793
2014    5       16     7  47    5.70   619.0    3.3      67.774
2014    5       16     7  52    5.70   619.0    3.3      67.755
2014    5       16     7  58    5.69   619.1    3.3      67.736
2014    5       16     8   3    5.69   619.1    3.3      67.718
2014    5       16     8   9    5.68   619.1    3.3      67.700
2014    5       16     8  14    5.68   619.2    3.3      67.682
2014    5       16     8  19    5.68   619.2    3.3      67.664
2014    5       16     8  25    5.67   619.2    3.3      67.647
2014    5       16     8  30    5.67   619.3    3.2      67.630
2014    5       16     8  36    5.66   619.3    3.2      67.613
2014    5       16     8  41    5.66   619.3    3.2      67.596
2014    5       16     8  46    5.66   619.4    3.2      67.580
2014    5       16     8  52    5.65   619.4    3.2      67.564
2014    5       16     8  57    5.65   619.4    3.2      67.548
2014    5       16     9   3    5.64   619.4    3.2      67.532
2014    5       16     9   8    5.64   619.5    3.2      67.516
2014    5       16     9  13    5.64   619.5    3.2      67.500
2014    5       16     9  19    5.63   619.5    3.2      67.485
2014    5       16     9  24    5.63   619.5    3.2      67.469
2014    5       16     9  30    5.63   619.6    3.2      67.453
2014    5       16     9  35    5.62   619.6    3.2      67.436
2014    5       16     9  41    5.62   619.6    3.2      67.420
2014    5       16     9  46    5.61   619.6    3.2      67.403
2014    5       16     9  51    5.61   619.7    3.2      67.386
2014    5       16     9  57    5.61   619.7    3.2      67.369
2014    5       16    10   2    5.60   619.7    3.2      67.351
2014    5       16    10   8    5.60   619.7    3.2      67.333
2014    5       16    10  13    5.60   619.7    3.2      67.315
2014    5       16    10  18    5.59   619.7    3.2      67.296
2014    5       16    10  24    5.59   619.8    3.2      67.277
2014    5       16    10  29    5.58   619.8    3.2      67.257
2014    5       16    10  35    5.58   619.8    3.2      67.238
2014    5       16    10  40    5.58   619.8    3.2      67.217
2014    5       16    10  46    5.57   619.8    3.2      67.197
2014    5       16    10  51    5.57   619.8    3.2      67.176
2014    5       16    10  56    5.57   619.8    3.2      67.156
2014    5       16    11   2    5.56   619.9    3.2      67.134
2014    5       16    11   7    5.56   619.9    3.2      67.113
2014    5       16    11  13    5.56   619.9    3.2      67.092
2014    5       16    11  18    5.55   619.9    3.2      67.071
2014    5       16    11  23    5.55   619.9    3.2      67.049
2014    5       16    11  29    5.54   619.9    3.2      67.028
2014    5       16    11  34    5.54   619.9    3.2      67.006
2014    5       16    11  40    5.54   619.9    3.2      66.985
2014    5       16    11  45    5.53   619.9    3.2      66.963
2014    5       16    11  50    5.53   619.9    3.2      66.942
2014    5       16    11  56    5.53   619.9    3.2      66.921
2014    5       16    12   1    5.52   619.9    3.2      66.899
2014    5       16    12   7    5.52   619.9    3.2      66.878
2014    5       16    12  12    5.52   619.9    3.2      66.857
2014    5       16    12  18    5.51   619.9    3.2      66.835
2014    5       16    12  23    5.51   619.9    3.2      66.814
2014    5       16    12  28    5.51   619.9    3.2      66.793
2014    5       16    12  34    5.50   619.9    3.2      66.772
2014    5       16    12  39    5.50   619.9    3.2      66.751
2014    5       16    12  45    5.50   619.9    3.2      66.729
2014    5       16    12  50    5.49   619.9    3.2      66.708
2014    5       16    12  55    5.49   619.9    3.2      66.687
2014    5       16    13   1    5.49   619.9    3.2      66.665
2014    5       16    13   6    5.48   619.9    3.2      66.644
2014    5       16    13  12    5.48   619.9    3.2      66.622
2014    5       16    13  17    5.48   619.9    3.1      66.600
2014    5       16    13  22    5.47   619.9    3.1      66.578
2014    5       16    13  28    5.47   619.8    3.1      66.556
2014    5       16    13  33    5.47   619.8    3.1      66.534
2014    5       16    13  39    5.46   619.8    3.1      66.512
2014    5       16    13  44    5.46   619.8    3.1      66.489
2014    5       16    13  50    5.46   619.8    3.1      66.466
2014    5       16    13  55    5.45   619.8    3.1      66.443
2014    5       16    14   0    5.45   619.8    3.1      66.421
2014    5       16    14   6    5.45   619.7    3.1      66.397
2014    5       16    14  11    5.44   619.7    3.1      66.374
2014    5       16    14  17    5.44   619.7    3.1      66.351
2014    5       16    14  22    5.44   619.7    3.1      66.328
2014    5       16    14  27    5.43   619.7    3.1      66.304
2014    5       16    14  33    5.43   619.7    3.1      66.281
2014    5       16    14  38    5.43   619.6    3.1      66.258
2014    5       16    14  44    5.42   619.6    3.1      66.234
2014    5       16    14  49    5.42   619.6    3.1      66.211
2014    5       16    14  55    5.42   619.6    3.1      66.187
2014    5       16    15   0    5.41   619.6    3.1      66.163
2014    5       16    15   5    5.41   619.5    3.1      66.140
2014    5       16    15  11    5.41   619.5    3.1      66.116
2014    5       16    15  16    5.40   619.5    3.1      66.093
2014    5       16    15  22    5.40   619.5    3.1      66.069
2014    5       16    15  27    5.40   619.5    3.1      66.045
2014    5       16    15  32    5.40   619.4    3.1      66.022
2014    5       16    15  38    5.39   619.4    3.1      65.998
2014    5       16    15  43    5.39   619.4    3.1      65.975
2014    5       16    15  49    5.39   619.4    3.1      65.951
2014    5       16    15  54    5.38   619.3    3.1      65.927
2014    5       16    15  59    5.38   619.3    3.1      65.904
2014    5       16    16   5    5.38   619.3    3.1      65.880
2014    5       16    16  10    5.37   619.2    3.1      65.857
2014    5       16    16  16    5.37   619.2    3.1      65.833
2014    5       16    16  21    5.37   619.2    3.1      65.810
2014    5       16    16  27    5.36   619.2    3.1      65.786
2014    5       16    16  32    5.36   619.1    3.1      65.763
2014    5       16    16  37    5.36   619.1    3.1      65.739
2014    5       16    16  43    5.36   619.1    3.1      65.716
2014    5       16    16  48    5.35   619.0    3.1      65.693
2014    5       16    16  54    5.35   619.0    3.1      65.669
2014    5       16    16  59    5.35   619.0    3.1      65.646
2014    5       16    17   4    5.34   618.9    3.1      65.622
2014    5       16    17  10    5.34   618.9    3.1      65.599
2014    5       16    17  15    5.34   618.9    3.1      65.576
2014    5       16    17  21    5.34   618.8    3.1      65.552
2014    5       16    17  26    5.33   618.8    3.1      65.529
2014    5       16    17  31    5.33   618.8    3.1      65.505
2014    5       16    17  37    5.33   618.7    3.1      65.482
2014    5       16    17  42    5.32   618.7    3.1      65.459
2014    5       16    17  48    5.32   618.6    3.1      65.435
2014    5       16    17  53    5.32   618.6    3.1      65.412
2014    5       16    17  59    5.31   618.6    3.1      65.388
2014    5       16    18   4    5.31   618.5    3.1      65.365
2014    5       16    18   9    5.31   618.5    3.1      65.342
2014    5       16    18  15    5.31   618.4    3.1      65.319
2014    5       16    18  20    5.30   618.4    3.1      65.296
2014    5       16    18  26    5.30   618.4    3.1      65.273
2014    5       16    18  31    5.30   618.3    3.1      65.251
2014    5       16    18  36    5.30   618.3    3.1      65.228
2014    5       16    18  42    5.29   618.2    3.1      65.206
2014    5       16    18  47    5.29   618.2    3.1      65.184
2014    5       16    18  53    5.29   618.1    3.1      65.163
2014    5       16    18  58    5.28   618.1    3.1      65.141
2014    5       16    19   3    5.28   618.0    3.1      65.120
2014    5       16    19   9    5.28   618.0    3.1      65.100
2014    5       16    19  14    5.28   618.0    3.1      65.079
2014    5       16    19  20    5.27   617.9    3.1      65.059
2014    5       16    19  25    5.27   617.9    3.1      65.039
2014    5       16    19  31    5.27   617.8    3.1      65.020
2014    5       16    19  36    5.26   617.8    3.1      65.001
2014    5       16    19  41    5.26   617.7    3.1      64.982
2014    5       16    19  47    5.26   617.7    3.1      64.963
2014    5       16    19  52    5.26   617.6    3.1      64.945
2014    5       16    19  58    5.25   617.6    3.1      64.927
2014    5       16    20   3    5.25   617.5    3.1      64.909
2014    5       16    20   8    5.25   617.5    3.1      64.892
2014    5       16    20  14    5.25   617.5    3.1      64.874
2014    5       16    20  19    5.24   617.4    3.1      64.857
2014    5       16    20  25    5.24   617.4    3.1      64.840
2014    5       16    20  30    5.24   617.3    3.1      64.823
2014    5       16    20  35    5.24   617.3    3.1      64.806
2014    5       16    20  41    5.23   617.2    3.1      64.789
2014    5       16    20  46    5.23   617.2    3.0      64.772
2014    5       16    20  52    5.23   617.1    3.0      64.755
2014    5       16    20  57    5.23   617.1    3.0      64.738
2014    5       16    21   3    5.22   617.0    3.0      64.721
2014    5       16    21   8    5.22   617.0    3.0      64.703
2014    5       16    21  13    5.22   616.9    3.0      64.686
2014    5       16    21  19    5.22   616.9    3.0      64.668
2014    5       16    21  24    5.21   616.8    3.0      64.651
2014    5       16    21  30    5.21   616.8    3.0      64.633
2014    5       16    21  35    5.21   616.7    3.0      64.615
2014    5       16    21  40    5.20   616.7    3.0      64.597
2014    5       16    21  46    5.20   616.6    3.0      64.578
2014    5       16    21  51    5.20   616.6    3.0      64.559
2014    5       16    21  57    5.20   616.5    3.0      64.540
2014    5       16    22   2    5.19   616.5    3.0      64.521
2014    5       16    22   7    5.19   616.4    3.0      64.501
2014    5       16    22  13    5.19   616.4    3.0      64.481
2014    5       16    22  18    5.19   616.3    3.0      64.460
2014    5       16    22  24    5.18   616.3    3.0      64.439
2014    5       16    22  29    5.18   616.2    3.0      64.418
2014    5       16    22  35    5.18   616.2    3.0      64.397
2014    5       16    22  40    5.18   616.1    3.0      64.375
2014    5       16    22  45    5.17   616.0    3.0      64.353
2014    5       16    22  51    5.17   616.0    3.0      64.331
2014    5       16    22  56    5.17   615.9    3.0      64.308
2014    5       16    23   2    5.17   615.9    3.0      64.285
2014    5       16    23   7    5.16   615.8    3.0      64.262
2014    5       16    23  12    5.16   615.7    3.0      64.238
2014    5       16    23  18    5.16   615.7    3.0      64.214
2014    5       16    23  23    5.16   615.6    3.0      64.190
2014    5       16    23  29    5.15   615.5    3.0      64.166
2014    5       16    23  34    5.15   615.5    3.0      64.142
2014    5       16    23  40    5.15   615.4    3.0      64.117
2014    5       16    23  45    5.15   615.4    3.0      64.092
2014    5       16    23  50    5.15   615.3    3.0      64.067
2014    5       16    23  56    5.14   615.2    3.0      64.042
2014    5       17     0   1    5.14   615.2    3.0      64.017
2014    5       17     0   7    5.14   615.1    3.0      63.992
2014    5       17     0  12    5.14   615.0    3.0      63.966
2014    5       17     0  17    5.13   614.9    3.0      63.941
2014    5       17     0  23    5.13   614.9    3.0      63.915
2014    5       17     0  28    5.13   614.8    3.0      63.889
2014    5       17     0  34    5.13   614.7    3.0      63.863
2014    5       17     0  39    5.12   614.7    3.0      63.838
2014    5       17     0  44    5.12   614.6    3.0      63.812
2014    5       17     0  50    5.12   614.5    3.0      63.785
2014    5       17     0  55    5.12   614.5    3.0      63.759
2014    5       17     1   1    5.11   614.4    3.0      63.733
2014    5       17     1   6    5.11   614.3    3.0      63.707
2014    5       17     1  12    5.11   614.2    3.0      63.680
2014    5       17     1  17    5.11   614.2    3.0      63.653
2014    5       17     1  22    5.11   614.1    3.0      63.627
2014    5       17     1  28    5.10   614.0    3.0      63.600
2014    5       17     1  33    5.10   613.9    3.0      63.573
2014    5       17     1  39    5.10   613.9    3.0      63.546
2014    5       17     1  44    5.10   613.8    3.0      63.519
2014    5       17     1  49    5.09   613.7    3.0      63.492
2014    5       17     1  55    5.09   613.6    3.0      63.465
2014    5       17     2   0    5.09   613.6    3.0      63.438
2014    5       17     2   6    5.09   613.5    3.0      63.412
2014    5       17     2  11    5.08   613.4    3.0      63.385
2014    5       17     2  16    5.08   613.3    3.0      63.358
2014    5       17     2  22    5.08   613.2    3.0      63.332
2014    5       17     2  27    5.08   613.2    3.0      63.305
2014    5       17     2  33    5.08   613.1    3.0      63.279
2014    5       17     2  38    5.07   613.0    3.0      63.253
2014    5       17     2  44    5.07   612.9    3.0      63.227
2014    5       17     2  49    5.07   612.9    3.0      63.202
2014    5       17     2  54    5.07   612.8    3.0      63.176
2014    5       17     3   0    5.06   612.7    3.0      63.151
2014    5       17     3   5    5.06   612.6    3.0      63.126
2014    5       17     3  11    5.06   612.5    3.0      63.101
2014    5       17     3  16    5.06   612.5    3.0      63.077
2014    5       17     3  21    5.06   612.4    3.0      63.053
2014    5       17     3  27    5.05   612.3    3.0      63.029
2014    5       17     3  32    5.05   612.2    3.0      63.006
2014    5       17     3  38    5.05   612.2    3.0      62.983
2014    5       17     3  43    5.05   612.1    3.0      62.960
2014    5       17     3  48    5.05   612.0    3.0      62.938
2014    5       17     3  54    5.04   611.9    3.0      62.916
2014    5       17     3  59    5.04   611.8    3.0      62.894
2014    5       17     4   5    5.04   611.8    3.0      62.873
2014    5       17     4  10    5.04   611.7    3.0      62.852
2014    5       17     4  16    5.03   611.6    3.0      62.832
2014    5       17     4  21    5.03   611.5    3.0      62.813
2014    5       17     4  26    5.03   611.4    3.0      62.794
2014    5       17     4  32    5.03   611.4    3.0      62.775
2014    5       17     4  37    5.03   611.3    3.0      62.757
2014    5       17     4  43    5.02   611.2    3.0      62.740
2014    5       17     4  48    5.02   611.1    3.0      62.723
2014    5       17     4  53    5.02   611.0    3.0      62.707
2014    5       17     4  59    5.02   611.0    3.0      62.691
2014    5       17     5   4    5.02   610.9    3.0      62.676
2014    5       17     5  10    5.01   610.8    3.0      62.662
2014    5       17     5  15    5.01   610.7    3.0      62.648
2014    5       17     5  20    5.01   610.6    3.0      62.634
2014    5       17     5  26    5.01   610.6    3.0      62.621
2014    5       17     5  31    5.01   610.5    3.0      62.608
2014    5       17     5  37    5.00   610.4    3.0      62.596
2014    5       17     5  42    5.00   610.3    3.0      62.584
2014    5       17     5  48    5.00   610.2    3.0      62.572
2014    5       17     5  53    5.00   610.2    3.0      62.560
2014    5       17     5  58    5.00   610.1    3.0      62.549
2014    5       17     6   4    4.99   610.0    3.0      62.538
2014    5       17     6   9    4.99   609.9    3.0      62.528
2014    5       17     6  15    4.99   609.8    3.0      62.517
2014    5       17     6  20    4.99   609.8    3.0      62.508
2014    5       17     6  25    4.99   609.7    3.0      62.498
2014    5       17     6  31    4.98   609.6    3.0      62.487
2014    5       17     6  36    4.98   609.5    3.0      62.475
2014    5       17     6  42    4.98   609.4    3.0      62.463
2014    5       17     6  47    4.98   609.3    3.0      62.451
2014    5       17     6  52    4.98   609.3    3.0      62.437
2014    5       17     6  58    4.97   609.2    3.0      62.423
2014    5       17     7   3    4.97   609.1    3.0      62.408
2014    5       17     7   9    4.97   609.0    3.0      62.392
2014    5       17     7  14    4.97   608.9    3.0      62.376
2014    5       17     7  20    4.97   608.8    3.0      62.359
2014    5       17     7  25    4.96   608.8    3.0      62.341
2014    5       17     7  30    4.96   608.7    3.0      62.323
2014    5       17     7  36    4.96   608.6    3.0      62.304
2014    5       17     7  41    4.96   608.5    3.0      62.285
2014    5       17     7  47    4.96   608.4    3.0      62.264
2014    5       17     7  52    4.95   608.3    3.0      62.244
2014    5       17     7  57    4.95   608.2    3.0      62.222
2014    5       17     8   3    4.95   608.2    3.0      62.201
2014    5       17     8   8    4.95   608.1    3.0      62.178
2014    5       17     8  14    4.95   608.0    3.0      62.155
2014    5       17     8  19    4.94   607.9    3.0      62.132
2014    5       17     8  24    4.94   607.8    3.0      62.108
2014    5       17     8  30    4.94   607.7    3.0      62.083
2014    5       17     8  35    4.94   607.6    3.0      62.058
2014    5       17     8  41    4.94   607.5    3.0      62.033
2014    5       17     8  46    4.93   607.5    3.0      62.007
2014    5       17     8  52    4.93   607.4    3.0      61.980
2014    5       17     8  57    4.93   607.3    3.0      61.954
2014    5       17     9   2    4.93   607.2    3.0      61.926
2014    5       17     9   8    4.93   607.1    3.0      61.899
2014    5       17     9  13    4.93   607.0    3.0      61.871
2014    5       17     9  19    4.92   606.9    3.0      61.842
2014    5       17     9  24    4.92   606.8    3.0      61.813
2014    5       17     9  29    4.92   606.8    3.0      61.784
2014    5       17     9  35    4.92   606.7    3.0      61.754
2014    5       17     9  40    4.92   606.6    3.0      61.724
2014    5       17     9  46    4.91   606.5    3.0      61.694
2014    5       17     9  51    4.91   606.4    3.0      61.663
2014    5       17     9  57    4.91   606.3    3.0      61.632
2014    5       17    10   2    4.91   606.2    3.0      61.600
2014    5       17    10   7    4.91   606.1    3.0      61.568
2014    5       17    10  13    4.90   606.0    3.0      61.536
2014    5       17    10  18    4.90   605.9    3.0      61.504
2014    5       17    10  24    4.90   605.8    3.0      61.471
2014    5       17    10  29    4.90   605.7    3.0      61.438
2014    5       17    10  34    4.90   605.7    3.0      61.405
2014    5       17    10  40    4.89   605.6    3.0      61.371
2014    5       17    10  45    4.89   605.5    3.0      61.338
2014    5       17    10  51    4.89   605.4    3.0      61.304
2014    5       17    10  56    4.89   605.3    3.0      61.271
2014    5       17    11   1    4.89   605.2    3.0      61.237
2014    5       17    11   7    4.89   605.0    3.0      61.204
2014    5       17    11  12    4.88   604.9    3.0      61.171
2014    5       17    11  18    4.88   604.8    3.0      61.139
2014    5       17    11  23    4.88   604.7    3.0      61.106
2014    5       17    11  29    4.88   604.6    3.0      61.075
2014    5       17    11  34    4.88   604.5    3.0      61.044
2014    5       17    11  39    4.87   604.4    3.0      61.013
2014    5       17    11  45    4.87   604.3    3.0      60.984
2014    5       17    11  50    4.87   604.2    3.0      60.955
2014    5       17    11  56    4.87   604.1    3.0      60.927
2014    5       17    12   1    4.87   604.0    3.0      60.900
2014    5       17    12   6    4.87   603.9    3.0      60.874
2014    5       17    12  12    4.86   603.8    3.0      60.850
2014    5       17    12  17    4.86   603.6    3.0      60.826
2014    5       17    12  23    4.86   603.5    3.0      60.803
2014    5       17    12  28    4.86   603.4    3.0      60.782
2014    5       17    12  33    4.86   603.3    3.0      60.762
2014    5       17    12  39    4.86   603.2    3.0      60.742
2014    5       17    12  44    4.85   603.1    3.0      60.724
2014    5       17    12  50    4.85   603.0    3.0      60.707
2014    5       17    12  55    4.85   602.9    3.0      60.691
2014    5       17    13   1    4.85   602.8    3.0      60.676
2014    5       17    13   6    4.85   602.7    3.0      60.662
2014    5       17    13  11    4.85   602.6    3.0      60.649
2014    5       17    13  17    4.84   602.5    3.0      60.636
2014    5       17    13  22    4.84   602.4    3.0      60.624
2014    5       17    13  28    4.84   602.3    3.0      60.613
2014    5       17    13  33    4.84   602.2    3.0      60.603
2014    5       17    13  38    4.84   602.1    3.0      60.593
2014    5       17    13  44    4.84   602.0    3.0      60.585
2014    5       17    13  49    4.83   601.9    3.0      60.576
2014    5       17    13  55    4.83   601.8    3.0      60.567
2014    5       17    14   0    4.83   601.7    3.0      60.558
2014    5       17    14   5    4.83   601.5    3.0      60.549
2014    5       17    14  11    4.83   601.4    3.0      60.539
2014    5       17    14  16    4.82   601.3    3.0      60.529
2014    5       17    14  22    4.82   601.2    3.0      60.518
2014    5       17    14  27    4.82   601.1    3.0      60.507
2014    5       17    14  33    4.82   601.0    3.0      60.495
2014    5       17    14  38    4.82   600.9    3.0      60.483
2014    5       17    14  43    4.82   600.8    3.0      60.470
2014    5       17    14  49    4.81   600.7    3.0      60.456
2014    5       17    14  54    4.81   600.6    3.0      60.442
2014    5       17    15   0    4.81   600.5    3.0      60.427
2014    5       17    15   5    4.81   600.4    3.0      60.411
2014    5       17    15  10    4.81   600.3    3.0      60.395
2014    5       17    15  16    4.81   600.2    3.0      60.378
2014    5       17    15  21    4.80   600.1    3.0      60.360
2014    5       17    15  27    4.80   600.0    3.0      60.341
2014    5       17    15  32    4.80   599.9    3.0      60.322
2014    5       17    15  37    4.80   599.8    3.0      60.303
2014    5       17    15  43    4.80   599.7    3.0      60.283
2014    5       17    15  48    4.80   599.6    3.0      60.262
2014    5       17    15  54    4.79   599.5    3.0      60.241
2014    5       17    15  59    4.79   599.4    3.0      60.219
2014    5       17    16   5    4.79   599.3    3.0      60.197
2014    5       17    16  10    4.79   599.2    3.0      60.174
2014    5       17    16  15    4.79   599.1    3.0      60.151
2014    5       17    16  21    4.79   599.0    3.0      60.128
2014    5       17    16  26    4.78   598.8    3.0      60.105
2014    5       17    16  32    4.78   598.7    3.0      60.082
2014    5       17    16  37    4.78   598.6    3.0      60.058
2014    5       17    16  42    4.78   598.5    3.0      60.034
2014    5       17    16  48    4.78   598.4    3.0      60.010
2014    5       17    16  53    4.78   598.3    3.0      59.986
2014    5       17    16  59    4.78   598.2    3.0      59.962
2014    5       17    17   4    4.77   598.1    3.0      59.938
2014    5       17    17   9    4.77   598.0    3.0      59.914
2014    5       17    17  15    4.77   597.9    3.0      59.890
2014    5       17    17  20    4.77   597.8    3.0      59.866
2014    5       17    17  26    4.77   597.7    3.0      59.842
2014    5       17    17  31    4.77   597.6    3.0      59.817
2014    5       17    17  37    4.76   597.5    3.0      59.793
2014    5       17    17  42    4.76   597.4    3.0      59.769
2014    5       17    17  47    4.76   597.2    3.0      59.744
2014    5       17    17  53    4.76   597.1    3.0      59.720
2014    5       17    17  58    4.76   597.0    3.0      59.696
2014    5       17    18   4    4.76   596.9    3.0      59.671
2014    5       17    18   9    4.76   596.8    3.0      59.646
2014    5       17    18  14    4.75   596.7    3.0      59.621
2014    5       17    18  20    4.75   596.6    3.0      59.596
2014    5       17    18  25    4.75   596.5    3.0      59.571
2014    5       17    18  31    4.75   596.4    3.0      59.545
2014    5       17    18  36    4.75   596.3    3.0      59.519
2014    5       17    18  41    4.75   596.2    3.0      59.493
2014    5       17    18  47    4.74   596.1    3.0      59.467
2014    5       17    18  52    4.74   595.9    3.0      59.441
2014    5       17    18  58    4.74   595.8    3.0      59.415
2014    5       17    19   3    4.74   595.7    3.0      59.388
2014    5       17    19   9    4.74   595.6    3.0      59.362
2014    5       17    19  14    4.74   595.5    3.0      59.336
2014    5       17    19  19    4.73   595.4    3.0      59.310
2014    5       17    19  25    4.73   595.3    3.0      59.284
2014    5       17    19  30    4.73   595.1    3.0      59.259
2014    5       17    19  36    4.73   595.0    3.0      59.233
2014    5       17    19  41    4.73   594.9    3.0      59.208
2014    5       17    19  46    4.73   594.8    3.0      59.183
2014    5       17    19  52    4.73   594.7    3.0      59.158
2014    5       17    19  57    4.72   594.6    3.0      59.133
2014    5       17    20   3    4.72   594.5    3.0      59.109
2014    5       17    20   8    4.72   594.3    3.0      59.085
2014    5       17    20  13    4.72   594.2    3.0      59.060
2014    5       17    20  19    4.72   594.1    3.0      59.036
2014    5       17    20  24    4.72   594.0    3.0      59.012
2014    5       17    20  30    4.71   593.9    3.0      58.989
2014    5       17    20  35    4.71   593.7    3.0      58.965
2014    5       17    20  41    4.71   593.6    3.0      58.941
2014    5       17    20  46    4.71   593.5    3.0      58.918
2014    5       17    20  51    4.71   593.4    3.0      58.895
2014    5       17    20  57    4.71   593.2    3.0      58.871
2014    5       17    21   2    4.71   593.1    3.0      58.848
2014    5       17    21   8    4.70   593.0    3.0      58.826
2014    5       17    21  13    4.70   592.9    3.0      58.803
2014    5       17    21  18    4.70   592.7    3.0      58.780
2014    5       17    21  24    4.70   592.6    3.0      58.757
2014    5       17    21  29    4.70   592.5    3.0      58.734
2014    5       17    21  35    4.70   592.3    3.0      58.712
2014    5       17    21  40    4.69   592.2    3.0      58.689
2014    5       17    21  45    4.69   592.1    3.0      58.666
2014    5       17    21  51    4.69   592.0    3.0      58.643
2014    5       17    21  56    4.69   591.8    3.0      58.620
2014    5       17    22   2    4.69   591.7    3.0      58.597
2014    5       17    22   7    4.69   591.6    3.0      58.574
2014    5       17    22  13    4.69   591.4    3.0      58.550
2014    5       17    22  18    4.68   591.3    3.0      58.527
2014    5       17    22  23    4.68   591.2    3.0      58.503
2014    5       17    22  29    4.68   591.0    3.0      58.479
2014    5       17    22  34    4.68   590.9    3.0      58.455
2014    5       17    22  40    4.68   590.7    3.0      58.431
2014    5       17    22  45    4.68   590.6    3.0      58.407
2014    5       17    22  50    4.68   590.5    3.0      58.384
2014    5       17    22  56    4.68   590.3    3.0      58.360
2014    5       17    23   1    4.67   590.2    3.0      58.336
2014    5       17    23   7    4.67   590.1    3.0      58.312
2014    5       17    23  12    4.67   589.9    3.0      58.289
2014    5       17    23  17    4.67   589.8    3.0      58.266
2014    5       17    23  23    4.67   589.6    3.0      58.243
2014    5       17    23  28    4.67   589.5    3.0      58.220
2014    5       17    23  34    4.67   589.4    3.0      58.198
2014    5       17    23  39    4.67   589.2    3.0      58.177
2014    5       17    23  45    4.66   589.1    3.0      58.156
2014    5       17    23  50    4.66   588.9    3.0      58.135
2014    5       17    23  55    4.66   588.8    3.0      58.115
2014    5       18     0   1    4.66   588.7    3.0      58.096
