year    month   day   hour  minute  B_enl V_enl   n_enl       T_enl
[year] [month] [day] [hour][minute] [nT]  [km/s]  [cm-3]      [kK]
2015   12        8     0   3    3.9630   554.4    3.887      48.338
2015   12        8     0  10    3.9609   554.3    3.887      48.303
2015   12        8     0  16    3.9587   554.2    3.888      48.270
2015   12        8     0  22    3.9563   554.1    3.888      48.237
2015   12        8     0  29    3.9541   554.0    3.888      48.206
2015   12        8     0  35    3.9520   553.9    3.888      48.176
2015   12        8     0  42    3.9496   553.8    3.888      48.148
2015   12        8     0  48    3.9476   553.7    3.889      48.120
2015   12        8     0  54    3.9454   553.6    3.889      48.093
2015   12        8     1   1    3.9430   553.5    3.888      48.067
2015   12        8     1   7    3.9410   553.4    3.888      48.041
2015   12        8     1  13    3.9387   553.3    3.888      48.015
2015   12        8     1  20    3.9368   553.2    3.888      47.990
2015   12        8     1  26    3.9347   553.1    3.887      47.965
2015   12        8     1  32    3.9327   553.0    3.887      47.939
2015   12        8     1  39    3.9306   552.8    3.887      47.913
2015   12        8     1  45    3.9286   552.7    3.886      47.887
2015   12        8     1  51    3.9266   552.6    3.885      47.861
2015   12        8     1  58    3.9247   552.5    3.885      47.834
2015   12        8     2   4    3.9228   552.4    3.884      47.807
2015   12        8     2  11    3.9209   552.3    3.883      47.779
2015   12        8     2  17    3.9191   552.1    3.882      47.751
2015   12        8     2  23    3.9173   552.0    3.881      47.722
2015   12        8     2  30    3.9155   551.9    3.881      47.693
2015   12        8     2  36    3.9137   551.8    3.880      47.663
2015   12        8     2  42    3.9120   551.6    3.879      47.633
2015   12        8     2  49    3.9103   551.5    3.878      47.602
2015   12        8     2  55    3.9085   551.4    3.877      47.571
2015   12        8     3   1    3.9071   551.3    3.875      47.539
2015   12        8     3   8    3.9055   551.1    3.874      47.507
2015   12        8     3  14    3.9038   551.0    3.873      47.475
2015   12        8     3  20    3.9024   550.9    3.872      47.442
2015   12        8     3  27    3.9009   550.8    3.871      47.408
2015   12        8     3  33    3.8994   550.6    3.870      47.375
2015   12        8     3  40    3.8980   550.5    3.869      47.341
2015   12        8     3  46    3.8966   550.4    3.868      47.306
2015   12        8     3  52    3.8952   550.2    3.866      47.272
2015   12        8     3  59    3.8939   550.1    3.865      47.237
2015   12        8     4   5    3.8924   550.0    3.864      47.202
2015   12        8     4  11    3.8912   549.9    3.863      47.167
2015   12        8     4  18    3.8899   549.7    3.862      47.131
2015   12        8     4  24    3.8885   549.6    3.861      47.096
2015   12        8     4  30    3.8873   549.5    3.860      47.060
2015   12        8     4  37    3.8860   549.4    3.859      47.024
2015   12        8     4  43    3.8847   549.2    3.858      46.988
2015   12        8     4  49    3.8834   549.1    3.857      46.952
2015   12        8     4  56    3.8821   549.0    3.856      46.915
2015   12        8     5   2    3.8808   548.9    3.855      46.879
2015   12        8     5   8    3.8795   548.8    3.854      46.843
2015   12        8     5  15    3.8782   548.6    3.853      46.806
2015   12        8     5  21    3.8769   548.5    3.852      46.770
2015   12        8     5  28    3.8756   548.4    3.851      46.733
2015   12        8     5  34    3.8743   548.3    3.850      46.696
2015   12        8     5  40    3.8730   548.2    3.850      46.660
2015   12        8     5  47    3.8717   548.0    3.849      46.623
2015   12        8     5  53    3.8704   547.9    3.848      46.587
2015   12        8     5  59    3.8690   547.8    3.848      46.550
2015   12        8     6   6    3.8677   547.7    3.847      46.514
2015   12        8     6  12    3.8664   547.6    3.847      46.478
2015   12        8     6  18    3.8650   547.5    3.847      46.443
2015   12        8     6  25    3.8637   547.3    3.847      46.407
2015   12        8     6  31    3.8624   547.2    3.847      46.372
2015   12        8     6  37    3.8610   547.1    3.847      46.338
2015   12        8     6  44    3.8597   547.0    3.847      46.303
2015   12        8     6  50    3.8583   546.9    3.847      46.270
2015   12        8     6  57    3.8570   546.8    3.847      46.236
2015   12        8     7   3    3.8556   546.7    3.848      46.203
2015   12        8     7   9    3.8543   546.5    3.848      46.171
2015   12        8     7  16    3.8530   546.4    3.849      46.139
2015   12        8     7  22    3.8516   546.3    3.850      46.108
2015   12        8     7  28    3.8503   546.2    3.851      46.078
2015   12        8     7  35    3.8490   546.1    3.852      46.049
2015   12        8     7  41    3.8477   546.0    3.853      46.022
2015   12        8     7  47    3.8464   545.9    3.855      45.995
2015   12        8     7  54    3.8452   545.8    3.856      45.969
2015   12        8     8   0    3.8439   545.7    3.857      45.944
2015   12        8     8   6    3.8427   545.5    3.859      45.920
2015   12        8     8  13    3.8415   545.4    3.860      45.897
2015   12        8     8  19    3.8403   545.3    3.862      45.874
2015   12        8     8  26    3.8392   545.2    3.863      45.853
2015   12        8     8  32    3.8380   545.1    3.865      45.833
2015   12        8     8  38    3.8369   545.0    3.866      45.813
2015   12        8     8  45    3.8356   544.9    3.868      45.794
2015   12        8     8  51    3.8346   544.7    3.869      45.776
2015   12        8     8  57    3.8335   544.6    3.871      45.758
2015   12        8     9   4    3.8324   544.5    3.872      45.740
2015   12        8     9  10    3.8313   544.4    3.873      45.722
2015   12        8     9  16    3.8302   544.3    3.874      45.705
2015   12        8     9  23    3.8291   544.2    3.875      45.687
2015   12        8     9  29    3.8281   544.0    3.876      45.670
2015   12        8     9  35    3.8270   543.9    3.877      45.651
2015   12        8     9  42    3.8260   543.8    3.878      45.633
2015   12        8     9  48    3.8250   543.7    3.879      45.613
2015   12        8     9  55    3.8240   543.5    3.879      45.594
2015   12        8    10   1    3.8231   543.4    3.880      45.574
2015   12        8    10   7    3.8222   543.3    3.881      45.553
2015   12        8    10  14    3.8213   543.2    3.881      45.533
2015   12        8    10  20    3.8204   543.0    3.882      45.512
2015   12        8    10  26    3.8195   542.9    3.882      45.491
2015   12        8    10  33    3.8187   542.8    3.883      45.470
2015   12        8    10  39    3.8179   542.7    3.883      45.448
2015   12        8    10  45    3.8171   542.5    3.883      45.426
2015   12        8    10  52    3.8163   542.4    3.884      45.404
2015   12        8    10  58    3.8156   542.3    3.884      45.382
2015   12        8    11   4    3.8148   542.1    3.884      45.360
2015   12        8    11  11    3.8141   542.0    3.885      45.337
2015   12        8    11  17    3.8134   541.9    3.885      45.315
2015   12        8    11  24    3.8127   541.8    3.885      45.292
2015   12        8    11  30    3.8120   541.6    3.885      45.269
2015   12        8    11  36    3.8113   541.5    3.885      45.246
2015   12        8    11  43    3.8106   541.4    3.886      45.222
2015   12        8    11  49    3.8099   541.2    3.886      45.198
2015   12        8    11  55    3.8092   541.1    3.886      45.175
2015   12        8    12   2    3.8085   541.0    3.886      45.150
2015   12        8    12   8    3.8078   540.9    3.886      45.126
2015   12        8    12  14    3.8071   540.7    3.886      45.101
2015   12        8    12  21    3.8064   540.6    3.886      45.076
2015   12        8    12  27    3.8057   540.5    3.886      45.051
2015   12        8    12  33    3.8051   540.3    3.886      45.026
2015   12        8    12  40    3.8044   540.2    3.886      45.000
2015   12        8    12  46    3.8037   540.0    3.887      44.974
2015   12        8    12  52    3.8030   539.9    3.887      44.948
2015   12        8    12  59    3.8024   539.8    3.887      44.922
2015   12        8    13   5    3.8018   539.6    3.887      44.897
2015   12        8    13  12    3.8012   539.5    3.888      44.871
2015   12        8    13  18    3.8006   539.3    3.888      44.845
2015   12        8    13  24    3.8001   539.2    3.889      44.820
2015   12        8    13  31    3.7995   539.0    3.890      44.796
2015   12        8    13  37    3.7990   538.9    3.891      44.772
2015   12        8    13  43    3.7986   538.7    3.892      44.748
2015   12        8    13  50    3.7982   538.6    3.893      44.726
2015   12        8    13  56    3.7979   538.5    3.895      44.705
2015   12        8    14   2    3.7976   538.3    3.897      44.685
2015   12        8    14   9    3.7973   538.2    3.899      44.666
2015   12        8    14  15    3.7971   538.0    3.901      44.649
2015   12        8    14  21    3.7969   537.9    3.904      44.633
2015   12        8    14  28    3.7968   537.7    3.907      44.619
2015   12        8    14  34    3.7967   537.6    3.910      44.607
2015   12        8    14  41    3.7968   537.4    3.913      44.596
2015   12        8    14  47    3.7967   537.3    3.917      44.588
2015   12        8    14  53    3.7969   537.2    3.920      44.582
2015   12        8    15   0    3.7970   537.1    3.924      44.576
2015   12        8    15   6    3.7971   536.9    3.928      44.572
2015   12        8    15  12    3.7973   536.8    3.932      44.568
2015   12        8    15  19    3.7974   536.7    3.935      44.565
2015   12        8    15  25    3.7976   536.6    3.939      44.562
2015   12        8    15  31    3.7978   536.5    3.943      44.559
2015   12        8    15  38    3.7979   536.4    3.947      44.556
2015   12        8    15  44    3.7981   536.2    3.950      44.554
2015   12        8    15  50    3.7982   536.1    3.954      44.551
2015   12        8    15  57    3.7984   536.0    3.957      44.549
2015   12        8    16   3    3.7985   535.9    3.961      44.546
2015   12        8    16  10    3.7987   535.8    3.964      44.543
2015   12        8    16  16    3.7988   535.7    3.967      44.539
2015   12        8    16  22    3.7989   535.6    3.970      44.536
2015   12        8    16  29    3.7990   535.5    3.973      44.532
2015   12        8    16  35    3.7991   535.4    3.976      44.527
2015   12        8    16  41    3.7992   535.3    3.979      44.523
2015   12        8    16  48    3.7993   535.2    3.981      44.517
2015   12        8    16  54    3.7994   535.1    3.984      44.511
2015   12        8    17   0    3.7995   535.0    3.986      44.504
2015   12        8    17   7    3.7997   534.9    3.989      44.496
2015   12        8    17  13    3.7998   534.7    3.991      44.488
2015   12        8    17  19    3.7999   534.6    3.993      44.480
2015   12        8    17  26    3.8000   534.5    3.995      44.471
2015   12        8    17  32    3.8001   534.4    3.997      44.461
2015   12        8    17  39    3.8003   534.3    3.999      44.451
2015   12        8    17  45    3.8004   534.2    4.001      44.440
2015   12        8    17  51    3.8006   534.1    4.003      44.429
2015   12        8    17  58    3.8007   534.0    4.005      44.418
2015   12        8    18   4    3.8008   533.9    4.007      44.406
2015   12        8    18  10    3.8010   533.8    4.009      44.394
2015   12        8    18  17    3.8011   533.7    4.011      44.382
2015   12        8    18  23    3.8014   533.6    4.013      44.370
2015   12        8    18  29    3.8016   533.4    4.014      44.357
2015   12        8    18  36    3.8017   533.3    4.016      44.344
2015   12        8    18  42    3.8019   533.2    4.018      44.332
2015   12        8    18  48    3.8021   533.1    4.020      44.319
2015   12        8    18  55    3.8023   533.0    4.022      44.306
2015   12        8    19   1    3.8025   532.9    4.023      44.293
2015   12        8    19   7    3.8028   532.8    4.025      44.281
2015   12        8    19  14    3.8030   532.7    4.027      44.268
2015   12        8    19  20    3.8032   532.5    4.029      44.256
2015   12        8    19  27    3.8035   532.4    4.031      44.244
2015   12        8    19  33    3.8038   532.3    4.033      44.232
2015   12        8    19  39    3.8041   532.2    4.035      44.221
2015   12        8    19  46    3.8044   532.1    4.038      44.210
2015   12        8    19  52    3.8048   532.0    4.040      44.200
2015   12        8    19  58    3.8052   531.9    4.043      44.190
2015   12        8    20   5    3.8056   531.8    4.046      44.182
2015   12        8    20  11    3.8060   531.6    4.048      44.173
2015   12        8    20  17    3.8064   531.5    4.052      44.166
2015   12        8    20  24    3.8070   531.4    4.055      44.159
2015   12        8    20  30    3.8076   531.3    4.058      44.154
2015   12        8    20  36    3.8081   531.2    4.062      44.151
2015   12        8    20  43    3.8087   531.1    4.065      44.150
2015   12        8    20  49    3.8094   531.0    4.069      44.151
2015   12        8    20  56    3.8100   530.9    4.073      44.154
2015   12        8    21   2    3.8107   530.7    4.077      44.158
2015   12        8    21   8    3.8114   530.6    4.081      44.163
2015   12        8    21  15    3.8122   530.5    4.085      44.169
2015   12        8    21  21    3.8130   530.4    4.089      44.177
2015   12        8    21  27    3.8138   530.3    4.093      44.186
2015   12        8    21  34    3.8147   530.2    4.097      44.197
2015   12        8    21  40    3.8156   530.1    4.101      44.208
2015   12        8    21  46    3.8165   530.0    4.106      44.220
2015   12        8    21  53    3.8175   529.9    4.110      44.232
2015   12        8    21  59    3.8184   529.9    4.115      44.246
2015   12        8    22   5    3.8195   529.8    4.119      44.261
2015   12        8    22  12    3.8205   529.7    4.123      44.276
2015   12        8    22  18    3.8215   529.6    4.127      44.291
2015   12        8    22  25    3.8225   529.5    4.131      44.306
2015   12        8    22  31    3.8236   529.5    4.135      44.320
2015   12        8    22  37    3.8246   529.4    4.139      44.334
2015   12        8    22  44    3.8255   529.3    4.143      44.347
2015   12        8    22  50    3.8265   529.2    4.146      44.360
2015   12        8    22  56    3.8275   529.2    4.149      44.371
2015   12        8    23   3    3.8284   529.1    4.152      44.381
2015   12        8    23   9    3.8293   529.0    4.155      44.390
2015   12        8    23  15    3.8302   529.0    4.158      44.397
2015   12        8    23  22    3.8311   528.9    4.161      44.403
2015   12        8    23  28    3.8320   528.8    4.163      44.408
2015   12        8    23  34    3.8329   528.8    4.165      44.411
2015   12        8    23  41    3.8338   528.7    4.167      44.414
2015   12        8    23  47    3.8346   528.6    4.170      44.416
2015   12        8    23  54    3.8354   528.5    4.172      44.416
2015   12        9     0   0    3.8363   528.5    4.173      44.416
2015   12        9     0   6    3.8375   528.4    4.176      44.418
2015   12        9     0  13    3.8387   528.3    4.178      44.418
2015   12        9     0  19    3.8399   528.3    4.180      44.418
2015   12        9     0  25    3.8411   528.2    4.182      44.417
2015   12        9     0  32    3.8423   528.1    4.184      44.416
2015   12        9     0  38    3.8435   528.1    4.186      44.414
2015   12        9     0  44    3.8446   528.0    4.188      44.411
2015   12        9     0  51    3.8459   527.9    4.190      44.408
2015   12        9     0  57    3.8470   527.9    4.192      44.404
2015   12        9     1   3    3.8482   527.8    4.194      44.400
2015   12        9     1  10    3.8494   527.7    4.195      44.396
2015   12        9     1  16    3.8506   527.6    4.197      44.391
2015   12        9     1  23    3.8518   527.6    4.199      44.386
2015   12        9     1  29    3.8530   527.5    4.201      44.380
2015   12        9     1  35    3.8542   527.4    4.202      44.375
2015   12        9     1  42    3.8554   527.4    4.204      44.369
2015   12        9     1  48    3.8566   527.3    4.206      44.363
2015   12        9     1  54    3.8578   527.2    4.208      44.357
2015   12        9     2   1    3.8590   527.2    4.209      44.352
2015   12        9     2   7    3.8602   527.1    4.211      44.346
2015   12        9     2  13    3.8614   527.0    4.213      44.341
2015   12        9     2  20    3.8626   526.9    4.215      44.336
2015   12        9     2  26    3.8639   526.9    4.217      44.331
2015   12        9     2  32    3.8650   526.8    4.220      44.327
2015   12        9     2  39    3.8663   526.7    4.222      44.324
2015   12        9     2  45    3.8676   526.7    4.224      44.321
2015   12        9     2  51    3.8689   526.6    4.227      44.319
2015   12        9     2  58    3.8701   526.5    4.230      44.318
2015   12        9     3   4    3.8714   526.5    4.233      44.318
2015   12        9     3  11    3.8727   526.4    4.236      44.318
2015   12        9     3  17    3.8740   526.4    4.239      44.319
2015   12        9     3  23    3.8753   526.3    4.242      44.321
2015   12        9     3  30    3.8766   526.2    4.246      44.324
2015   12        9     3  36    3.8779   526.2    4.249      44.327
2015   12        9     3  42    3.8793   526.1    4.253      44.332
2015   12        9     3  49    3.8806   526.0    4.257      44.339
2015   12        9     3  55    3.8819   526.0    4.261      44.347
2015   12        9     4   1    3.8833   525.9    4.264      44.357
2015   12        9     4   8    3.8846   525.9    4.268      44.369
2015   12        9     4  14    3.8859   525.8    4.272      44.382
2015   12        9     4  20    3.8872   525.8    4.275      44.395
2015   12        9     4  27    3.8885   525.7    4.278      44.408
2015   12        9     4  33    3.8897   525.7    4.282      44.420
2015   12        9     4  40    3.8910   525.6    4.285      44.433
2015   12        9     4  46    3.8923   525.6    4.288      44.445
2015   12        9     4  52    3.8935   525.5    4.291      44.456
2015   12        9     4  59    3.8947   525.5    4.293      44.467
2015   12        9     5   5    3.8960   525.4    4.296      44.477
2015   12        9     5  11    3.8972   525.4    4.298      44.487
2015   12        9     5  18    3.8984   525.3    4.301      44.496
2015   12        9     5  24    3.8996   525.3    4.303      44.504
2015   12        9     5  30    3.9007   525.2    4.305      44.511
2015   12        9     5  37    3.9019   525.2    4.307      44.519
2015   12        9     5  43    3.9031   525.1    4.309      44.525
2015   12        9     5  49    3.9043   525.1    4.311      44.531
2015   12        9     5  56    3.9055   525.0    4.313      44.537
2015   12        9     6   2    3.9067   525.0    4.315      44.542
2015   12        9     6   9    3.9079   524.9    4.316      44.547
2015   12        9     6  15    3.9091   524.9    4.318      44.552
2015   12        9     6  21    3.9103   524.8    4.319      44.556
2015   12        9     6  28    3.9114   524.8    4.321      44.560
2015   12        9     6  34    3.9127   524.7    4.322      44.563
2015   12        9     6  40    3.9139   524.7    4.324      44.567
2015   12        9     6  47    3.9151   524.6    4.325      44.570
2015   12        9     6  53    3.9163   524.6    4.326      44.573
2015   12        9     6  59    3.9175   524.5    4.328      44.575
2015   12        9     7   6    3.9188   524.5    4.329      44.578
2015   12        9     7  12    3.9200   524.5    4.330      44.580
2015   12        9     7  18    3.9212   524.4    4.331      44.582
2015   12        9     7  25    3.9225   524.4    4.332      44.584
2015   12        9     7  31    3.9236   524.3    4.333      44.585
2015   12        9     7  38    3.9248   524.3    4.334      44.587
2015   12        9     7  44    3.9259   524.2    4.335      44.588
2015   12        9     7  50    3.9271   524.2    4.337      44.590
2015   12        9     7  57    3.9282   524.2    4.338      44.591
2015   12        9     8   3    3.9294   524.1    4.339      44.592
2015   12        9     8   9    3.9305   524.1    4.340      44.593
2015   12        9     8  16    3.9317   524.1    4.340      44.594
2015   12        9     8  22    3.9328   524.0    4.341      44.594
2015   12        9     8  28    3.9339   524.0    4.342      44.595
2015   12        9     8  35    3.9350   523.9    4.343      44.596
2015   12        9     8  41    3.9361   523.9    4.344      44.596
2015   12        9     8  47    3.9373   523.9    4.345      44.597
2015   12        9     8  54    3.9383   523.8    4.346      44.597
2015   12        9     9   0    3.9394   523.8    4.347      44.598
2015   12        9     9   7    3.9405   523.8    4.348      44.598
2015   12        9     9  13    3.9416   523.7    4.349      44.599
2015   12        9     9  19    3.9426   523.7    4.350      44.599
2015   12        9     9  26    3.9436   523.6    4.352      44.600
2015   12        9     9  32    3.9446   523.6    4.353      44.601
2015   12        9     9  38    3.9456   523.6    4.354      44.602
2015   12        9     9  45    3.9466   523.5    4.355      44.602
2015   12        9     9  51    3.9476   523.5    4.356      44.603
2015   12        9     9  57    3.9486   523.5    4.358      44.605
2015   12        9    10   4    3.9495   523.4    4.359      44.606
2015   12        9    10  10    3.9504   523.4    4.360      44.607
2015   12        9    10  16    3.9514   523.3    4.362      44.608
2015   12        9    10  23    3.9523   523.3    4.363      44.610
2015   12        9    10  29    3.9532   523.3    4.365      44.611
2015   12        9    10  36    3.9541   523.2    4.366      44.613
2015   12        9    10  42    3.9550   523.2    4.368      44.615
2015   12        9    10  48    3.9559   523.1    4.369      44.617
2015   12        9    10  55    3.9568   523.1    4.371      44.619
2015   12        9    11   1    3.9576   523.1    4.372      44.620
2015   12        9    11   7    3.9585   523.0    4.374      44.623
2015   12        9    11  14    3.9594   523.0    4.376      44.625
2015   12        9    11  20    3.9603   522.9    4.377      44.627
2015   12        9    11  26    3.9612   522.9    4.379      44.629
2015   12        9    11  33    3.9621   522.8    4.381      44.631
2015   12        9    11  39    3.9630   522.8    4.382      44.633
2015   12        9    11  45    3.9640   522.8    4.384      44.635
2015   12        9    11  52    3.9649   522.7    4.386      44.637
2015   12        9    11  58    3.9659   522.7    4.388      44.639
2015   12        9    12   4    3.9668   522.6    4.389      44.641
2015   12        9    12  11    3.9678   522.6    4.391      44.642
2015   12        9    12  17    3.9689   522.5    4.392      44.644
2015   12        9    12  24    3.9699   522.5    4.394      44.646
2015   12        9    12  30    3.9709   522.5    4.396      44.648
2015   12        9    12  36    3.9720   522.4    4.397      44.650
2015   12        9    12  43    3.9731   522.4    4.399      44.652
2015   12        9    12  49    3.9742   522.3    4.401      44.654
2015   12        9    12  55    3.9753   522.3    4.402      44.656
2015   12        9    13   2    3.9765   522.2    4.404      44.658
2015   12        9    13   8    3.9777   522.2    4.405      44.660
2015   12        9    13  14    3.9789   522.1    4.407      44.662
2015   12        9    13  21    3.9801   522.1    4.408      44.665
2015   12        9    13  27    3.9814   522.1    4.410      44.667
2015   12        9    13  33    3.9827   522.0    4.411      44.670
2015   12        9    13  40    3.9840   522.0    4.412      44.672
2015   12        9    13  46    3.9853   522.0    4.414      44.675
2015   12        9    13  53    3.9867   521.9    4.415      44.678
2015   12        9    13  59    3.9881   521.9    4.417      44.681
2015   12        9    14   5    3.9895   521.8    4.418      44.684
2015   12        9    14  12    3.9909   521.8    4.419      44.687
2015   12        9    14  18    3.9923   521.8    4.421      44.690
2015   12        9    14  24    3.9938   521.7    4.422      44.694
2015   12        9    14  31    3.9953   521.7    4.423      44.697
2015   12        9    14  37    3.9968   521.7    4.424      44.701
2015   12        9    14  43    3.9983   521.6    4.426      44.705
2015   12        9    14  50    3.9998   521.6    4.427      44.709
2015   12        9    14  56    4.0014   521.6    4.428      44.713
2015   12        9    15   2    4.0029   521.5    4.429      44.717
2015   12        9    15   9    4.0045   521.5    4.430      44.721
2015   12        9    15  15    4.0060   521.5    4.431      44.725
2015   12        9    15  22    4.0076   521.5    4.433      44.730
2015   12        9    15  28    4.0092   521.4    4.434      44.734
2015   12        9    15  34    4.0108   521.4    4.435      44.739
2015   12        9    15  41    4.0124   521.4    4.436      44.744
2015   12        9    15  47    4.0140   521.3    4.437      44.749
2015   12        9    15  53    4.0156   521.3    4.438      44.754
2015   12        9    16   0    4.0172   521.3    4.439      44.759
2015   12        9    16   6    4.0188   521.3    4.440      44.764
2015   12        9    16  12    4.0204   521.2    4.442      44.769
2015   12        9    16  19    4.0220   521.2    4.443      44.775
2015   12        9    16  25    4.0236   521.2    4.444      44.781
2015   12        9    16  31    4.0252   521.1    4.445      44.787
2015   12        9    16  38    4.0268   521.1    4.447      44.793
2015   12        9    16  44    4.0284   521.1    4.448      44.799
2015   12        9    16  51    4.0300   521.1    4.450      44.806
2015   12        9    16  57    4.0316   521.0    4.451      44.813
2015   12        9    17   3    4.0332   521.0    4.452      44.820
2015   12        9    17  10    4.0347   521.0    4.454      44.827
2015   12        9    17  16    4.0363   521.0    4.456      44.835
2015   12        9    17  22    4.0379   520.9    4.457      44.843
2015   12        9    17  29    4.0395   520.9    4.459      44.851
2015   12        9    17  35    4.0411   520.9    4.461      44.860
2015   12        9    17  41    4.0427   520.8    4.463      44.868
2015   12        9    17  48    4.0442   520.8    4.465      44.877
2015   12        9    17  54    4.0458   520.8    4.467      44.886
2015   12        9    18   0    4.0474   520.8    4.469      44.896
2015   12        9    18   7    4.0490   520.7    4.471      44.906
2015   12        9    18  13    4.0506   520.7    4.473      44.916
2015   12        9    18  20    4.0522   520.7    4.475      44.926
2015   12        9    18  26    4.0538   520.7    4.477      44.937
2015   12        9    18  32    4.0555   520.6    4.479      44.948
2015   12        9    18  39    4.0572   520.6    4.482      44.959
2015   12        9    18  45    4.0588   520.6    4.484      44.970
2015   12        9    18  51    4.0605   520.6    4.487      44.982
2015   12        9    18  58    4.0623   520.5    4.489      44.994
2015   12        9    19   4    4.0640   520.5    4.492      45.007
2015   12        9    19  10    4.0658   520.5    4.494      45.019
2015   12        9    19  17    4.0677   520.5    4.497      45.032
2015   12        9    19  23    4.0695   520.4    4.499      45.046
2015   12        9    19  29    4.0714   520.4    4.502      45.059
2015   12        9    19  36    4.0733   520.4    4.505      45.074
2015   12        9    19  42    4.0753   520.4    4.507      45.089
2015   12        9    19  49    4.0773   520.4    4.510      45.105
2015   12        9    19  55    4.0793   520.4    4.512      45.120
2015   12        9    20   1    4.0814   520.4    4.515      45.136
2015   12        9    20   8    4.0835   520.4    4.517      45.152
2015   12        9    20  14    4.0856   520.4    4.520      45.167
2015   12        9    20  20    4.0877   520.3    4.522      45.183
2015   12        9    20  27    4.0898   520.3    4.524      45.198
2015   12        9    20  33    4.0920   520.3    4.527      45.213
2015   12        9    20  39    4.0942   520.3    4.529      45.228
2015   12        9    20  46    4.0964   520.3    4.531      45.242
2015   12        9    20  52    4.0986   520.3    4.533      45.257
2015   12        9    20  58    4.1009   520.3    4.535      45.271
2015   12        9    21   5    4.1031   520.3    4.537      45.285
2015   12        9    21  11    4.1054   520.3    4.540      45.298
2015   12        9    21  18    4.1078   520.3    4.542      45.312
2015   12        9    21  24    4.1101   520.3    4.544      45.326
2015   12        9    21  30    4.1125   520.3    4.546      45.340
2015   12        9    21  37    4.1148   520.3    4.548      45.353
2015   12        9    21  43    4.1173   520.3    4.550      45.367
2015   12        9    21  49    4.1197   520.3    4.552      45.381
2015   12        9    21  56    4.1222   520.3    4.554      45.396
2015   12        9    22   2    4.1246   520.3    4.556      45.411
2015   12        9    22   8    4.1272   520.3    4.558      45.426
2015   12        9    22  15    4.1297   520.3    4.561      45.442
2015   12        9    22  21    4.1323   520.3    4.563      45.458
2015   12        9    22  27    4.1348   520.3    4.565      45.475
2015   12        9    22  34    4.1374   520.3    4.568      45.493
2015   12        9    22  40    4.1400   520.3    4.570      45.512
2015   12        9    22  47    4.1425   520.4    4.573      45.531
2015   12        9    22  53    4.1451   520.4    4.575      45.551
2015   12        9    22  59    4.1476   520.4    4.578      45.572
2015   12        9    23   6    4.1501   520.4    4.581      45.594
2015   12        9    23  12    4.1526   520.4    4.584      45.617
2015   12        9    23  18    4.1551   520.4    4.587      45.643
2015   12        9    23  25    4.1575   520.5    4.590      45.670
2015   12        9    23  31    4.1599   520.5    4.593      45.700
2015   12        9    23  37    4.1622   520.5    4.596      45.732
2015   12        9    23  44    4.1646   520.6    4.599      45.765
2015   12        9    23  50    4.1669   520.6    4.602      45.799
2015   12        9    23  56    4.1691   520.6    4.604      45.832
2015   12       10     0   3    4.1712   520.7    4.607      45.864
2015   12       10     0   9    4.1730   520.7    4.609      45.894
2015   12       10     0  16    4.1748   520.8    4.611      45.924
2015   12       10     0  22    4.1767   520.8    4.613      45.954
2015   12       10     0  28    4.1784   520.8    4.615      45.983
2015   12       10     0  35    4.1802   520.9    4.617      46.012
2015   12       10     0  41    4.1820   520.9    4.619      46.041
2015   12       10     0  47    4.1838   520.9    4.621      46.069
2015   12       10     0  54    4.1855   521.0    4.623      46.097
2015   12       10     1   0    4.1873   521.0    4.625      46.126
2015   12       10     1   6    4.1890   521.0    4.627      46.153
2015   12       10     1  13    4.1908   521.1    4.629      46.181
2015   12       10     1  19    4.1925   521.1    4.631      46.209
2015   12       10     1  25    4.1943   521.2    4.633      46.236
2015   12       10     1  32    4.1961   521.2    4.635      46.264
2015   12       10     1  38    4.1979   521.2    4.637      46.291
2015   12       10     1  45    4.1997   521.3    4.639      46.319
2015   12       10     1  51    4.2016   521.3    4.641      46.346
2015   12       10     1  57    4.2034   521.4    4.643      46.374
2015   12       10     2   4    4.2053   521.4    4.645      46.403
2015   12       10     2  10    4.2073   521.5    4.647      46.431
2015   12       10     2  16    4.2093   521.5    4.650      46.460
2015   12       10     2  23    4.2113   521.6    4.652      46.489
2015   12       10     2  29    4.2134   521.6    4.654      46.518
2015   12       10     2  35    4.2155   521.7    4.656      46.547
2015   12       10     2  42    4.2177   521.7    4.659      46.577
2015   12       10     2  48    4.2199   521.8    4.661      46.607
2015   12       10     2  54    4.2222   521.8    4.663      46.637
2015   12       10     3   1    4.2245   521.9    4.666      46.668
2015   12       10     3   7    4.2268   522.0    4.668      46.699
2015   12       10     3  14    4.2292   522.0    4.670      46.732
2015   12       10     3  20    4.2316   522.1    4.673      46.765
2015   12       10     3  26    4.2340   522.2    4.675      46.799
2015   12       10     3  33    4.2364   522.2    4.677      46.833
2015   12       10     3  39    4.2387   522.3    4.679      46.868
2015   12       10     3  45    4.2411   522.4    4.681      46.902
2015   12       10     3  52    4.2434   522.5    4.683      46.937
2015   12       10     3  58    4.2458   522.5    4.685      46.971
2015   12       10     4   4    4.2481   522.6    4.687      47.005
2015   12       10     4  11    4.2504   522.7    4.689      47.038
2015   12       10     4  17    4.2527   522.8    4.691      47.072
2015   12       10     4  23    4.2550   522.8    4.693      47.105
2015   12       10     4  30    4.2573   522.9    4.695      47.138
2015   12       10     4  36    4.2596   523.0    4.696      47.170
2015   12       10     4  43    4.2619   523.1    4.698      47.203
2015   12       10     4  49    4.2642   523.1    4.700      47.236
2015   12       10     4  55    4.2665   523.2    4.702      47.269
2015   12       10     5   2    4.2687   523.3    4.704      47.302
2015   12       10     5   8    4.2710   523.4    4.706      47.335
2015   12       10     5  14    4.2732   523.5    4.708      47.369
2015   12       10     5  21    4.2755   523.5    4.710      47.403
2015   12       10     5  27    4.2777   523.6    4.713      47.438
2015   12       10     5  33    4.2798   523.7    4.715      47.474
2015   12       10     5  40    4.2820   523.8    4.717      47.510
2015   12       10     5  46    4.2841   523.9    4.720      47.548
2015   12       10     5  52    4.2862   524.0    4.722      47.588
2015   12       10     5  59    4.2882   524.1    4.725      47.630
2015   12       10     6   5    4.2901   524.1    4.728      47.673
2015   12       10     6  12    4.2920   524.2    4.730      47.718
2015   12       10     6  18    4.2938   524.4    4.733      47.766
2015   12       10     6  24    4.2956   524.5    4.736      47.814
2015   12       10     6  31    4.2973   524.6    4.738      47.865
2015   12       10     6  37    4.2989   524.7    4.741      47.917
2015   12       10     6  43    4.3004   524.8    4.743      47.970
2015   12       10     6  50    4.3019   524.9    4.745      48.023
2015   12       10     6  56    4.3034   525.0    4.746      48.077
2015   12       10     7   2    4.3048   525.1    4.748      48.131
2015   12       10     7   9    4.3061   525.3    4.750      48.184
2015   12       10     7  15    4.3074   525.4    4.751      48.235
2015   12       10     7  21    4.3086   525.5    4.752      48.285
2015   12       10     7  28    4.3098   525.6    4.753      48.334
2015   12       10     7  34    4.3110   525.7    4.754      48.382
2015   12       10     7  41    4.3121   525.8    4.755      48.428
2015   12       10     7  47    4.3132   525.9    4.755      48.474
2015   12       10     7  53    4.3143   526.0    4.756      48.518
2015   12       10     8   0    4.3154   526.1    4.757      48.562
2015   12       10     8   6    4.3165   526.3    4.757      48.604
2015   12       10     8  12    4.3176   526.4    4.758      48.646
2015   12       10     8  19    4.3187   526.5    4.758      48.687
2015   12       10     8  25    4.3197   526.6    4.758      48.728
2015   12       10     8  31    4.3208   526.7    4.759      48.767
2015   12       10     8  38    4.3219   526.8    4.759      48.807
2015   12       10     8  44    4.3230   526.9    4.759      48.846
2015   12       10     8  50    4.3241   527.0    4.759      48.884
2015   12       10     8  57    4.3252   527.2    4.760      48.922
2015   12       10     9   3    4.3263   527.3    4.760      48.960
2015   12       10     9  10    4.3275   527.4    4.760      48.998
2015   12       10     9  16    4.3288   527.5    4.761      49.035
2015   12       10     9  22    4.3300   527.6    4.761      49.073
2015   12       10     9  29    4.3313   527.7    4.762      49.111
2015   12       10     9  35    4.3327   527.8    4.762      49.149
2015   12       10     9  41    4.3341   528.0    4.763      49.188
2015   12       10     9  48    4.3356   528.1    4.764      49.227
2015   12       10     9  54    4.3372   528.2    4.765      49.269
2015   12       10    10   0    4.3389   528.3    4.767      49.311
2015   12       10    10   7    4.3406   528.4    4.768      49.353
2015   12       10    10  13    4.3423   528.6    4.769      49.399
2015   12       10    10  20    4.3441   528.7    4.771      49.447
2015   12       10    10  26    4.3458   528.9    4.772      49.496
2015   12       10    10  32    4.3475   529.0    4.773      49.546
2015   12       10    10  39    4.3492   529.2    4.774      49.598
2015   12       10    10  45    4.3508   529.3    4.775      49.649
2015   12       10    10  51    4.3524   529.5    4.776      49.698
2015   12       10    10  58    4.3539   529.6    4.776      49.747
2015   12       10    11   4    4.3554   529.8    4.777      49.795
2015   12       10    11  10    4.3567   529.9    4.777      49.841
2015   12       10    11  17    4.3581   530.1    4.777      49.887
2015   12       10    11  23    4.3594   530.2    4.777      49.932
2015   12       10    11  29    4.3607   530.4    4.777      49.976
2015   12       10    11  36    4.3619   530.5    4.776      50.019
2015   12       10    11  42    4.3631   530.7    4.776      50.062
2015   12       10    11  49    4.3642   530.9    4.776      50.104
2015   12       10    11  55    4.3654   531.0    4.775      50.146
2015   12       10    12   1    4.3665   531.2    4.775      50.188
2015   12       10    12   8    4.3676   531.3    4.774      50.230
2015   12       10    12  14    4.3686   531.5    4.774      50.271
2015   12       10    12  20    4.3697   531.6    4.773      50.312
2015   12       10    12  27    4.3707   531.8    4.773      50.353
2015   12       10    12  33    4.3717   531.9    4.772      50.394
2015   12       10    12  39    4.3727   532.1    4.772      50.435
2015   12       10    12  46    4.3737   532.3    4.772      50.476
2015   12       10    12  52    4.3746   532.4    4.771      50.517
2015   12       10    12  58    4.3755   532.6    4.771      50.558
2015   12       10    13   5    4.3764   532.7    4.771      50.599
2015   12       10    13  11    4.3773   532.9    4.770      50.642
2015   12       10    13  18    4.3782   533.0    4.770      50.684
2015   12       10    13  24    4.3790   533.2    4.770      50.728
2015   12       10    13  30    4.3798   533.4    4.771      50.773
2015   12       10    13  37    4.3806   533.5    4.771      50.820
2015   12       10    13  43    4.3813   533.7    4.771      50.868
2015   12       10    13  49    4.3820   533.9    4.771      50.919
2015   12       10    13  56    4.3828   534.0    4.772      50.971
2015   12       10    14   2    4.3835   534.2    4.772      51.026
2015   12       10    14   8    4.3842   534.4    4.773      51.082
2015   12       10    14  15    4.3849   534.6    4.773      51.141
2015   12       10    14  21    4.3855   534.8    4.773      51.201
2015   12       10    14  27    4.3861   535.0    4.774      51.262
2015   12       10    14  34    4.3867   535.1    4.774      51.324
2015   12       10    14  40    4.3872   535.3    4.773      51.385
2015   12       10    14  47    4.3877   535.5    4.773      51.444
2015   12       10    14  53    4.3881   535.7    4.773      51.502
2015   12       10    14  59    4.3885   535.9    4.772      51.558
2015   12       10    15   6    4.3889   536.1    4.771      51.612
2015   12       10    15  12    4.3892   536.3    4.770      51.664
2015   12       10    15  18    4.3896   536.5    4.769      51.715
2015   12       10    15  25    4.3899   536.7    4.767      51.765
2015   12       10    15  31    4.3902   536.9    4.766      51.813
2015   12       10    15  37    4.3905   537.1    4.764      51.860
2015   12       10    15  44    4.3908   537.3    4.763      51.906
2015   12       10    15  50    4.3910   537.4    4.761      51.951
2015   12       10    15  56    4.3913   537.6    4.760      51.995
2015   12       10    16   3    4.3916   537.8    4.758      52.039
2015   12       10    16   9    4.3919   538.0    4.757      52.082
2015   12       10    16  16    4.3922   538.2    4.755      52.124
2015   12       10    16  22    4.3926   538.4    4.753      52.166
2015   12       10    16  28    4.3929   538.5    4.752      52.208
2015   12       10    16  35    4.3933   538.7    4.750      52.249
2015   12       10    16  41    4.3938   538.9    4.749      52.291
2015   12       10    16  47    4.3943   539.1    4.748      52.333
2015   12       10    16  54    4.3948   539.3    4.747      52.374
2015   12       10    17   0    4.3953   539.5    4.746      52.417
2015   12       10    17   6    4.3958   539.6    4.745      52.461
2015   12       10    17  13    4.3963   539.8    4.744      52.505
2015   12       10    17  19    4.3969   540.0    4.743      52.550
2015   12       10    17  25    4.3974   540.2    4.743      52.596
2015   12       10    17  32    4.3980   540.4    4.742      52.642
2015   12       10    17  38    4.3985   540.6    4.742      52.688
2015   12       10    17  45    4.3990   540.8    4.742      52.735
2015   12       10    17  51    4.3995   541.0    4.741      52.781
2015   12       10    17  57    4.3999   541.2    4.741      52.827
2015   12       10    18   4    4.4003   541.4    4.741      52.873
2015   12       10    18  10    4.4006   541.6    4.740      52.920
2015   12       10    18  16    4.4008   541.8    4.740      52.965
2015   12       10    18  23    4.4009   542.0    4.740      53.010
2015   12       10    18  29    4.4010   542.2    4.739      53.055
2015   12       10    18  35    4.4009   542.5    4.739      53.100
2015   12       10    18  42    4.4008   542.7    4.738      53.145
2015   12       10    18  48    4.4005   542.9    4.737      53.189
2015   12       10    18  54    4.4002   543.1    4.736      53.232
2015   12       10    19   1    4.3998   543.3    4.734      53.275
2015   12       10    19   7    4.3994   543.5    4.733      53.316
2015   12       10    19  14    4.3988   543.7    4.731      53.356
2015   12       10    19  20    4.3981   544.0    4.729      53.395
2015   12       10    19  26    4.3974   544.2    4.727      53.433
2015   12       10    19  33    4.3966   544.4    4.725      53.470
2015   12       10    19  39    4.3958   544.6    4.722      53.506
2015   12       10    19  45    4.3948   544.8    4.720      53.541
2015   12       10    19  52    4.3939   545.0    4.717      53.576
2015   12       10    19  58    4.3928   545.2    4.714      53.610
2015   12       10    20   4    4.3918   545.4    4.711      53.643
2015   12       10    20  11    4.3906   545.7    4.708      53.675
2015   12       10    20  17    4.3894   545.9    4.705      53.707
2015   12       10    20  23    4.3882   546.1    4.701      53.739
2015   12       10    20  30    4.3870   546.3    4.698      53.769
2015   12       10    20  36    4.3857   546.5    4.694      53.799
2015   12       10    20  43    4.3843   546.7    4.691      53.829
2015   12       10    20  49    4.3830   546.9    4.687      53.857
2015   12       10    20  55    4.3815   547.1    4.683      53.885
2015   12       10    21   2    4.3801   547.3    4.679      53.912
2015   12       10    21   8    4.3786   547.5    4.675      53.939
2015   12       10    21  14    4.3770   547.7    4.671      53.965
2015   12       10    21  21    4.3755   547.9    4.667      53.990
2015   12       10    21  27    4.3739   548.1    4.662      54.015
2015   12       10    21  33    4.3723   548.3    4.658      54.039
2015   12       10    21  40    4.3706   548.6    4.654      54.063
2015   12       10    21  46    4.3689   548.8    4.649      54.086
2015   12       10    21  52    4.3673   549.0    4.645      54.108
2015   12       10    21  59    4.3655   549.2    4.640      54.130
2015   12       10    22   5    4.3638   549.4    4.636      54.152
2015   12       10    22  12    4.3620   549.6    4.631      54.173
2015   12       10    22  18    4.3602   549.8    4.626      54.194
2015   12       10    22  24    4.3584   550.0    4.622      54.215
2015   12       10    22  31    4.3566   550.2    4.617      54.235
2015   12       10    22  37    4.3548   550.4    4.613      54.255
2015   12       10    22  43    4.3529   550.6    4.608      54.274
2015   12       10    22  50    4.3510   550.8    4.603      54.294
2015   12       10    22  56    4.3491   551.0    4.599      54.313
2015   12       10    23   2    4.3472   551.2    4.594      54.332
2015   12       10    23   9    4.3452   551.4    4.589      54.351
2015   12       10    23  15    4.3432   551.6    4.585      54.370
2015   12       10    23  21    4.3413   551.7    4.580      54.389
2015   12       10    23  28    4.3392   551.9    4.576      54.408
2015   12       10    23  34    4.3373   552.1    4.572      54.428
2015   12       10    23  41    4.3352   552.3    4.567      54.447
2015   12       10    23  47    4.3332   552.5    4.563      54.468
2015   12       10    23  53    4.3312   552.7    4.559      54.489
2015   12       11     0   0    4.3291   552.9    4.555      54.512
2015   12       11     0   6    4.3270   553.1    4.551      54.537
2015   12       11     0  12    4.3248   553.3    4.547      54.563
2015   12       11     0  19    4.3226   553.5    4.544      54.591
2015   12       11     0  25    4.3203   553.7    4.539      54.619
2015   12       11     0  31    4.3178   553.9    4.535      54.646
2015   12       11     0  38    4.3153   554.1    4.531      54.673
2015   12       11     0  44    4.3127   554.4    4.527      54.698
2015   12       11     0  50    4.3099   554.6    4.522      54.723
2015   12       11     0  57    4.3070   554.8    4.518      54.746
2015   12       11     1   3    4.3041   555.0    4.513      54.767
2015   12       11     1   9    4.3010   555.2    4.508      54.788
2015   12       11     1  16    4.2978   555.4    4.503      54.808
2015   12       11     1  22    4.2945   555.6    4.498      54.826
2015   12       11     1  29    4.2912   555.8    4.493      54.844
2015   12       11     1  35    4.2878   556.0    4.488      54.860
2015   12       11     1  41    4.2843   556.2    4.483      54.876
2015   12       11     1  48    4.2807   556.4    4.478      54.891
2015   12       11     1  54    4.2771   556.6    4.473      54.905
2015   12       11     2   0    4.2734   556.8    4.468      54.919
2015   12       11     2   7    4.2697   557.0    4.463      54.932
2015   12       11     2  13    4.2658   557.1    4.457      54.944
2015   12       11     2  19    4.2620   557.3    4.452      54.956
2015   12       11     2  26    4.2580   557.5    4.447      54.967
2015   12       11     2  32    4.2541   557.6    4.442      54.977
2015   12       11     2  38    4.2500   557.8    4.437      54.987
2015   12       11     2  45    4.2460   558.0    4.432      54.996
2015   12       11     2  51    4.2419   558.2    4.427      55.004
2015   12       11     2  58    4.2377   558.3    4.422      55.011
2015   12       11     3   4    4.2335   558.5    4.416      55.016
2015   12       11     3  10    4.2292   558.6    4.411      55.021
2015   12       11     3  17    4.2249   558.8    4.406      55.024
2015   12       11     3  23    4.2206   559.0    4.400      55.026
2015   12       11     3  29    4.2162   559.1    4.395      55.026
2015   12       11     3  36    4.2118   559.3    4.389      55.025
2015   12       11     3  42    4.2073   559.4    4.384      55.023
2015   12       11     3  48    4.2028   559.6    4.378      55.020
2015   12       11     3  55    4.1983   559.7    4.372      55.016
2015   12       11     4   1    4.1937   559.9    4.366      55.011
2015   12       11     4   7    4.1891   560.0    4.360      55.004
2015   12       11     4  14    4.1846   560.1    4.354      54.997
2015   12       11     4  20    4.1800   560.3    4.348      54.988
2015   12       11     4  27    4.1753   560.4    4.341      54.979
2015   12       11     4  33    4.1707   560.5    4.335      54.968
2015   12       11     4  39    4.1661   560.7    4.329      54.957
2015   12       11     4  46    4.1614   560.8    4.322      54.945
2015   12       11     4  52    4.1567   560.9    4.316      54.932
2015   12       11     4  58    4.1520   561.1    4.309      54.918
2015   12       11     5   5    4.1474   561.2    4.303      54.904
2015   12       11     5  11    4.1426   561.3    4.296      54.888
2015   12       11     5  17    4.1379   561.4    4.289      54.872
2015   12       11     5  24    4.1332   561.6    4.283      54.856
2015   12       11     5  30    4.1284   561.7    4.276      54.838
2015   12       11     5  36    4.1237   561.8    4.269      54.820
2015   12       11     5  43    4.1189   561.9    4.263      54.802
2015   12       11     5  49    4.1141   562.0    4.256      54.783
2015   12       11     5  56    4.1093   562.1    4.249      54.763
2015   12       11     6   2    4.1045   562.3    4.242      54.743
2015   12       11     6   8    4.0997   562.4    4.235      54.722
2015   12       11     6  15    4.0948   562.5    4.229      54.701
2015   12       11     6  21    4.0900   562.6    4.222      54.679
2015   12       11     6  27    4.0851   562.7    4.215      54.656
2015   12       11     6  34    4.0803   562.8    4.208      54.634
2015   12       11     6  40    4.0753   562.9    4.201      54.611
2015   12       11     6  46    4.0704   563.0    4.194      54.587
2015   12       11     6  53    4.0655   563.1    4.187      54.563
2015   12       11     6  59    4.0605   563.2    4.181      54.539
2015   12       11     7   5    4.0555   563.3    4.174      54.514
2015   12       11     7  12    4.0505   563.4    4.167      54.490
2015   12       11     7  18    4.0455   563.5    4.160      54.465
2015   12       11     7  25    4.0404   563.6    4.153      54.440
2015   12       11     7  31    4.0353   563.7    4.147      54.414
2015   12       11     7  37    4.0302   563.8    4.140      54.389
2015   12       11     7  44    4.0250   563.9    4.133      54.364
2015   12       11     7  50    4.0198   564.0    4.127      54.340
2015   12       11     7  56    4.0146   564.0    4.120      54.315
2015   12       11     8   3    4.0095   564.1    4.114      54.291
2015   12       11     8   9    4.0042   564.2    4.108      54.267
2015   12       11     8  15    3.9990   564.3    4.102      54.244
2015   12       11     8  22    3.9938   564.3    4.096      54.222
2015   12       11     8  28    3.9886   564.4    4.090      54.200
2015   12       11     8  34    3.9834   564.5    4.084      54.179
2015   12       11     8  41    3.9782   564.5    4.079      54.159
2015   12       11     8  47    3.9730   564.6    4.073      54.140
2015   12       11     8  54    3.9678   564.6    4.068      54.122
2015   12       11     9   0    3.9627   564.7    4.063      54.105
2015   12       11     9   6    3.9575   564.7    4.058      54.089
2015   12       11     9  13    3.9524   564.8    4.054      54.074
2015   12       11     9  19    3.9474   564.8    4.049      54.061
2015   12       11     9  25    3.9423   564.9    4.045      54.048
2015   12       11     9  32    3.9373   564.9    4.041      54.035
2015   12       11     9  38    3.9322   565.0    4.036      54.023
2015   12       11     9  44    3.9272   565.0    4.032      54.010
2015   12       11     9  51    3.9221   565.0    4.028      53.996
2015   12       11     9  57    3.9170   565.1    4.024      53.981
2015   12       11    10   3    3.9120   565.1    4.019      53.966
2015   12       11    10  10    3.9069   565.1    4.015      53.949
2015   12       11    10  16    3.9018   565.1    4.011      53.932
2015   12       11    10  23    3.8967   565.2    4.007      53.914
2015   12       11    10  29    3.8917   565.2    4.002      53.895
2015   12       11    10  35    3.8866   565.2    3.998      53.875
2015   12       11    10  42    3.8816   565.2    3.994      53.854
2015   12       11    10  48    3.8765   565.2    3.989      53.832
2015   12       11    10  54    3.8715   565.2    3.985      53.809
2015   12       11    11   1    3.8665   565.2    3.980      53.785
2015   12       11    11   7    3.8615   565.2    3.976      53.761
2015   12       11    11  13    3.8565   565.2    3.972      53.735
2015   12       11    11  20    3.8516   565.2    3.967      53.709
2015   12       11    11  26    3.8467   565.1    3.963      53.682
2015   12       11    11  32    3.8418   565.1    3.959      53.654
2015   12       11    11  39    3.8369   565.1    3.954      53.625
2015   12       11    11  45    3.8321   565.1    3.950      53.595
2015   12       11    11  51    3.8272   565.0    3.945      53.565
2015   12       11    11  58    3.8224   565.0    3.941      53.534
2015   12       11    12   4    3.8176   565.0    3.937      53.502
2015   12       11    12  11    3.8129   564.9    3.932      53.470
2015   12       11    12  17    3.8082   564.9    3.928      53.437
2015   12       11    12  23    3.8035   564.9    3.923      53.404
2015   12       11    12  30    3.7989   564.8    3.919      53.369
2015   12       11    12  36    3.7942   564.8    3.914      53.333
2015   12       11    12  42    3.7896   564.7    3.910      53.296
2015   12       11    12  49    3.7850   564.7    3.905      53.259
2015   12       11    12  55    3.7804   564.6    3.901      53.220
2015   12       11    13   1    3.7759   564.6    3.896      53.181
2015   12       11    13   8    3.7713   564.5    3.892      53.141
2015   12       11    13  14    3.7667   564.5    3.887      53.100
2015   12       11    13  20    3.7621   564.4    3.882      53.058
2015   12       11    13  27    3.7576   564.4    3.878      53.016
2015   12       11    13  33    3.7530   564.3    3.873      52.972
2015   12       11    13  40    3.7485   564.3    3.868      52.928
2015   12       11    13  46    3.7439   564.2    3.863      52.884
2015   12       11    13  52    3.7394   564.2    3.858      52.839
2015   12       11    13  59    3.7348   564.1    3.853      52.793
2015   12       11    14   5    3.7303   564.0    3.849      52.746
2015   12       11    14  11    3.7258   564.0    3.844      52.699
2015   12       11    14  18    3.7213   563.9    3.839      52.652
2015   12       11    14  24    3.7168   563.8    3.834      52.603
2015   12       11    14  30    3.7123   563.8    3.829      52.555
2015   12       11    14  37    3.7079   563.7    3.825      52.506
2015   12       11    14  43    3.7035   563.6    3.820      52.457
2015   12       11    14  49    3.6990   563.5    3.815      52.408
2015   12       11    14  56    3.6946   563.5    3.811      52.359
2015   12       11    15   2    3.6902   563.4    3.806      52.311
2015   12       11    15   9    3.6859   563.3    3.802      52.262
2015   12       11    15  15    3.6816   563.2    3.797      52.214
2015   12       11    15  21    3.6773   563.1    3.793      52.167
2015   12       11    15  28    3.6730   563.0    3.789      52.120
2015   12       11    15  34    3.6688   562.9    3.785      52.075
2015   12       11    15  40    3.6646   562.8    3.782      52.030
2015   12       11    15  47    3.6605   562.7    3.778      51.986
2015   12       11    15  53    3.6564   562.6    3.775      51.944
2015   12       11    15  59    3.6523   562.5    3.772      51.903
2015   12       11    16   6    3.6483   562.4    3.769      51.863
2015   12       11    16  12    3.6443   562.3    3.766      51.825
2015   12       11    16  18    3.6404   562.2    3.764      51.789
2015   12       11    16  25    3.6366   562.1    3.761      51.754
2015   12       11    16  31    3.6328   562.0    3.759      51.721
2015   12       11    16  38    3.6290   561.9    3.757      51.689
2015   12       11    16  44    3.6252   561.8    3.755      51.659
2015   12       11    16  50    3.6215   561.7    3.754      51.630
2015   12       11    16  57    3.6178   561.5    3.752      51.601
2015   12       11    17   3    3.6141   561.4    3.750      51.571
2015   12       11    17   9    3.6104   561.3    3.748      51.541
2015   12       11    17  16    3.6067   561.2    3.747      51.510
2015   12       11    17  22    3.6030   561.1    3.745      51.479
2015   12       11    17  28    3.5993   561.0    3.743      51.447
2015   12       11    17  35    3.5956   560.9    3.741      51.414
2015   12       11    17  41    3.5919   560.8    3.740      51.381
2015   12       11    17  47    3.5882   560.7    3.738      51.348
2015   12       11    17  54    3.5844   560.5    3.736      51.314
2015   12       11    18   0    3.5807   560.4    3.734      51.279
2015   12       11    18   7    3.5770   560.3    3.732      51.245
2015   12       11    18  13    3.5733   560.2    3.730      51.210
2015   12       11    18  19    3.5696   560.1    3.729      51.175
2015   12       11    18  26    3.5659   559.9    3.727      51.139
2015   12       11    18  32    3.5623   559.8    3.725      51.103
2015   12       11    18  38    3.5586   559.7    3.723      51.067
2015   12       11    18  45    3.5549   559.6    3.721      51.030
2015   12       11    18  51    3.5513   559.4    3.720      50.994
2015   12       11    18  57    3.5476   559.3    3.718      50.956
2015   12       11    19   4    3.5440   559.2    3.716      50.919
2015   12       11    19  10    3.5404   559.0    3.714      50.881
2015   12       11    19  16    3.5368   558.9    3.713      50.842
2015   12       11    19  23    3.5332   558.7    3.711      50.803
2015   12       11    19  29    3.5297   558.6    3.709      50.763
2015   12       11    19  36    3.5261   558.5    3.707      50.723
2015   12       11    19  42    3.5226   558.3    3.706      50.681
2015   12       11    19  48    3.5191   558.2    3.704      50.638
2015   12       11    19  55    3.5156   558.0    3.702      50.594
2015   12       11    20   1    3.5121   557.9    3.700      50.550
2015   12       11    20   7    3.5086   557.7    3.698      50.505
2015   12       11    20  14    3.5051   557.6    3.696      50.459
2015   12       11    20  20    3.5015   557.5    3.695      50.412
2015   12       11    20  26    3.4981   557.3    3.693      50.364
2015   12       11    20  33    3.4946   557.2    3.691      50.316
2015   12       11    20  39    3.4911   557.0    3.689      50.267
2015   12       11    20  45    3.4876   556.8    3.687      50.217
2015   12       11    20  52    3.4842   556.7    3.684      50.167
2015   12       11    20  58    3.4807   556.5    3.682      50.116
2015   12       11    21   4    3.4773   556.4    3.680      50.064
2015   12       11    21  11    3.4738   556.2    3.678      50.012
2015   12       11    21  17    3.4704   556.1    3.676      49.960
2015   12       11    21  24    3.4670   555.9    3.674      49.907
2015   12       11    21  30    3.4636   555.7    3.672      49.853
2015   12       11    21  36    3.4602   555.6    3.669      49.799
2015   12       11    21  43    3.4569   555.4    3.667      49.745
2015   12       11    21  49    3.4535   555.2    3.665      49.690
2015   12       11    21  55    3.4502   555.1    3.663      49.636
2015   12       11    22   2    3.4469   554.9    3.661      49.581
2015   12       11    22   8    3.4436   554.7    3.659      49.526
2015   12       11    22  14    3.4403   554.5    3.657      49.470
2015   12       11    22  21    3.4371   554.4    3.655      49.415
2015   12       11    22  27    3.4339   554.2    3.653      49.360
2015   12       11    22  33    3.4306   554.0    3.651      49.305
2015   12       11    22  40    3.4274   553.8    3.649      49.250
2015   12       11    22  46    3.4243   553.6    3.647      49.195
2015   12       11    22  53    3.4211   553.5    3.645      49.140
2015   12       11    22  59    3.4180   553.3    3.644      49.085
2015   12       11    23   5    3.4149   553.1    3.642      49.031
2015   12       11    23  12    3.4118   552.9    3.640      48.976
2015   12       11    23  18    3.4087   552.7    3.639      48.922
2015   12       11    23  24    3.4056   552.6    3.637      48.868
2015   12       11    23  31    3.4026   552.4    3.636      48.815
2015   12       11    23  37    3.3995   552.2    3.634      48.761
2015   12       11    23  43    3.3965   552.0    3.633      48.708
2015   12       11    23  50    3.3935   551.8    3.631      48.654
2015   12       11    23  56    3.3905   551.6    3.630      48.601
2015   12       12     0   2    3.3875   551.5    3.628      48.548
2015   12       12     0   9    3.3845   551.3    3.627      48.494
2015   12       12     0  15    3.3815   551.1    3.626      48.441
2015   12       12     0  22    3.3784   550.9    3.625      48.387
2015   12       12     0  28    3.3754   550.7    3.623      48.333
2015   12       12     0  34    3.3724   550.5    3.622      48.279
2015   12       12     0  41    3.3694   550.3    3.621      48.225
2015   12       12     0  47    3.3664   550.1    3.620      48.172
2015   12       12     0  53    3.3634   549.9    3.618      48.118
2015   12       12     1   0    3.3604   549.8    3.617      48.064
2015   12       12     1   6    3.3574   549.6    3.616      48.010
2015   12       12     1  12    3.3544   549.4    3.615      47.956
2015   12       12     1  19    3.3514   549.2    3.614      47.902
2015   12       12     1  25    3.3484   549.0    3.613      47.849
2015   12       12     1  31    3.3454   548.8    3.613      47.795
2015   12       12     1  38    3.3425   548.6    3.612      47.742
2015   12       12     1  44    3.3395   548.4    3.611      47.689
2015   12       12     1  51    3.3366   548.2    3.610      47.636
2015   12       12     1  57    3.3337   548.0    3.610      47.583
2015   12       12     2   3    3.3307   547.8    3.609      47.531
2015   12       12     2  10    3.3278   547.6    3.609      47.478
2015   12       12     2  16    3.3249   547.4    3.608      47.425
2015   12       12     2  22    3.3221   547.2    3.608      47.373
2015   12       12     2  29    3.3192   547.0    3.608      47.320
2015   12       12     2  35    3.3164   546.8    3.608      47.268
2015   12       12     2  41    3.3136   546.6    3.608      47.215
2015   12       12     2  48    3.3108   546.4    3.607      47.163
2015   12       12     2  54    3.3080   546.2    3.607      47.110
2015   12       12     3   0    3.3052   546.0    3.607      47.058
2015   12       12     3   7    3.3025   545.8    3.607      47.005
2015   12       12     3  13    3.2997   545.6    3.607      46.952
2015   12       12     3  20    3.2970   545.4    3.607      46.900
2015   12       12     3  26    3.2943   545.2    3.608      46.846
2015   12       12     3  32    3.2916   545.0    3.608      46.793
2015   12       12     3  39    3.2889   544.8    3.608      46.740
2015   12       12     3  45    3.2863   544.6    3.608      46.686
2015   12       12     3  51    3.2836   544.4    3.608      46.632
2015   12       12     3  58    3.2809   544.2    3.608      46.578
2015   12       12     4   4    3.2783   544.0    3.608      46.524
2015   12       12     4  10    3.2756   543.7    3.608      46.469
2015   12       12     4  17    3.2729   543.5    3.608      46.414
2015   12       12     4  23    3.2703   543.3    3.608      46.358
2015   12       12     4  29    3.2677   543.1    3.608      46.303
2015   12       12     4  36    3.2651   542.9    3.608      46.247
2015   12       12     4  42    3.2624   542.7    3.608      46.191
2015   12       12     4  49    3.2598   542.4    3.607      46.134
2015   12       12     4  55    3.2572   542.2    3.607      46.078
2015   12       12     5   1    3.2547   542.0    3.607      46.021
2015   12       12     5   8    3.2521   541.8    3.607      45.963
2015   12       12     5  14    3.2495   541.6    3.606      45.906
2015   12       12     5  20    3.2470   541.4    3.606      45.847
2015   12       12     5  27    3.2444   541.1    3.606      45.789
2015   12       12     5  33    3.2418   540.9    3.605      45.730
2015   12       12     5  39    3.2393   540.7    3.605      45.671
2015   12       12     5  46    3.2367   540.5    3.604      45.611
2015   12       12     5  52    3.2342   540.2    3.604      45.551
2015   12       12     5  58    3.2316   540.0    3.603      45.491
2015   12       12     6   5    3.2290   539.8    3.603      45.430
2015   12       12     6  11    3.2265   539.6    3.602      45.368
2015   12       12     6  18    3.2239   539.3    3.602      45.307
2015   12       12     6  24    3.2214   539.1    3.601      45.245
2015   12       12     6  30    3.2188   538.9    3.600      45.182
2015   12       12     6  37    3.2163   538.7    3.600      45.120
2015   12       12     6  43    3.2137   538.4    3.599      45.056
2015   12       12     6  49    3.2112   538.2    3.598      44.993
2015   12       12     6  56    3.2086   538.0    3.598      44.929
2015   12       12     7   2    3.2061   537.8    3.597      44.865
2015   12       12     7   8    3.2035   537.5    3.596      44.801
2015   12       12     7  15    3.2010   537.3    3.596      44.736
2015   12       12     7  21    3.1985   537.1    3.595      44.672
2015   12       12     7  27    3.1959   536.8    3.594      44.606
2015   12       12     7  34    3.1934   536.6    3.593      44.541
2015   12       12     7  40    3.1909   536.4    3.593      44.476
2015   12       12     7  47    3.1884   536.1    3.592      44.410
2015   12       12     7  53    3.1859   535.9    3.591      44.344
2015   12       12     7  59    3.1834   535.7    3.590      44.278
2015   12       12     8   6    3.1809   535.4    3.590      44.212
2015   12       12     8  12    3.1784   535.2    3.589      44.145
2015   12       12     8  18    3.1759   535.0    3.588      44.079
2015   12       12     8  25    3.1734   534.7    3.587      44.012
2015   12       12     8  31    3.1710   534.5    3.587      43.946
2015   12       12     8  37    3.1686   534.2    3.586      43.879
2015   12       12     8  44    3.1661   534.0    3.585      43.813
2015   12       12     8  50    3.1637   533.7    3.585      43.746
2015   12       12     8  56    3.1613   533.5    3.584      43.680
2015   12       12     9   3    3.1589   533.2    3.584      43.614
2015   12       12     9   9    3.1566   533.0    3.583      43.548
2015   12       12     9  15    3.1542   532.7    3.583      43.482
2015   12       12     9  22    3.1519   532.5    3.583      43.416
2015   12       12     9  28    3.1496   532.2    3.582      43.351
2015   12       12     9  35    3.1473   532.0    3.582      43.286
2015   12       12     9  41    3.1450   531.7    3.582      43.221
2015   12       12     9  47    3.1428   531.5    3.582      43.157
2015   12       12     9  54    3.1406   531.2    3.582      43.094
2015   12       12    10   0    3.1384   531.0    3.582      43.031
2015   12       12    10   6    3.1362   530.7    3.583      42.968
2015   12       12    10  13    3.1341   530.4    3.583      42.906
2015   12       12    10  19    3.1320   530.2    3.584      42.845
2015   12       12    10  25    3.1299   529.9    3.584      42.784
2015   12       12    10  32    3.1279   529.7    3.585      42.724
2015   12       12    10  38    3.1259   529.4    3.586      42.664
2015   12       12    10  44    3.1239   529.1    3.586      42.605
2015   12       12    10  51    3.1219   528.9    3.587      42.547
2015   12       12    10  57    3.1199   528.6    3.588      42.490
2015   12       12    11   4    3.1180   528.4    3.589      42.433
2015   12       12    11  10    3.1161   528.1    3.591      42.376
2015   12       12    11  16    3.1142   527.8    3.592      42.320
2015   12       12    11  23    3.1123   527.6    3.593      42.264
2015   12       12    11  29    3.1104   527.3    3.594      42.209
2015   12       12    11  35    3.1086   527.0    3.596      42.154
2015   12       12    11  42    3.1067   526.7    3.597      42.100
2015   12       12    11  48    3.1049   526.5    3.599      42.046
2015   12       12    11  54    3.1031   526.2    3.600      41.992
2015   12       12    12   1    3.1012   525.9    3.601      41.938
2015   12       12    12   7    3.0994   525.7    3.603      41.884
2015   12       12    12  13    3.0976   525.4    3.604      41.830
2015   12       12    12  20    3.0958   525.1    3.606      41.776
2015   12       12    12  26    3.0940   524.9    3.607      41.722
2015   12       12    12  33    3.0922   524.6    3.608      41.668
2015   12       12    12  39    3.0903   524.3    3.610      41.614
2015   12       12    12  45    3.0885   524.1    3.611      41.559
2015   12       12    12  52    3.0866   523.8    3.612      41.504
2015   12       12    12  58    3.0848   523.5    3.614      41.448
2015   12       12    13   4    3.0829   523.2    3.615      41.392
2015   12       12    13  11    3.0811   523.0    3.616      41.335
2015   12       12    13  17    3.0792   522.7    3.617      41.278
2015   12       12    13  23    3.0773   522.4    3.618      41.220
2015   12       12    13  30    3.0755   522.1    3.620      41.162
2015   12       12    13  36    3.0736   521.9    3.621      41.104
2015   12       12    13  42    3.0718   521.6    3.622      41.045
2015   12       12    13  49    3.0699   521.3    3.623      40.986
2015   12       12    13  55    3.0681   521.0    3.624      40.927
2015   12       12    14   2    3.0662   520.7    3.625      40.867
2015   12       12    14   8    3.0644   520.5    3.626      40.808
2015   12       12    14  14    3.0626   520.2    3.627      40.748
2015   12       12    14  21    3.0608   519.9    3.627      40.688
2015   12       12    14  27    3.0589   519.6    3.628      40.627
2015   12       12    14  33    3.0572   519.3    3.629      40.567
2015   12       12    14  40    3.0554   519.0    3.630      40.506
2015   12       12    14  46    3.0536   518.8    3.631      40.445
2015   12       12    14  52    3.0519   518.5    3.632      40.384
2015   12       12    14  59    3.0501   518.2    3.633      40.323
2015   12       12    15   5    3.0484   517.9    3.634      40.262
2015   12       12    15  11    3.0467   517.6    3.635      40.201
2015   12       12    15  18    3.0450   517.3    3.636      40.139
2015   12       12    15  24    3.0433   517.0    3.637      40.078
2015   12       12    15  31    3.0416   516.7    3.638      40.017
2015   12       12    15  37    3.0399   516.4    3.639      39.955
2015   12       12    15  43    3.0383   516.2    3.640      39.893
2015   12       12    15  50    3.0366   515.9    3.641      39.832
2015   12       12    15  56    3.0350   515.6    3.642      39.770
2015   12       12    16   2    3.0334   515.3    3.643      39.709
2015   12       12    16   9    3.0318   515.0    3.644      39.648
2015   12       12    16  15    3.0302   514.7    3.645      39.586
2015   12       12    16  21    3.0286   514.4    3.646      39.525
2015   12       12    16  28    3.0271   514.1    3.647      39.464
2015   12       12    16  34    3.0255   513.8    3.649      39.402
2015   12       12    16  40    3.0240   513.5    3.650      39.341
2015   12       12    16  47    3.0225   513.2    3.651      39.280
2015   12       12    16  53    3.0210   512.9    3.652      39.219
2015   12       12    17   0    3.0195   512.6    3.653      39.159
2015   12       12    17   6    3.0181   512.3    3.655      39.099
2015   12       12    17  12    3.0166   512.0    3.656      39.039
2015   12       12    17  19    3.0152   511.6    3.658      38.979
2015   12       12    17  25    3.0138   511.3    3.659      38.920
2015   12       12    17  31    3.0124   511.0    3.661      38.861
2015   12       12    17  38    3.0111   510.7    3.662      38.803
2015   12       12    17  44    3.0097   510.4    3.664      38.745
2015   12       12    17  50    3.0084   510.1    3.666      38.688
2015   12       12    17  57    3.0072   509.7    3.667      38.631
2015   12       12    18   3    3.0059   509.4    3.669      38.575
2015   12       12    18   9    3.0047   509.1    3.671      38.520
2015   12       12    18  16    3.0035   508.8    3.673      38.466
2015   12       12    18  22    3.0024   508.5    3.676      38.412
2015   12       12    18  28    3.0012   508.1    3.678      38.359
2015   12       12    18  35    3.0002   507.8    3.681      38.307
2015   12       12    18  41    2.9991   507.5    3.683      38.256
2015   12       12    18  48    2.9980   507.2    3.686      38.205
2015   12       12    18  54    2.9970   506.8    3.688      38.155
2015   12       12    19   0    2.9960   506.5    3.691      38.105
2015   12       12    19   7    2.9951   506.2    3.694      38.056
2015   12       12    19  13    2.9942   505.9    3.697      38.008
2015   12       12    19  19    2.9933   505.5    3.701      37.960
2015   12       12    19  26    2.9924   505.2    3.704      37.913
2015   12       12    19  32    2.9915   504.9    3.707      37.866
2015   12       12    19  38    2.9906   504.6    3.711      37.819
2015   12       12    19  45    2.9898   504.2    3.714      37.773
2015   12       12    19  51    2.9889   503.9    3.718      37.727
2015   12       12    19  57    2.9881   503.6    3.721      37.680
2015   12       12    20   4    2.9873   503.3    3.725      37.634
2015   12       12    20  10    2.9865   502.9    3.729      37.588
2015   12       12    20  17    2.9857   502.6    3.732      37.542
2015   12       12    20  23    2.9850   502.3    3.736      37.496
2015   12       12    20  29    2.9842   501.9    3.740      37.449
2015   12       12    20  36    2.9835   501.6    3.744      37.402
2015   12       12    20  42    2.9828   501.3    3.748      37.356
2015   12       12    20  48    2.9821   500.9    3.752      37.309
2015   12       12    20  55    2.9814   500.6    3.756      37.263
2015   12       12    21   1    2.9808   500.3    3.760      37.216
2015   12       12    21   7    2.9801   500.0    3.764      37.169
2015   12       12    21  14    2.9795   499.6    3.768      37.122
2015   12       12    21  20    2.9789   499.3    3.772      37.075
2015   12       12    21  26    2.9783   499.0    3.776      37.029
2015   12       12    21  33    2.9777   498.6    3.780      36.981
2015   12       12    21  39    2.9772   498.3    3.784      36.934
2015   12       12    21  46    2.9766   498.0    3.788      36.887
2015   12       12    21  52    2.9761   497.7    3.792      36.840
2015   12       12    21  58    2.9756   497.3    3.796      36.792
2015   12       12    22   5    2.9752   497.0    3.800      36.745
2015   12       12    22  11    2.9747   496.7    3.804      36.697
2015   12       12    22  17    2.9743   496.3    3.808      36.649
2015   12       12    22  24    2.9738   496.0    3.812      36.602
2015   12       12    22  30    2.9735   495.7    3.816      36.554
2015   12       12    22  36    2.9731   495.4    3.820      36.507
2015   12       12    22  43    2.9727   495.0    3.824      36.459
2015   12       12    22  49    2.9724   494.7    3.829      36.412
2015   12       12    22  55    2.9721   494.4    3.833      36.364
2015   12       12    23   2    2.9718   494.1    3.837      36.317
2015   12       12    23   8    2.9716   493.7    3.841      36.271
2015   12       12    23  15    2.9713   493.4    3.845      36.224
2015   12       12    23  21    2.9712   493.1    3.850      36.178
2015   12       12    23  27    2.9710   492.8    3.854      36.132
2015   12       12    23  34    2.9708   492.4    3.858      36.086
2015   12       12    23  40    2.9707   492.1    3.863      36.041
2015   12       12    23  46    2.9707   491.8    3.867      35.996
2015   12       12    23  53    2.9706   491.5    3.872      35.952
2015   12       12    23  59    2.9706   491.2    3.876      35.907
2015   12       13     0   5    2.9706   490.8    3.881      35.864
2015   12       13     0  12    2.9707   490.5    3.886      35.821
2015   12       13     0  18    2.9707   490.2    3.891      35.778
2015   12       13     0  24    2.9708   489.9    3.896      35.736
2015   12       13     0  31    2.9709   489.6    3.901      35.694
2015   12       13     0  37    2.9711   489.2    3.906      35.653
2015   12       13     0  44    2.9713   488.9    3.911      35.612
2015   12       13     0  50    2.9715   488.6    3.916      35.572
2015   12       13     0  56    2.9717   488.3    3.921      35.532
2015   12       13     1   3    2.9720   488.0    3.926      35.493
2015   12       13     1   9    2.9723   487.7    3.932      35.453
2015   12       13     1  15    2.9726   487.3    3.937      35.415
2015   12       13     1  22    2.9729   487.0    3.943      35.376
2015   12       13     1  28    2.9732   486.7    3.948      35.338
2015   12       13     1  34    2.9735   486.4    3.954      35.300
2015   12       13     1  41    2.9739   486.1    3.960      35.262
2015   12       13     1  47    2.9742   485.8    3.966      35.225
2015   12       13     1  53    2.9746   485.4    3.971      35.188
2015   12       13     2   0    2.9750   485.1    3.977      35.151
2015   12       13     2   6    2.9754   484.8    3.983      35.114
2015   12       13     2  12    2.9758   484.5    3.989      35.077
2015   12       13     2  19    2.9762   484.2    3.995      35.041
2015   12       13     2  25    2.9767   483.9    4.001      35.004
2015   12       13     2  32    2.9772   483.6    4.007      34.968
2015   12       13     2  38    2.9777   483.3    4.014      34.932
2015   12       13     2  44    2.9782   482.9    4.020      34.896
2015   12       13     2  51    2.9787   482.6    4.026      34.860
2015   12       13     2  57    2.9793   482.3    4.032      34.824
2015   12       13     3   3    2.9798   482.0    4.039      34.789
2015   12       13     3  10    2.9804   481.7    4.045      34.753
2015   12       13     3  16    2.9811   481.4    4.052      34.718
2015   12       13     3  22    2.9817   481.1    4.058      34.683
2015   12       13     3  29    2.9823   480.8    4.065      34.649
2015   12       13     3  35    2.9830   480.4    4.071      34.614
2015   12       13     3  41    2.9837   480.1    4.078      34.580
2015   12       13     3  48    2.9845   479.8    4.084      34.546
2015   12       13     3  54    2.9852   479.5    4.091      34.513
2015   12       13     4   1    2.9860   479.2    4.097      34.480
2015   12       13     4   7    2.9868   478.9    4.104      34.447
2015   12       13     4  13    2.9876   478.6    4.111      34.415
2015   12       13     4  20    2.9884   478.3    4.117      34.383
2015   12       13     4  26    2.9893   478.0    4.124      34.351
2015   12       13     4  32    2.9901   477.7    4.130      34.319
2015   12       13     4  39    2.9910   477.4    4.137      34.288
2015   12       13     4  45    2.9919   477.1    4.143      34.257
2015   12       13     4  51    2.9928   476.8    4.150      34.226
2015   12       13     4  58    2.9937   476.5    4.156      34.196
2015   12       13     5   4    2.9947   476.3    4.162      34.165
2015   12       13     5  10    2.9957   476.0    4.169      34.134
2015   12       13     5  17    2.9967   475.7    4.175      34.104
2015   12       13     5  23    2.9977   475.4    4.181      34.073
2015   12       13     5  30    2.9987   475.1    4.187      34.043
2015   12       13     5  36    2.9997   474.8    4.194      34.012
2015   12       13     5  42    3.0008   474.5    4.200      33.982
2015   12       13     5  49    3.0019   474.2    4.206      33.952
2015   12       13     5  55    3.0030   473.9    4.212      33.922
2015   12       13     6   1    3.0041   473.7    4.218      33.891
2015   12       13     6   8    3.0053   473.4    4.224      33.861
2015   12       13     6  14    3.0065   473.1    4.230      33.831
2015   12       13     6  20    3.0077   472.8    4.236      33.801
2015   12       13     6  27    3.0089   472.5    4.242      33.771
2015   12       13     6  33    3.0102   472.3    4.248      33.741
2015   12       13     6  39    3.0115   472.0    4.254      33.712
2015   12       13     6  46    3.0128   471.7    4.260      33.683
2015   12       13     6  52    3.0142   471.4    4.266      33.654
2015   12       13     6  59    3.0156   471.2    4.272      33.625
2015   12       13     7   5    3.0170   470.9    4.279      33.596
2015   12       13     7  11    3.0185   470.6    4.285      33.568
2015   12       13     7  18    3.0200   470.3    4.291      33.540
2015   12       13     7  24    3.0215   470.1    4.297      33.513
2015   12       13     7  30    3.0230   469.8    4.304      33.486
2015   12       13     7  37    3.0246   469.5    4.310      33.459
2015   12       13     7  43    3.0262   469.3    4.317      33.433
2015   12       13     7  49    3.0278   469.0    4.323      33.407
2015   12       13     7  56    3.0295   468.8    4.330      33.382
2015   12       13     8   2    3.0312   468.5    4.337      33.357
2015   12       13     8   8    3.0329   468.2    4.344      33.332
2015   12       13     8  15    3.0346   468.0    4.350      33.308
2015   12       13     8  21    3.0363   467.7    4.357      33.284
2015   12       13     8  28    3.0381   467.5    4.365      33.261
2015   12       13     8  34    3.0398   467.2    4.372      33.238
2015   12       13     8  40    3.0415   467.0    4.379      33.215
2015   12       13     8  47    3.0432   466.7    4.386      33.193
2015   12       13     8  53    3.0450   466.5    4.394      33.171
2015   12       13     8  59    3.0467   466.2    4.401      33.149
2015   12       13     9   6    3.0484   466.0    4.409      33.127
2015   12       13     9  12    3.0500   465.8    4.416      33.106
2015   12       13     9  18    3.0517   465.5    4.424      33.085
2015   12       13     9  25    3.0534   465.3    4.432      33.064
2015   12       13     9  31    3.0550   465.0    4.439      33.044
2015   12       13     9  37    3.0566   464.8    4.447      33.023
2015   12       13     9  44    3.0583   464.5    4.455      33.003
2015   12       13     9  50    3.0599   464.3    4.463      32.982
2015   12       13     9  56    3.0615   464.1    4.470      32.962
2015   12       13    10   3    3.0631   463.8    4.478      32.942
2015   12       13    10   9    3.0646   463.6    4.486      32.921
2015   12       13    10  16    3.0662   463.4    4.494      32.901
2015   12       13    10  22    3.0678   463.1    4.502      32.881
2015   12       13    10  28    3.0693   462.9    4.509      32.861
2015   12       13    10  35    3.0709   462.6    4.517      32.841
2015   12       13    10  41    3.0724   462.4    4.525      32.821
2015   12       13    10  47    3.0739   462.2    4.532      32.801
2015   12       13    10  54    3.0755   461.9    4.540      32.782
2015   12       13    11   0    3.0770   461.7    4.548      32.762
2015   12       13    11   6    3.0785   461.5    4.555      32.743
2015   12       13    11  13    3.0800   461.2    4.563      32.724
2015   12       13    11  19    3.0815   461.0    4.570      32.705
2015   12       13    11  25    3.0830   460.8    4.577      32.687
2015   12       13    11  32    3.0845   460.5    4.585      32.669
2015   12       13    11  38    3.0860   460.3    4.592      32.651
2015   12       13    11  45    3.0875   460.1    4.599      32.634
2015   12       13    11  51    3.0890   459.8    4.606      32.617
2015   12       13    11  57    3.0906   459.6    4.613      32.600
2015   12       13    12   4    3.0921   459.4    4.620      32.584
2015   12       13    12  10    3.0936   459.1    4.627      32.568
2015   12       13    12  16    3.0951   458.9    4.634      32.553
2015   12       13    12  23    3.0966   458.7    4.641      32.538
2015   12       13    12  29    3.0982   458.5    4.647      32.523
2015   12       13    12  35    3.0997   458.2    4.654      32.509
2015   12       13    12  42    3.1013   458.0    4.661      32.495
2015   12       13    12  48    3.1029   457.8    4.667      32.481
2015   12       13    12  54    3.1044   457.6    4.674      32.468
2015   12       13    13   1    3.1060   457.3    4.680      32.455
2015   12       13    13   7    3.1076   457.1    4.687      32.442
2015   12       13    13  14    3.1092   456.9    4.693      32.430
2015   12       13    13  20    3.1109   456.7    4.699      32.418
2015   12       13    13  26    3.1125   456.5    4.706      32.406
2015   12       13    13  33    3.1142   456.2    4.712      32.394
2015   12       13    13  39    3.1158   456.0    4.718      32.382
2015   12       13    13  45    3.1175   455.8    4.724      32.371
2015   12       13    13  52    3.1192   455.6    4.730      32.359
2015   12       13    13  58    3.1209   455.4    4.736      32.347
2015   12       13    14   4    3.1226   455.2    4.742      32.335
2015   12       13    14  11    3.1243   455.0    4.748      32.323
2015   12       13    14  17    3.1261   454.8    4.754      32.311
2015   12       13    14  23    3.1278   454.6    4.760      32.299
2015   12       13    14  30    3.1296   454.4    4.766      32.287
2015   12       13    14  36    3.1314   454.1    4.772      32.275
2015   12       13    14  43    3.1332   453.9    4.778      32.263
2015   12       13    14  49    3.1349   453.7    4.783      32.251
2015   12       13    14  55    3.1368   453.5    4.789      32.239
2015   12       13    15   2    3.1386   453.3    4.795      32.226
2015   12       13    15   8    3.1404   453.1    4.801      32.214
2015   12       13    15  14    3.1422   452.9    4.806      32.202
2015   12       13    15  21    3.1440   452.7    4.812      32.190
2015   12       13    15  27    3.1458   452.6    4.818      32.177
2015   12       13    15  33    3.1476   452.4    4.824      32.165
2015   12       13    15  40    3.1494   452.2    4.829      32.153
2015   12       13    15  46    3.1511   452.0    4.835      32.141
2015   12       13    15  52    3.1529   451.8    4.841      32.129
2015   12       13    15  59    3.1547   451.6    4.847      32.117
2015   12       13    16   5    3.1564   451.4    4.852      32.105
2015   12       13    16  12    3.1581   451.2    4.858      32.094
2015   12       13    16  18    3.1598   451.0    4.864      32.082
2015   12       13    16  24    3.1615   450.8    4.870      32.071
2015   12       13    16  31    3.1631   450.6    4.875      32.060
2015   12       13    16  37    3.1648   450.4    4.881      32.049
2015   12       13    16  43    3.1664   450.3    4.887      32.038
2015   12       13    16  50    3.1680   450.1    4.893      32.027
2015   12       13    16  56    3.1695   449.9    4.898      32.017
2015   12       13    17   2    3.1711   449.7    4.904      32.007
2015   12       13    17   9    3.1726   449.5    4.910      31.996
2015   12       13    17  15    3.1741   449.3    4.916      31.986
2015   12       13    17  21    3.1756   449.1    4.922      31.976
2015   12       13    17  28    3.1770   448.9    4.928      31.966
2015   12       13    17  34    3.1785   448.8    4.933      31.956
2015   12       13    17  40    3.1799   448.6    4.939      31.947
2015   12       13    17  47    3.1813   448.4    4.945      31.937
2015   12       13    17  53    3.1827   448.2    4.951      31.928
2015   12       13    18   0    3.1840   448.0    4.957      31.918
2015   12       13    18   6    3.1854   447.8    4.963      31.909
2015   12       13    18  12    3.1867   447.6    4.969      31.899
2015   12       13    18  19    3.1881   447.5    4.974      31.890
2015   12       13    18  25    3.1894   447.3    4.980      31.881
2015   12       13    18  31    3.1907   447.1    4.986      31.871
2015   12       13    18  38    3.1919   446.9    4.992      31.862
2015   12       13    18  44    3.1932   446.7    4.997      31.853
2015   12       13    18  50    3.1945   446.5    5.003      31.844
2015   12       13    18  57    3.1957   446.3    5.009      31.835
2015   12       13    19   3    3.1970   446.1    5.014      31.826
2015   12       13    19   9    3.1982   446.0    5.020      31.817
2015   12       13    19  16    3.1994   445.8    5.026      31.808
2015   12       13    19  22    3.2006   445.6    5.031      31.800
2015   12       13    19  29    3.2018   445.4    5.037      31.791
2015   12       13    19  35    3.2030   445.2    5.042      31.783
2015   12       13    19  41    3.2042   445.0    5.048      31.775
2015   12       13    19  48    3.2054   444.8    5.053      31.767
2015   12       13    19  54    3.2066   444.6    5.059      31.759
2015   12       13    20   0    3.2078   444.5    5.064      31.752
2015   12       13    20   7    3.2090   444.3    5.070      31.744
2015   12       13    20  13    3.2102   444.1    5.075      31.738
2015   12       13    20  19    3.2114   443.9    5.080      31.731
2015   12       13    20  26    3.2127   443.7    5.086      31.725
2015   12       13    20  32    3.2139   443.5    5.091      31.719
2015   12       13    20  38    3.2151   443.4    5.097      31.713
2015   12       13    20  45    3.2163   443.2    5.102      31.708
2015   12       13    20  51    3.2175   443.0    5.107      31.703
2015   12       13    20  58    3.2188   442.8    5.112      31.698
2015   12       13    21   4    3.2200   442.6    5.118      31.694
2015   12       13    21  10    3.2213   442.5    5.123      31.689
2015   12       13    21  17    3.2226   442.3    5.128      31.684
2015   12       13    21  23    3.2238   442.1    5.134      31.680
2015   12       13    21  29    3.2251   441.9    5.139      31.676
2015   12       13    21  36    3.2264   441.7    5.144      31.672
2015   12       13    21  42    3.2277   441.6    5.150      31.668
2015   12       13    21  48    3.2291   441.4    5.155      31.664
2015   12       13    21  55    3.2304   441.2    5.160      31.660
2015   12       13    22   1    3.2317   441.1    5.166      31.657
2015   12       13    22   7    3.2331   440.9    5.171      31.653
2015   12       13    22  14    3.2344   440.7    5.176      31.650
2015   12       13    22  20    3.2358   440.5    5.181      31.647
2015   12       13    22  27    3.2372   440.4    5.187      31.644
2015   12       13    22  33    3.2386   440.2    5.192      31.641
2015   12       13    22  39    3.2399   440.0    5.197      31.638
2015   12       13    22  46    3.2413   439.9    5.202      31.635
2015   12       13    22  52    3.2427   439.7    5.207      31.631
2015   12       13    22  58    3.2440   439.5    5.212      31.628
2015   12       13    23   5    3.2454   439.4    5.217      31.625
2015   12       13    23  11    3.2467   439.2    5.221      31.621
2015   12       13    23  17    3.2480   439.1    5.226      31.617
2015   12       13    23  24    3.2493   438.9    5.231      31.614
2015   12       13    23  30    3.2506   438.7    5.235      31.610
2015   12       13    23  36    3.2519   438.6    5.240      31.606
2015   12       13    23  43    3.2531   438.4    5.244      31.602
2015   12       13    23  49    3.2543   438.3    5.249      31.598
2015   12       13    23  55    3.2555   438.1    5.253      31.593
2015   12       14     0   2    3.2567   437.9    5.258      31.589
2015   12       14     0   8    3.2579   437.8    5.262      31.585
2015   12       14     0  15    3.2591   437.6    5.266      31.580
2015   12       14     0  21    3.2602   437.5    5.270      31.576
2015   12       14     0  27    3.2613   437.3    5.274      31.571
2015   12       14     0  34    3.2624   437.1    5.279      31.566
2015   12       14     0  40    3.2635   437.0    5.283      31.561
2015   12       14     0  46    3.2645   436.8    5.287      31.556
2015   12       14     0  53    3.2656   436.7    5.291      31.551
2015   12       14     0  59    3.2666   436.5    5.295      31.545
2015   12       14     1   5    3.2676   436.3    5.298      31.540
2015   12       14     1  12    3.2685   436.2    5.302      31.534
2015   12       14     1  18    3.2695   436.0    5.306      31.528
2015   12       14     1  24    3.2704   435.9    5.310      31.522
2015   12       14     1  31    3.2714   435.7    5.314      31.516
2015   12       14     1  37    3.2723   435.6    5.317      31.509
2015   12       14     1  44    3.2732   435.4    5.321      31.503
2015   12       14     1  50    3.2740   435.2    5.325      31.496
2015   12       14     1  56    3.2749   435.1    5.329      31.489
2015   12       14     2   3    3.2757   434.9    5.332      31.482
2015   12       14     2   9    3.2766   434.8    5.336      31.475
2015   12       14     2  15    3.2774   434.6    5.339      31.468
2015   12       14     2  22    3.2782   434.4    5.343      31.460
2015   12       14     2  28    3.2790   434.3    5.347      31.452
2015   12       14     2  34    3.2797   434.1    5.350      31.444
2015   12       14     2  41    3.2805   434.0    5.354      31.436
2015   12       14     2  47    3.2813   433.8    5.357      31.428
2015   12       14     2  53    3.2820   433.6    5.361      31.420
2015   12       14     3   0    3.2827   433.5    5.364      31.412
2015   12       14     3   6    3.2835   433.3    5.368      31.403
2015   12       14     3  13    3.2842   433.2    5.371      31.395
2015   12       14     3  19    3.2849   433.0    5.375      31.386
2015   12       14     3  25    3.2856   432.8    5.379      31.378
2015   12       14     3  32    3.2862   432.7    5.382      31.369
2015   12       14     3  38    3.2869   432.5    5.386      31.361
2015   12       14     3  44    3.2876   432.4    5.389      31.352
2015   12       14     3  51    3.2883   432.2    5.393      31.344
2015   12       14     3  57    3.2889   432.0    5.396      31.336
2015   12       14     4   3    3.2896   431.9    5.400      31.328
2015   12       14     4  10    3.2903   431.7    5.404      31.320
2015   12       14     4  16    3.2909   431.6    5.407      31.312
2015   12       14     4  22    3.2916   431.4    5.411      31.304
2015   12       14     4  29    3.2923   431.2    5.415      31.297
2015   12       14     4  35    3.2929   431.1    5.418      31.290
2015   12       14     4  42    3.2936   430.9    5.422      31.282
2015   12       14     4  48    3.2943   430.8    5.426      31.276
2015   12       14     4  54    3.2950   430.6    5.430      31.269
2015   12       14     5   1    3.2957   430.4    5.433      31.262
2015   12       14     5   7    3.2964   430.3    5.437      31.256
2015   12       14     5  13    3.2971   430.1    5.441      31.249
2015   12       14     5  20    3.2978   430.0    5.445      31.243
2015   12       14     5  26    3.2984   429.8    5.448      31.237
2015   12       14     5  32    3.2992   429.7    5.452      31.232
2015   12       14     5  39    3.2999   429.5    5.456      31.226
2015   12       14     5  45    3.3006   429.3    5.460      31.220
2015   12       14     5  51    3.3013   429.2    5.463      31.214
2015   12       14     5  58    3.3020   429.0    5.467      31.208
2015   12       14     6   4    3.3027   428.9    5.470      31.202
2015   12       14     6  10    3.3034   428.7    5.474      31.196
2015   12       14     6  17    3.3041   428.6    5.477      31.190
2015   12       14     6  23    3.3048   428.4    5.481      31.183
2015   12       14     6  30    3.3054   428.3    5.484      31.176
2015   12       14     6  36    3.3061   428.1    5.487      31.169
2015   12       14     6  42    3.3068   428.0    5.490      31.162
2015   12       14     6  49    3.3074   427.8    5.494      31.155
2015   12       14     6  55    3.3080   427.6    5.497      31.147
2015   12       14     7   1    3.3086   427.5    5.500      31.140
2015   12       14     7   8    3.3092   427.3    5.503      31.132
2015   12       14     7  14    3.3098   427.2    5.506      31.124
2015   12       14     7  20    3.3104   427.0    5.509      31.116
2015   12       14     7  27    3.3109   426.9    5.511      31.107
2015   12       14     7  33    3.3114   426.7    5.514      31.099
2015   12       14     7  39    3.3120   426.6    5.517      31.090
2015   12       14     7  46    3.3125   426.4    5.520      31.081
2015   12       14     7  52    3.3130   426.3    5.522      31.072
2015   12       14     7  59    3.3134   426.1    5.525      31.063
2015   12       14     8   5    3.3139   425.9    5.528      31.053
2015   12       14     8  11    3.3144   425.8    5.530      31.043
2015   12       14     8  18    3.3148   425.6    5.533      31.034
2015   12       14     8  24    3.3152   425.5    5.536      31.024
2015   12       14     8  30    3.3157   425.3    5.538      31.014
2015   12       14     8  37    3.3161   425.2    5.541      31.003
2015   12       14     8  43    3.3165   425.0    5.543      30.993
2015   12       14     8  49    3.3169   424.9    5.545      30.982
2015   12       14     8  56    3.3173   424.7    5.548      30.971
2015   12       14     9   2    3.3176   424.5    5.550      30.961
2015   12       14     9   8    3.3180   424.4    5.553      30.950
2015   12       14     9  15    3.3184   424.2    5.555      30.938
2015   12       14     9  21    3.3187   424.1    5.557      30.927
2015   12       14     9  28    3.3191   423.9    5.560      30.916
2015   12       14     9  34    3.3194   423.8    5.562      30.904
2015   12       14     9  40    3.3197   423.6    5.564      30.892
2015   12       14     9  47    3.3200   423.5    5.567      30.880
2015   12       14     9  53    3.3203   423.3    5.569      30.868
2015   12       14     9  59    3.3206   423.1    5.571      30.856
2015   12       14    10   6    3.3209   423.0    5.573      30.843
2015   12       14    10  12    3.3211   422.8    5.575      30.830
2015   12       14    10  18    3.3214   422.7    5.577      30.817
2015   12       14    10  25    3.3216   422.5    5.580      30.804
2015   12       14    10  31    3.3218   422.4    5.582      30.790
2015   12       14    10  37    3.3220   422.2    5.584      30.777
2015   12       14    10  44    3.3222   422.0    5.586      30.763
2015   12       14    10  50    3.3224   421.9    5.588      30.749
2015   12       14    10  56    3.3226   421.7    5.590      30.735
2015   12       14    11   3    3.3227   421.6    5.592      30.720
2015   12       14    11   9    3.3228   421.4    5.593      30.706
2015   12       14    11  16    3.3230   421.2    5.595      30.691
2015   12       14    11  22    3.3231   421.1    5.597      30.676
2015   12       14    11  28    3.3232   420.9    5.599      30.662
2015   12       14    11  35    3.3233   420.8    5.601      30.646
2015   12       14    11  41    3.3234   420.6    5.603      30.631
2015   12       14    11  47    3.3235   420.4    5.604      30.616
2015   12       14    11  54    3.3236   420.3    5.606      30.600
2015   12       14    12   0    3.3237   420.1    5.608      30.585
2015   12       14    12   6    3.3237   419.9    5.609      30.569
2015   12       14    12  13    3.3237   419.8    5.611      30.553
2015   12       14    12  19    3.3238   419.6    5.613      30.537
2015   12       14    12  25    3.3238   419.5    5.614      30.521
2015   12       14    12  32    3.3238   419.3    5.616      30.505
2015   12       14    12  38    3.3238   419.1    5.617      30.488
2015   12       14    12  45    3.3238   419.0    5.619      30.472
2015   12       14    12  51    3.3238   418.8    5.620      30.455
2015   12       14    12  57    3.3238   418.6    5.622      30.438
2015   12       14    13   4    3.3238   418.5    5.623      30.422
2015   12       14    13  10    3.3237   418.3    5.624      30.405
2015   12       14    13  16    3.3237   418.1    5.626      30.388
2015   12       14    13  23    3.3237   418.0    5.627      30.371
2015   12       14    13  29    3.3236   417.8    5.628      30.354
2015   12       14    13  35    3.3236   417.6    5.630      30.336
2015   12       14    13  42    3.3235   417.4    5.631      30.319
2015   12       14    13  48    3.3235   417.3    5.632      30.302
2015   12       14    13  54    3.3234   417.1    5.634      30.285
2015   12       14    14   1    3.3234   416.9    5.635      30.267
2015   12       14    14   7    3.3233   416.8    5.636      30.250
2015   12       14    14  14    3.3233   416.6    5.638      30.233
2015   12       14    14  20    3.3232   416.4    5.639      30.215
2015   12       14    14  26    3.3232   416.2    5.640      30.198
2015   12       14    14  33    3.3231   416.1    5.642      30.181
2015   12       14    14  39    3.3231   415.9    5.643      30.164
2015   12       14    14  45    3.3230   415.7    5.644      30.147
2015   12       14    14  52    3.3230   415.6    5.646      30.130
2015   12       14    14  58    3.3230   415.4    5.647      30.113
2015   12       14    15   4    3.3229   415.2    5.649      30.096
2015   12       14    15  11    3.3229   415.0    5.650      30.078
2015   12       14    15  17    3.3228   414.9    5.651      30.061
2015   12       14    15  23    3.3228   414.7    5.653      30.044
2015   12       14    15  30    3.3228   414.5    5.654      30.027
2015   12       14    15  36    3.3227   414.3    5.656      30.009
2015   12       14    15  43    3.3227   414.2    5.657      29.992
2015   12       14    15  49    3.3226   414.0    5.659      29.974
2015   12       14    15  55    3.3226   413.8    5.660      29.957
2015   12       14    16   2    3.3225   413.7    5.662      29.939
2015   12       14    16   8    3.3225   413.5    5.663      29.921
2015   12       14    16  14    3.3224   413.3    5.665      29.903
2015   12       14    16  21    3.3224   413.1    5.666      29.885
2015   12       14    16  27    3.3224   413.0    5.668      29.867
2015   12       14    16  33    3.3223   412.8    5.669      29.849
2015   12       14    16  40    3.3223   412.6    5.671      29.831
2015   12       14    16  46    3.3222   412.4    5.672      29.812
2015   12       14    16  52    3.3222   412.3    5.674      29.794
2015   12       14    16  59    3.3222   412.1    5.675      29.775
2015   12       14    17   5    3.3221   411.9    5.677      29.756
2015   12       14    17  11    3.3220   411.7    5.678      29.737
2015   12       14    17  18    3.3219   411.5    5.679      29.718
2015   12       14    17  24    3.3218   411.4    5.681      29.698
2015   12       14    17  31    3.3217   411.2    5.682      29.678
2015   12       14    17  37    3.3216   411.0    5.683      29.658
2015   12       14    17  43    3.3214   410.8    5.684      29.638
2015   12       14    17  50    3.3213   410.6    5.686      29.617
2015   12       14    17  56    3.3211   410.5    5.687      29.597
2015   12       14    18   2    3.3210   410.3    5.688      29.576
2015   12       14    18   9    3.3208   410.1    5.689      29.554
2015   12       14    18  15    3.3206   409.9    5.690      29.533
2015   12       14    18  21    3.3203   409.7    5.691      29.511
2015   12       14    18  28    3.3201   409.5    5.692      29.489
2015   12       14    18  34    3.3199   409.4    5.693      29.467
2015   12       14    18  40    3.3197   409.2    5.694      29.444
2015   12       14    18  47    3.3194   409.0    5.695      29.422
2015   12       14    18  53    3.3191   408.8    5.696      29.399
2015   12       14    19   0    3.3189   408.6    5.697      29.376
2015   12       14    19   6    3.3186   408.4    5.697      29.353
2015   12       14    19  12    3.3183   408.2    5.698      29.330
2015   12       14    19  19    3.3180   408.0    5.699      29.307
2015   12       14    19  25    3.3177   407.8    5.700      29.283
2015   12       14    19  31    3.3174   407.6    5.701      29.260
2015   12       14    19  38    3.3171   407.4    5.702      29.236
2015   12       14    19  44    3.3168   407.2    5.703      29.213
2015   12       14    19  50    3.3165   407.1    5.704      29.189
2015   12       14    19  57    3.3161   406.9    5.705      29.166
2015   12       14    20   3    3.3158   406.7    5.706      29.142
2015   12       14    20   9    3.3155   406.5    5.707      29.119
2015   12       14    20  16    3.3152   406.3    5.708      29.095
2015   12       14    20  22    3.3149   406.1    5.709      29.072
2015   12       14    20  29    3.3146   405.9    5.710      29.049
2015   12       14    20  35    3.3143   405.7    5.711      29.026
2015   12       14    20  41    3.3141   405.5    5.712      29.003
2015   12       14    20  48    3.3138   405.3    5.713      28.980
2015   12       14    20  54    3.3135   405.1    5.715      28.957
2015   12       14    21   0    3.3133   404.9    5.716      28.935
2015   12       14    21   7    3.3131   404.7    5.717      28.913
2015   12       14    21  13    3.3128   404.5    5.719      28.891
2015   12       14    21  19    3.3126   404.3    5.720      28.869
2015   12       14    21  26    3.3125   404.1    5.722      28.848
2015   12       14    21  32    3.3123   403.9    5.724      28.827
2015   12       14    21  38    3.3121   403.7    5.725      28.806
2015   12       14    21  45    3.3120   403.5    5.727      28.785
2015   12       14    21  51    3.3119   403.3    5.729      28.765
2015   12       14    21  58    3.3117   403.1    5.731      28.745
2015   12       14    22   4    3.3117   402.9    5.733      28.726
2015   12       14    22  10    3.3116   402.7    5.735      28.706
2015   12       14    22  17    3.3115   402.5    5.737      28.687
2015   12       14    22  23    3.3114   402.3    5.739      28.668
2015   12       14    22  29    3.3114   402.1    5.741      28.649
2015   12       14    22  36    3.3113   401.9    5.744      28.631
2015   12       14    22  42    3.3113   401.7    5.746      28.613
2015   12       14    22  48    3.3112   401.5    5.748      28.594
2015   12       14    22  55    3.3112   401.3    5.751      28.576
2015   12       14    23   1    3.3112   401.1    5.753      28.558
2015   12       14    23   7    3.3111   400.9    5.756      28.539
2015   12       14    23  14    3.3111   400.8    5.758      28.521
2015   12       14    23  20    3.3110   400.6    5.760      28.503
2015   12       14    23  26    3.3110   400.4    5.763      28.485
2015   12       14    23  33    3.3110   400.2    5.766      28.466
2015   12       14    23  39    3.3109   400.0    5.768      28.448
2015   12       14    23  46    3.3109   399.8    5.771      28.430
2015   12       14    23  52    3.3108   399.6    5.773      28.412
2015   12       14    23  58    3.3108   399.4    5.776      28.393
2015   12       15     0   5    3.3107   399.2    5.778      28.375
2015   12       15     0  11    3.3107   399.0    5.781      28.357
2015   12       15     0  17    3.3106   398.8    5.784      28.339
2015   12       15     0  24    3.3106   398.5    5.786      28.320
2015   12       15     0  30    3.3105   398.3    5.789      28.302
2015   12       15     0  36    3.3105   398.1    5.792      28.284
2015   12       15     0  43    3.3104   397.9    5.794      28.265
2015   12       15     0  49    3.3104   397.7    5.797      28.247
2015   12       15     0  55    3.3103   397.5    5.800      28.228
2015   12       15     1   2    3.3102   397.3    5.802      28.209
2015   12       15     1   8    3.3102   397.1    5.805      28.191
2015   12       15     1  15    3.3102   396.9    5.808      28.172
2015   12       15     1  21    3.3101   396.7    5.811      28.153
2015   12       15     1  27    3.3101   396.5    5.814      28.134
2015   12       15     1  34    3.3100   396.2    5.817      28.115
2015   12       15     1  40    3.3100   396.0    5.820      28.096
2015   12       15     1  46    3.3100   395.8    5.823      28.077
2015   12       15     1  53    3.3100   395.6    5.826      28.058
2015   12       15     1  59    3.3100   395.4    5.829      28.039
2015   12       15     2   5    3.3100   395.2    5.832      28.020
2015   12       15     2  12    3.3100   394.9    5.835      28.000
2015   12       15     2  18    3.3100   394.7    5.838      27.981
2015   12       15     2  24    3.3101   394.5    5.841      27.962
2015   12       15     2  31    3.3102   394.3    5.844      27.943
2015   12       15     2  37    3.3102   394.0    5.848      27.924
2015   12       15     2  44    3.3104   393.8    5.851      27.905
2015   12       15     2  50    3.3105   393.6    5.854      27.886
2015   12       15     2  56    3.3106   393.4    5.858      27.867
2015   12       15     3   3    3.3108   393.1    5.861      27.848
2015   12       15     3   9    3.3110   392.9    5.865      27.830
2015   12       15     3  15    3.3113   392.7    5.869      27.811
2015   12       15     3  22    3.3116   392.5    5.873      27.793
2015   12       15     3  28    3.3119   392.2    5.877      27.775
2015   12       15     3  34    3.3123   392.0    5.881      27.757
2015   12       15     3  41    3.3127   391.8    5.885      27.740
2015   12       15     3  47    3.3131   391.5    5.889      27.723
2015   12       15     3  53    3.3136   391.3    5.893      27.706
2015   12       15     4   0    3.3141   391.1    5.898      27.689
2015   12       15     4   6    3.3147   390.9    5.903      27.673
2015   12       15     4  12    3.3153   390.6    5.907      27.657
2015   12       15     4  19    3.3159   390.4    5.912      27.641
2015   12       15     4  25    3.3166   390.2    5.917      27.625
2015   12       15     4  32    3.3174   390.0    5.922      27.610
2015   12       15     4  38    3.3182   389.7    5.927      27.596
2015   12       15     4  44    3.3190   389.5    5.933      27.581
2015   12       15     4  51    3.3198   389.3    5.938      27.567
2015   12       15     4  57    3.3207   389.1    5.943      27.553
2015   12       15     5   3    3.3217   388.8    5.949      27.540
2015   12       15     5  10    3.3227   388.6    5.955      27.526
2015   12       15     5  16    3.3237   388.4    5.961      27.513
2015   12       15     5  22    3.3247   388.2    5.966      27.501
2015   12       15     5  29    3.3258   387.9    5.973      27.488
2015   12       15     5  35    3.3269   387.7    5.979      27.476
2015   12       15     5  41    3.3281   387.5    5.985      27.464
2015   12       15     5  48    3.3292   387.3    5.991      27.452
2015   12       15     5  54    3.3304   387.1    5.997      27.440
2015   12       15     6   1    3.3316   386.8    6.004      27.428
2015   12       15     6   7    3.3328   386.6    6.010      27.417
2015   12       15     6  13    3.3340   386.4    6.016      27.405
2015   12       15     6  20    3.3353   386.2    6.023      27.394
2015   12       15     6  26    3.3365   386.0    6.029      27.383
2015   12       15     6  32    3.3377   385.7    6.036      27.372
2015   12       15     6  39    3.3390   385.5    6.042      27.360
2015   12       15     6  45    3.3402   385.3    6.049      27.349
2015   12       15     6  51    3.3415   385.1    6.055      27.338
2015   12       15     6  58    3.3427   384.9    6.062      27.328
2015   12       15     7   4    3.3440   384.6    6.068      27.317
2015   12       15     7  10    3.3453   384.4    6.075      27.306
2015   12       15     7  17    3.3466   384.2    6.081      27.295
2015   12       15     7  23    3.3479   384.0    6.088      27.285
2015   12       15     7  30    3.3492   383.8    6.095      27.274
2015   12       15     7  36    3.3505   383.5    6.101      27.263
2015   12       15     7  42    3.3518   383.3    6.108      27.252
2015   12       15     7  49    3.3532   383.1    6.114      27.241
2015   12       15     7  55    3.3545   382.9    6.121      27.231
2015   12       15     8   1    3.3559   382.7    6.128      27.220
2015   12       15     8   8    3.3573   382.4    6.135      27.209
2015   12       15     8  14    3.3587   382.2    6.141      27.198
2015   12       15     8  20    3.3602   382.0    6.148      27.187
2015   12       15     8  27    3.3616   381.8    6.155      27.176
2015   12       15     8  33    3.3631   381.6    6.162      27.165
2015   12       15     8  39    3.3646   381.4    6.169      27.154
2015   12       15     8  46    3.3661   381.1    6.176      27.143
2015   12       15     8  52    3.3677   380.9    6.183      27.133
2015   12       15     8  59    3.3692   380.7    6.190      27.122
2015   12       15     9   5    3.3708   380.5    6.197      27.111
2015   12       15     9  11    3.3725   380.3    6.204      27.100
2015   12       15     9  18    3.3741   380.1    6.211      27.089
2015   12       15     9  24    3.3758   379.8    6.218      27.078
2015   12       15     9  30    3.3775   379.6    6.225      27.067
2015   12       15     9  37    3.3792   379.4    6.233      27.056
2015   12       15     9  43    3.3810   379.2    6.240      27.046
2015   12       15     9  49    3.3828   379.0    6.247      27.035
2015   12       15     9  56    3.3846   378.8    6.255      27.024
2015   12       15    10   2    3.3865   378.5    6.262      27.014
2015   12       15    10   8    3.3884   378.3    6.270      27.003
2015   12       15    10  15    3.3904   378.1    6.277      26.993
2015   12       15    10  21    3.3923   377.9    6.285      26.983
2015   12       15    10  27    3.3944   377.7    6.293      26.973
2015   12       15    10  34    3.3965   377.5    6.301      26.963
2015   12       15    10  40    3.3986   377.3    6.309      26.954
2015   12       15    10  47    3.4008   377.1    6.317      26.944
2015   12       15    10  53    3.4030   376.8    6.325      26.935
2015   12       15    10  59    3.4053   376.6    6.334      26.926
2015   12       15    11   6    3.4077   376.4    6.342      26.918
2015   12       15    11  12    3.4101   376.2    6.351      26.910
2015   12       15    11  18    3.4126   376.0    6.360      26.902
2015   12       15    11  25    3.4151   375.8    6.369      26.894
2015   12       15    11  31    3.4177   375.6    6.378      26.887
2015   12       15    11  37    3.4203   375.4    6.387      26.880
2015   12       15    11  44    3.4230   375.1    6.396      26.874
2015   12       15    11  50    3.4258   374.9    6.406      26.868
2015   12       15    11  56    3.4286   374.7    6.416      26.862
2015   12       15    12   3    3.4315   374.5    6.426      26.856
2015   12       15    12   9    3.4345   374.3    6.436      26.851
2015   12       15    12  16    3.4375   374.1    6.446      26.847
2015   12       15    12  22    3.4405   373.9    6.457      26.842
2015   12       15    12  28    3.4436   373.7    6.467      26.838
2015   12       15    12  35    3.4468   373.5    6.478      26.835
2015   12       15    12  41    3.4500   373.3    6.489      26.831
2015   12       15    12  47    3.4533   373.1    6.500      26.828
2015   12       15    12  54    3.4565   372.9    6.511      26.826
2015   12       15    13   0    3.4599   372.7    6.522      26.824
2015   12       15    13   6    3.4632   372.5    6.534      26.822
2015   12       15    13  13    3.4667   372.3    6.545      26.820
2015   12       15    13  19    3.4701   372.1    6.557      26.818
2015   12       15    13  25    3.4735   371.9    6.568      26.817
2015   12       15    13  32    3.4770   371.7    6.580      26.815
2015   12       15    13  38    3.4805   371.5    6.592      26.814
2015   12       15    13  45    3.4840   371.3    6.604      26.814
2015   12       15    13  51    3.4876   371.2    6.616      26.813
2015   12       15    13  57    3.4912   371.0    6.628      26.813
2015   12       15    14   4    3.4947   370.8    6.640      26.812
2015   12       15    14  10    3.4983   370.6    6.652      26.812
2015   12       15    14  16    3.5019   370.4    6.664      26.812
2015   12       15    14  23    3.5056   370.2    6.676      26.813
2015   12       15    14  29    3.5092   370.0    6.688      26.813
2015   12       15    14  35    3.5129   369.8    6.700      26.813
2015   12       15    14  42    3.5166   369.6    6.713      26.814
2015   12       15    14  48    3.5203   369.5    6.725      26.814
2015   12       15    14  54    3.5240   369.3    6.737      26.814
2015   12       15    15   1    3.5277   369.1    6.749      26.815
2015   12       15    15   7    3.5315   368.9    6.761      26.816
2015   12       15    15  13    3.5352   368.7    6.774      26.816
2015   12       15    15  20    3.5390   368.6    6.786      26.817
2015   12       15    15  26    3.5428   368.4    6.798      26.818
2015   12       15    15  33    3.5467   368.2    6.811      26.819
2015   12       15    15  39    3.5505   368.0    6.823      26.820
2015   12       15    15  45    3.5544   367.9    6.835      26.821
2015   12       15    15  52    3.5583   367.7    6.848      26.822
2015   12       15    15  58    3.5622   367.5    6.860      26.823
2015   12       15    16   4    3.5661   367.3    6.873      26.825
2015   12       15    16  11    3.5701   367.2    6.885      26.826
2015   12       15    16  17    3.5741   367.0    6.897      26.828
2015   12       15    16  23    3.5781   366.8    6.910      26.830
2015   12       15    16  30    3.5822   366.7    6.923      26.832
2015   12       15    16  36    3.5863   366.5    6.935      26.834
2015   12       15    16  42    3.5903   366.4    6.948      26.836
2015   12       15    16  49    3.5945   366.2    6.960      26.839
2015   12       15    16  55    3.5987   366.0    6.973      26.842
2015   12       15    17   2    3.6029   365.9    6.986      26.845
2015   12       15    17   8    3.6071   365.7    6.999      26.848
2015   12       15    17  14    3.6113   365.6    7.012      26.852
2015   12       15    17  21    3.6156   365.4    7.024      26.855
2015   12       15    17  27    3.6200   365.3    7.037      26.859
2015   12       15    17  33    3.6243   365.1    7.050      26.863
2015   12       15    17  40    3.6287   365.0    7.063      26.868
2015   12       15    17  46    3.6332   364.8    7.077      26.873
2015   12       15    17  52    3.6376   364.7    7.090      26.878
2015   12       15    17  59    3.6421   364.5    7.103      26.883
2015   12       15    18   5    3.6466   364.4    7.116      26.888
2015   12       15    18  11    3.6512   364.2    7.130      26.894
2015   12       15    18  18    3.6558   364.1    7.143      26.900
2015   12       15    18  24    3.6604   364.0    7.157      26.907
2015   12       15    18  31    3.6650   363.8    7.170      26.913
2015   12       15    18  37    3.6697   363.7    7.184      26.920
2015   12       15    18  43    3.6744   363.5    7.198      26.927
2015   12       15    18  50    3.6791   363.4    7.212      26.935
2015   12       15    18  56    3.6838   363.3    7.225      26.943
2015   12       15    19   2    3.6885   363.1    7.239      26.951
2015   12       15    19   9    3.6933   363.0    7.253      26.959
2015   12       15    19  15    3.6981   362.9    7.267      26.968
2015   12       15    19  21    3.7030   362.8    7.282      26.977
2015   12       15    19  28    3.7078   362.6    7.296      26.986
2015   12       15    19  34    3.7127   362.5    7.310      26.996
2015   12       15    19  40    3.7176   362.4    7.324      27.005
2015   12       15    19  47    3.7225   362.3    7.339      27.015
2015   12       15    19  53    3.7274   362.1    7.353      27.026
2015   12       15    19  59    3.7323   362.0    7.368      27.036
2015   12       15    20   6    3.7373   361.9    7.382      27.047
2015   12       15    20  12    3.7423   361.8    7.397      27.058
2015   12       15    20  19    3.7473   361.6    7.412      27.069
2015   12       15    20  25    3.7523   361.5    7.427      27.080
2015   12       15    20  31    3.7573   361.4    7.441      27.091
2015   12       15    20  38    3.7624   361.3    7.456      27.103
2015   12       15    20  44    3.7674   361.2    7.471      27.115
2015   12       15    20  50    3.7725   361.1    7.486      27.127
2015   12       15    20  57    3.7776   361.0    7.501      27.139
2015   12       15    21   3    3.7827   360.8    7.516      27.151
2015   12       15    21   9    3.7878   360.7    7.531      27.163
2015   12       15    21  16    3.7929   360.6    7.546      27.176
2015   12       15    21  22    3.7980   360.5    7.561      27.188
2015   12       15    21  28    3.8031   360.4    7.576      27.201
2015   12       15    21  35    3.8082   360.3    7.591      27.214
2015   12       15    21  41    3.8133   360.2    7.606      27.227
2015   12       15    21  48    3.8184   360.1    7.621      27.240
2015   12       15    21  54    3.8236   360.0    7.636      27.253
2015   12       15    22   0    3.8287   359.9    7.651      27.266
2015   12       15    22   7    3.8338   359.8    7.666      27.279
2015   12       15    22  13    3.8389   359.7    7.682      27.292
2015   12       15    22  19    3.8440   359.6    7.697      27.306
2015   12       15    22  26    3.8491   359.5    7.712      27.319
2015   12       15    22  32    3.8542   359.4    7.727      27.333
2015   12       15    22  38    3.8594   359.3    7.742      27.346
2015   12       15    22  45    3.8645   359.2    7.757      27.360
2015   12       15    22  51    3.8696   359.1    7.772      27.374
2015   12       15    22  57    3.8747   359.0    7.787      27.388
2015   12       15    23   4    3.8798   358.9    7.802      27.402
2015   12       15    23  10    3.8850   358.8    7.818      27.417
2015   12       15    23  17    3.8901   358.7    7.833      27.431
2015   12       15    23  23    3.8953   358.6    7.848      27.446
2015   12       15    23  29    3.9004   358.6    7.863      27.461
2015   12       15    23  36    3.9056   358.5    7.878      27.476
2015   12       15    23  42    3.9108   358.4    7.894      27.491
2015   12       15    23  48    3.9160   358.3    7.909      27.506
2015   12       15    23  55    3.9212   358.2    7.924      27.522
2015   12       16     0   1    3.9264   358.1    7.939      27.538
2015   12       16     0   7    3.9316   358.1    7.955      27.553
2015   12       16     0  14    3.9369   358.0    7.970      27.570
2015   12       16     0  20    3.9421   357.9    7.986      27.586
2015   12       16     0  26    3.9474   357.8    8.002      27.602
2015   12       16     0  33    3.9527   357.7    8.017      27.619
2015   12       16     0  39    3.9581   357.7    8.033      27.636
2015   12       16     0  46    3.9635   357.6    8.049      27.653
2015   12       16     0  52    3.9689   357.5    8.065      27.671
2015   12       16     0  58    3.9743   357.4    8.081      27.688
2015   12       16     1   5    3.9798   357.4    8.097      27.706
2015   12       16     1  11    3.9853   357.3    8.114      27.724
2015   12       16     1  17    3.9907   357.2    8.130      27.743
2015   12       16     1  24    3.9963   357.2    8.146      27.762
2015   12       16     1  30    4.0018   357.1    8.163      27.781
2015   12       16     1  36    4.0073   357.0    8.179      27.801
2015   12       16     1  43    4.0128   357.0    8.196      27.822
2015   12       16     1  49    4.0183   356.9    8.212      27.843
2015   12       16     1  55    4.0237   356.9    8.228      27.865
2015   12       16     2   2    4.0291   356.8    8.244      27.888
2015   12       16     2   8    4.0346   356.8    8.260      27.911
2015   12       16     2  14    4.0400   356.7    8.276      27.934
2015   12       16     2  21    4.0453   356.7    8.292      27.957
2015   12       16     2  27    4.0507   356.6    8.308      27.981
2015   12       16     2  34    4.0560   356.6    8.323      28.004
2015   12       16     2  40    4.0614   356.5    8.339      28.028
2015   12       16     2  46    4.0667   356.5    8.354      28.051
2015   12       16     2  53    4.0719   356.4    8.369      28.075
2015   12       16     2  59    4.0772   356.4    8.384      28.098
2015   12       16     3   5    4.0824   356.4    8.399      28.121
2015   12       16     3  12    4.0877   356.3    8.414      28.144
2015   12       16     3  18    4.0929   356.3    8.429      28.167
2015   12       16     3  24    4.0980   356.2    8.443      28.190
2015   12       16     3  31    4.1032   356.2    8.458      28.213
2015   12       16     3  37    4.1083   356.2    8.472      28.236
2015   12       16     3  43    4.1134   356.1    8.486      28.259
2015   12       16     3  50    4.1185   356.1    8.500      28.282
2015   12       16     3  56    4.1236   356.0    8.514      28.305
2015   12       16     4   3    4.1286   356.0    8.528      28.328
2015   12       16     4   9    4.1336   356.0    8.542      28.350
2015   12       16     4  15    4.1386   355.9    8.555      28.373
2015   12       16     4  22    4.1435   355.9    8.568      28.395
2015   12       16     4  28    4.1485   355.9    8.581      28.417
2015   12       16     4  34    4.1534   355.8    8.594      28.439
2015   12       16     4  41    4.1582   355.8    8.607      28.461
2015   12       16     4  47    4.1631   355.8    8.620      28.482
2015   12       16     4  53    4.1679   355.8    8.633      28.504
2015   12       16     5   0    4.1727   355.7    8.645      28.525
2015   12       16     5   6    4.1775   355.7    8.658      28.546
2015   12       16     5  12    4.1823   355.7    8.670      28.567
2015   12       16     5  19    4.1871   355.6    8.682      28.587
2015   12       16     5  25    4.1918   355.6    8.694      28.607
2015   12       16     5  32    4.1965   355.6    8.706      28.628
2015   12       16     5  38    4.2012   355.6    8.718      28.648
2015   12       16     5  44    4.2059   355.5    8.730      28.668
2015   12       16     5  51    4.2105   355.5    8.742      28.687
2015   12       16     5  57    4.2152   355.5    8.753      28.707
2015   12       16     6   3    4.2198   355.4    8.765      28.726
2015   12       16     6  10    4.2244   355.4    8.777      28.745
2015   12       16     6  16    4.2290   355.4    8.788      28.765
2015   12       16     6  22    4.2336   355.4    8.799      28.783
2015   12       16     6  29    4.2382   355.3    8.811      28.802
2015   12       16     6  35    4.2428   355.3    8.822      28.821
2015   12       16     6  41    4.2473   355.3    8.833      28.840
2015   12       16     6  48    4.2519   355.3    8.845      28.858
2015   12       16     6  54    4.2565   355.3    8.856      28.876
2015   12       16     7   0    4.2610   355.2    8.867      28.894
2015   12       16     7   7    4.2655   355.2    8.878      28.913
2015   12       16     7  13    4.2701   355.2    8.889      28.930
2015   12       16     7  20    4.2746   355.2    8.900      28.948
2015   12       16     7  26    4.2791   355.1    8.912      28.966
2015   12       16     7  32    4.2837   355.1    8.923      28.984
2015   12       16     7  39    4.2882   355.1    8.934      29.002
2015   12       16     7  45    4.2927   355.1    8.945      29.020
2015   12       16     7  51    4.2973   355.1    8.956      29.037
2015   12       16     7  58    4.3019   355.0    8.968      29.055
2015   12       16     8   4    4.3065   355.0    8.979      29.073
2015   12       16     8  10    4.3111   355.0    8.991      29.090
2015   12       16     8  17    4.3157   355.0    9.002      29.108
2015   12       16     8  23    4.3203   355.0    9.014      29.125
2015   12       16     8  29    4.3250   354.9    9.026      29.143
2015   12       16     8  36    4.3296   354.9    9.038      29.161
2015   12       16     8  42    4.3343   354.9    9.049      29.180
2015   12       16     8  49    4.3390   354.9    9.061      29.198
2015   12       16     8  55    4.3436   354.9    9.073      29.217
2015   12       16     9   1    4.3483   354.9    9.085      29.237
2015   12       16     9   8    4.3529   354.9    9.097      29.257
2015   12       16     9  14    4.3575   354.9    9.108      29.278
2015   12       16     9  20    4.3621   354.9    9.120      29.299
2015   12       16     9  27    4.3667   354.9    9.131      29.320
2015   12       16     9  33    4.3713   354.9    9.143      29.341
2015   12       16     9  39    4.3759   354.9    9.155      29.363
2015   12       16     9  46    4.3805   354.8    9.166      29.385
2015   12       16     9  52    4.3850   354.8    9.177      29.407
2015   12       16     9  58    4.3896   354.8    9.189      29.428
2015   12       16    10   5    4.3941   354.8    9.200      29.450
2015   12       16    10  11    4.3986   354.8    9.212      29.471
2015   12       16    10  18    4.4031   354.8    9.223      29.493
2015   12       16    10  24    4.4076   354.8    9.235      29.514
2015   12       16    10  30    4.4120   354.8    9.246      29.536
2015   12       16    10  37    4.4164   354.8    9.258      29.558
2015   12       16    10  43    4.4208   354.8    9.269      29.580
2015   12       16    10  49    4.4251   354.8    9.280      29.603
2015   12       16    10  56    4.4294   354.8    9.291      29.627
2015   12       16    11   2    4.4337   354.8    9.302      29.650
2015   12       16    11   8    4.4379   354.9    9.312      29.675
2015   12       16    11  15    4.4421   354.9    9.323      29.699
2015   12       16    11  21    4.4462   354.9    9.333      29.724
2015   12       16    11  27    4.4503   354.9    9.343      29.748
2015   12       16    11  34    4.4543   354.9    9.353      29.773
2015   12       16    11  40    4.4584   354.9    9.362      29.797
2015   12       16    11  47    4.4624   354.9    9.372      29.821
2015   12       16    11  53    4.4663   354.9    9.381      29.845
2015   12       16    11  59    4.4702   354.9    9.390      29.869
2015   12       16    12   6    4.4741   354.9    9.398      29.892
2015   12       16    12  12    4.4779   354.9    9.407      29.915
2015   12       16    12  18    4.4817   355.0    9.415      29.938
2015   12       16    12  25    4.4855   355.0    9.424      29.961
2015   12       16    12  31    4.4893   355.0    9.432      29.983
2015   12       16    12  37    4.4930   355.0    9.439      30.006
2015   12       16    12  44    4.4967   355.0    9.447      30.027
2015   12       16    12  50    4.5004   355.0    9.455      30.049
2015   12       16    12  56    4.5040   355.0    9.462      30.070
2015   12       16    13   3    4.5077   355.0    9.469      30.091
2015   12       16    13   9    4.5113   355.0    9.477      30.112
2015   12       16    13  15    4.5149   355.1    9.484      30.132
2015   12       16    13  22    4.5185   355.1    9.491      30.152
2015   12       16    13  28    4.5220   355.1    9.497      30.172
2015   12       16    13  35    4.5256   355.1    9.504      30.192
2015   12       16    13  41    4.5291   355.1    9.511      30.211
2015   12       16    13  47    4.5326   355.1    9.517      30.230
2015   12       16    13  54    4.5361   355.1    9.524      30.248
2015   12       16    14   0    4.5396   355.1    9.530      30.267
2015   12       16    14   6    4.5431   355.1    9.536      30.285
2015   12       16    14  13    4.5465   355.2    9.542      30.303
2015   12       16    14  19    4.5500   355.2    9.548      30.320
2015   12       16    14  25    4.5534   355.2    9.554      30.338
2015   12       16    14  32    4.5568   355.2    9.560      30.355
2015   12       16    14  38    4.5602   355.2    9.566      30.372
2015   12       16    14  44    4.5637   355.2    9.572      30.388
2015   12       16    14  51    4.5671   355.2    9.578      30.405
2015   12       16    14  57    4.5705   355.2    9.584      30.421
2015   12       16    15   4    4.5739   355.3    9.589      30.437
2015   12       16    15  10    4.5772   355.3    9.595      30.453
2015   12       16    15  16    4.5806   355.3    9.601      30.469
2015   12       16    15  23    4.5840   355.3    9.606      30.484
2015   12       16    15  29    4.5874   355.3    9.612      30.500
2015   12       16    15  35    4.5907   355.3    9.618      30.515
2015   12       16    15  42    4.5941   355.3    9.623      30.530
2015   12       16    15  48    4.5975   355.3    9.629      30.545
2015   12       16    15  54    4.6009   355.4    9.634      30.560
2015   12       16    16   1    4.6042   355.4    9.640      30.575
2015   12       16    16   7    4.6076   355.4    9.646      30.590
2015   12       16    16  13    4.6110   355.4    9.651      30.605
2015   12       16    16  20    4.6144   355.4    9.657      30.620
2015   12       16    16  26    4.6178   355.4    9.663      30.635
2015   12       16    16  33    4.6212   355.4    9.669      30.650
2015   12       16    16  39    4.6246   355.5    9.675      30.665
2015   12       16    16  45    4.6280   355.5    9.681      30.679
2015   12       16    16  52    4.6314   355.5    9.687      30.694
2015   12       16    16  58    4.6348   355.5    9.693      30.709
2015   12       16    17   4    4.6383   355.5    9.699      30.724
2015   12       16    17  11    4.6417   355.5    9.705      30.739
2015   12       16    17  17    4.6452   355.6    9.712      30.755
2015   12       16    17  23    4.6486   355.6    9.718      30.770
2015   12       16    17  30    4.6520   355.6    9.725      30.785
2015   12       16    17  36    4.6554   355.6    9.732      30.800
2015   12       16    17  42    4.6588   355.6    9.739      30.816
2015   12       16    17  49    4.6622   355.6    9.746      30.832
2015   12       16    17  55    4.6656   355.7    9.753      30.848
2015   12       16    18   2    4.6690   355.7    9.761      30.865
2015   12       16    18   8    4.6723   355.7    9.768      30.882
2015   12       16    18  14    4.6756   355.7    9.775      30.900
2015   12       16    18  21    4.6789   355.8    9.782      30.919
2015   12       16    18  27    4.6822   355.8    9.790      30.938
2015   12       16    18  33    4.6855   355.8    9.797      30.957
2015   12       16    18  40    4.6887   355.8    9.804      30.977
2015   12       16    18  46    4.6919   355.9    9.811      30.997
2015   12       16    18  52    4.6951   355.9    9.819      31.017
2015   12       16    18  59    4.6982   355.9    9.826      31.037
2015   12       16    19   5    4.7013   355.9    9.833      31.057
2015   12       16    19  11    4.7043   356.0    9.840      31.078
2015   12       16    19  18    4.7073   356.0    9.847      31.099
2015   12       16    19  24    4.7103   356.0    9.854      31.121
2015   12       16    19  30    4.7133   356.0    9.861      31.142
2015   12       16    19  37    4.7162   356.1    9.867      31.164
2015   12       16    19  43    4.7191   356.1    9.873      31.186
2015   12       16    19  50    4.7219   356.1    9.879      31.208
2015   12       16    19  56    4.7247   356.2    9.885      31.231
2015   12       16    20   2    4.7275   356.2    9.891      31.253
2015   12       16    20   9    4.7303   356.2    9.896      31.274
2015   12       16    20  15    4.7330   356.3    9.901      31.295
2015   12       16    20  21    4.7357   356.3    9.906      31.316
2015   12       16    20  28    4.7384   356.3    9.911      31.336
2015   12       16    20  34    4.7411   356.4    9.916      31.357
2015   12       16    20  40    4.7437   356.4    9.921      31.376
2015   12       16    20  47    4.7463   356.4    9.925      31.396
2015   12       16    20  53    4.7489   356.5    9.929      31.415
2015   12       16    20  59    4.7514   356.5    9.933      31.434
2015   12       16    21   6    4.7540   356.5    9.937      31.452
2015   12       16    21  12    4.7565   356.6    9.941      31.470
2015   12       16    21  19    4.7590   356.6    9.944      31.488
2015   12       16    21  25    4.7615   356.6    9.948      31.506
2015   12       16    21  31    4.7640   356.7    9.951      31.523
2015   12       16    21  38    4.7665   356.7    9.955      31.540
2015   12       16    21  44    4.7689   356.7    9.958      31.556
2015   12       16    21  50    4.7713   356.7    9.961      31.573
2015   12       16    21  57    4.7738   356.8    9.964      31.589
2015   12       16    22   3    4.7762   356.8    9.967      31.605
2015   12       16    22   9    4.7786   356.8    9.969      31.620
2015   12       16    22  16    4.7809   356.9    9.972      31.636
2015   12       16    22  22    4.7833   356.9    9.975      31.651
2015   12       16    22  28    4.7857   356.9    9.977      31.665
2015   12       16    22  35    4.7880   357.0    9.980      31.680
2015   12       16    22  41    4.7903   357.0    9.982      31.694
2015   12       16    22  48    4.7926   357.0    9.985      31.709
2015   12       16    22  54    4.7949   357.1    9.987      31.723
2015   12       16    23   0    4.7972   357.1    9.989      31.736
2015   12       16    23   7    4.7995   357.1    9.991      31.750
2015   12       16    23  13    4.8018   357.2    9.993      31.764
2015   12       16    23  19    4.8040   357.2    9.996      31.777
2015   12       16    23  26    4.8063   357.2    9.998      31.790
2015   12       16    23  32    4.8085   357.2   10.000      31.803
2015   12       16    23  38    4.8108   357.3   10.002      31.816
2015   12       16    23  45    4.8130   357.3   10.004      31.829
2015   12       16    23  51    4.8152   357.3   10.006      31.842
2015   12       16    23  57    4.8175   357.4   10.008      31.855
2015   12       17     0   4    4.8197   357.4   10.010      31.867
2015   12       17     0  10    4.8219   357.4   10.012      31.880
2015   12       17     0  16    4.8241   357.5   10.014      31.892
2015   12       17     0  23    4.8263   357.5   10.016      31.905
2015   12       17     0  29    4.8285   357.5   10.018      31.918
2015   12       17     0  36    4.8307   357.6   10.020      31.930
2015   12       17     0  42    4.8328   357.6   10.022      31.942
2015   12       17     0  48    4.8350   357.6   10.024      31.955
2015   12       17     0  55    4.8372   357.7   10.027      31.967
2015   12       17     1   1    4.8393   357.7   10.029      31.979
2015   12       17     1   7    4.8415   357.7   10.031      31.992
2015   12       17     1  14    4.8437   357.8   10.034      32.004
2015   12       17     1  20    4.8458   357.8   10.036      32.017
2015   12       17     1  26    4.8480   357.8   10.039      32.029
2015   12       17     1  33    4.8501   357.9   10.041      32.041
2015   12       17     1  39    4.8522   357.9   10.044      32.054
2015   12       17     1  45    4.8544   357.9   10.046      32.067
2015   12       17     1  52    4.8565   358.0   10.049      32.080
2015   12       17     1  58    4.8586   358.0   10.052      32.093
2015   12       17     2   5    4.8607   358.0   10.055      32.105
2015   12       17     2  11    4.8627   358.1   10.058      32.118
2015   12       17     2  17    4.8648   358.1   10.062      32.132
2015   12       17     2  24    4.8668   358.1   10.065      32.145
2015   12       17     2  30    4.8688   358.2   10.068      32.159
2015   12       17     2  36    4.8708   358.2   10.071      32.174
2015   12       17     2  43    4.8727   358.2   10.075      32.188
2015   12       17     2  49    4.8747   358.3   10.078      32.203
2015   12       17     2  55    4.8766   358.3   10.081      32.219
2015   12       17     3   2    4.8785   358.4   10.084      32.234
2015   12       17     3   8    4.8804   358.4   10.087      32.250
2015   12       17     3  14    4.8822   358.4   10.090      32.266
2015   12       17     3  21    4.8841   358.5   10.093      32.282
2015   12       17     3  27    4.8859   358.5   10.095      32.297
2015   12       17     3  34    4.8877   358.6   10.098      32.313
2015   12       17     3  40    4.8894   358.6   10.101      32.328
2015   12       17     3  46    4.8912   358.6   10.103      32.343
2015   12       17     3  53    4.8929   358.7   10.105      32.358
2015   12       17     3  59    4.8946   358.7   10.108      32.372
2015   12       17     4   5    4.8963   358.7   10.110      32.387
2015   12       17     4  12    4.8980   358.8   10.112      32.401
2015   12       17     4  18    4.8997   358.8   10.114      32.415
2015   12       17     4  24    4.9013   358.9   10.117      32.429
2015   12       17     4  31    4.9030   358.9   10.119      32.443
2015   12       17     4  37    4.9046   358.9   10.121      32.457
2015   12       17     4  43    4.9063   359.0   10.123      32.470
2015   12       17     4  50    4.9079   359.0   10.125      32.484
2015   12       17     4  56    4.9095   359.1   10.127      32.497
2015   12       17     5   3    4.9111   359.1   10.129      32.510
2015   12       17     5   9    4.9127   359.1   10.131      32.523
2015   12       17     5  15    4.9143   359.2   10.133      32.536
2015   12       17     5  22    4.9159   359.2   10.135      32.549
2015   12       17     5  28    4.9175   359.3   10.137      32.562
2015   12       17     5  34    4.9190   359.3   10.139      32.575
2015   12       17     5  41    4.9206   359.3   10.140      32.587
2015   12       17     5  47    4.9221   359.4   10.142      32.601
2015   12       17     5  53    4.9237   359.4   10.144      32.614
2015   12       17     6   0    4.9252   359.5   10.146      32.628
2015   12       17     6   6    4.9267   359.5   10.147      32.642
2015   12       17     6  12    4.9282   359.5   10.149      32.656
2015   12       17     6  19    4.9296   359.6   10.150      32.670
2015   12       17     6  25    4.9311   359.6   10.151      32.684
2015   12       17     6  31    4.9325   359.7   10.152      32.698
2015   12       17     6  38    4.9339   359.7   10.153      32.712
2015   12       17     6  44    4.9353   359.7   10.154      32.726
2015   12       17     6  51    4.9367   359.8   10.155      32.740
2015   12       17     6  57    4.9381   359.8   10.155      32.753
2015   12       17     7   3    4.9395   359.9   10.156      32.766
2015   12       17     7  10    4.9408   359.9   10.156      32.779
2015   12       17     7  16    4.9422   359.9   10.157      32.792
2015   12       17     7  22    4.9435   360.0   10.157      32.804
2015   12       17     7  29    4.9448   360.0   10.157      32.817
2015   12       17     7  35    4.9461   360.1   10.157      32.829
2015   12       17     7  41    4.9474   360.1   10.157      32.841
2015   12       17     7  48    4.9486   360.1   10.157      32.852
2015   12       17     7  54    4.9499   360.2   10.157      32.864
2015   12       17     8   0    4.9511   360.2   10.157      32.875
2015   12       17     8   7    4.9524   360.3   10.157      32.886
2015   12       17     8  13    4.9536   360.3   10.157      32.897
2015   12       17     8  20    4.9548   360.3   10.156      32.907
2015   12       17     8  26    4.9560   360.4   10.156      32.918
2015   12       17     8  32    4.9572   360.4   10.156      32.928
2015   12       17     8  39    4.9584   360.4   10.155      32.938
2015   12       17     8  45    4.9596   360.5   10.155      32.948
2015   12       17     8  51    4.9607   360.5   10.154      32.958
2015   12       17     8  58    4.9619   360.6   10.154      32.968
2015   12       17     9   4    4.9630   360.6   10.153      32.977
2015   12       17     9  10    4.9641   360.6   10.153      32.987
2015   12       17     9  17    4.9652   360.7   10.152      32.996
2015   12       17     9  23    4.9663   360.7   10.152      33.005
2015   12       17     9  29    4.9674   360.8   10.151      33.014
2015   12       17     9  36    4.9685   360.8   10.150      33.023
2015   12       17     9  42    4.9696   360.8   10.150      33.032
2015   12       17     9  49    4.9707   360.9   10.149      33.041
2015   12       17     9  55    4.9718   360.9   10.149      33.050
2015   12       17    10   1    4.9728   360.9   10.148      33.058
2015   12       17    10   8    4.9739   361.0   10.147      33.067
2015   12       17    10  14    4.9749   361.0   10.147      33.075
2015   12       17    10  20    4.9759   361.1   10.146      33.084
2015   12       17    10  27    4.9770   361.1   10.146      33.092
2015   12       17    10  33    4.9780   361.1   10.145      33.100
2015   12       17    10  39    4.9790   361.2   10.145      33.109
2015   12       17    10  46    4.9800   361.2   10.144      33.117
2015   12       17    10  52    4.9810   361.2   10.144      33.125
2015   12       17    10  58    4.9820   361.3   10.144      33.133
2015   12       17    11   5    4.9829   361.3   10.143      33.141
2015   12       17    11  11    4.9839   361.4   10.143      33.149
2015   12       17    11  17    4.9849   361.4   10.143      33.157
2015   12       17    11  24    4.9858   361.4   10.143      33.165
2015   12       17    11  30    4.9868   361.5   10.143      33.173
2015   12       17    11  37    4.9878   361.5   10.143      33.181
2015   12       17    11  43    4.9887   361.5   10.143      33.189
2015   12       17    11  49    4.9897   361.6   10.143      33.197
2015   12       17    11  56    4.9906   361.6   10.143      33.204
2015   12       17    12   2    4.9916   361.7   10.143      33.212
2015   12       17    12   8    4.9925   361.7   10.144      33.220
2015   12       17    12  15    4.9935   361.7   10.144      33.228
2015   12       17    12  21    4.9945   361.8   10.145      33.236
2015   12       17    12  27    4.9954   361.8   10.146      33.245
2015   12       17    12  34    4.9964   361.8   10.147      33.253
2015   12       17    12  40    4.9974   361.9   10.148      33.261
2015   12       17    12  46    4.9984   361.9   10.149      33.270
2015   12       17    12  53    4.9994   361.9   10.150      33.278
2015   12       17    12  59    5.0004   362.0   10.151      33.288
2015   12       17    13   6    5.0014   362.0   10.152      33.297
2015   12       17    13  12    5.0023   362.1   10.153      33.308
2015   12       17    13  18    5.0033   362.1   10.155      33.318
2015   12       17    13  25    5.0043   362.1   10.156      33.329
2015   12       17    13  31    5.0053   362.2   10.157      33.340
2015   12       17    13  37    5.0064   362.2   10.159      33.352
2015   12       17    13  44    5.0073   362.3   10.160      33.364
2015   12       17    13  50    5.0084   362.3   10.161      33.375
2015   12       17    13  56    5.0094   362.3   10.163      33.387
2015   12       17    14   3    5.0103   362.4   10.164      33.398
2015   12       17    14   9    5.0113   362.4   10.165      33.411
2015   12       17    14  15    5.0123   362.5   10.167      33.423
2015   12       17    14  22    5.0132   362.5   10.168      33.436
2015   12       17    14  28    5.0141   362.5   10.169      33.449
2015   12       17    14  35    5.0150   362.6   10.170      33.463
2015   12       17    14  41    5.0159   362.6   10.171      33.477
2015   12       17    14  47    5.0167   362.7   10.171      33.491
2015   12       17    14  54    5.0176   362.7   10.172      33.505
2015   12       17    15   0    5.0184   362.8   10.172      33.518
2015   12       17    15   6    5.0191   362.8   10.172      33.532
2015   12       17    15  13    5.0199   362.9   10.172      33.544
2015   12       17    15  19    5.0206   362.9   10.172      33.557
2015   12       17    15  25    5.0213   362.9   10.172      33.569
2015   12       17    15  32    5.0220   363.0   10.171      33.581
2015   12       17    15  38    5.0227   363.0   10.171      33.593
2015   12       17    15  44    5.0233   363.1   10.170      33.605
2015   12       17    15  51    5.0240   363.1   10.170      33.616
2015   12       17    15  57    5.0246   363.2   10.169      33.627
2015   12       17    16   3    5.0252   363.2   10.168      33.637
2015   12       17    16  10    5.0258   363.3   10.167      33.648
2015   12       17    16  16    5.0264   363.3   10.166      33.658
2015   12       17    16  23    5.0270   363.3   10.165      33.668
2015   12       17    16  29    5.0275   363.4   10.163      33.677
2015   12       17    16  35    5.0281   363.4   10.162      33.687
2015   12       17    16  42    5.0286   363.5   10.161      33.696
2015   12       17    16  48    5.0292   363.5   10.159      33.705
2015   12       17    16  54    5.0297   363.6   10.158      33.714
2015   12       17    17   1    5.0302   363.6   10.156      33.722
2015   12       17    17   7    5.0307   363.6   10.155      33.731
2015   12       17    17  13    5.0312   363.7   10.153      33.739
2015   12       17    17  20    5.0317   363.7   10.151      33.747
2015   12       17    17  26    5.0322   363.8   10.150      33.755
2015   12       17    17  32    5.0327   363.8   10.148      33.763
2015   12       17    17  39    5.0331   363.9   10.146      33.770
2015   12       17    17  45    5.0336   363.9   10.144      33.778
2015   12       17    17  52    5.0340   363.9   10.143      33.785
2015   12       17    17  58    5.0345   364.0   10.141      33.792
2015   12       17    18   4    5.0349   364.0   10.139      33.799
2015   12       17    18  11    5.0354   364.1   10.137      33.806
2015   12       17    18  17    5.0358   364.1   10.135      33.812
2015   12       17    18  23    5.0362   364.2   10.133      33.819
2015   12       17    18  30    5.0367   364.2   10.131      33.825
2015   12       17    18  36    5.0371   364.2   10.129      33.832
2015   12       17    18  42    5.0375   364.3   10.127      33.838
2015   12       17    18  49    5.0379   364.3   10.125      33.844
2015   12       17    18  55    5.0383   364.4   10.124      33.850
2015   12       17    19   1    5.0387   364.4   10.122      33.856
2015   12       17    19   8    5.0391   364.4   10.120      33.862
2015   12       17    19  14    5.0395   364.5   10.118      33.868
2015   12       17    19  21    5.0399   364.5   10.116      33.873
2015   12       17    19  27    5.0403   364.6   10.114      33.879
2015   12       17    19  33    5.0407   364.6   10.113      33.885
2015   12       17    19  40    5.0411   364.7   10.111      33.890
2015   12       17    19  46    5.0415   364.7   10.109      33.896
2015   12       17    19  52    5.0419   364.7   10.108      33.901
2015   12       17    19  59    5.0424   364.8   10.106      33.907
2015   12       17    20   5    5.0428   364.8   10.105      33.913
2015   12       17    20  11    5.0432   364.9   10.104      33.918
2015   12       17    20  18    5.0436   364.9   10.102      33.924
2015   12       17    20  24    5.0440   364.9   10.101      33.929
2015   12       17    20  30    5.0445   365.0   10.100      33.935
2015   12       17    20  37    5.0449   365.0   10.099      33.941
2015   12       17    20  43    5.0454   365.1   10.098      33.947
2015   12       17    20  50    5.0458   365.1   10.097      33.952
2015   12       17    20  56    5.0463   365.2   10.097      33.958
2015   12       17    21   2    5.0467   365.2   10.096      33.964
2015   12       17    21   9    5.0472   365.2   10.095      33.970
2015   12       17    21  15    5.0476   365.3   10.095      33.977
2015   12       17    21  21    5.0480   365.3   10.094      33.984
2015   12       17    21  28    5.0484   365.4   10.094      33.992
2015   12       17    21  34    5.0488   365.4   10.093      34.000
2015   12       17    21  40    5.0492   365.5   10.092      34.008
2015   12       17    21  47    5.0495   365.5   10.091      34.017
2015   12       17    21  53    5.0498   365.6   10.091      34.026
2015   12       17    21  59    5.0501   365.6   10.089      34.035
2015   12       17    22   6    5.0503   365.7   10.088      34.044
2015   12       17    22  12    5.0506   365.7   10.087      34.053
2015   12       17    22  18    5.0508   365.8   10.086      34.061
2015   12       17    22  25    5.0510   365.8   10.084      34.070
2015   12       17    22  31    5.0512   365.9   10.083      34.078
2015   12       17    22  38    5.0513   365.9   10.081      34.086
2015   12       17    22  44    5.0515   366.0   10.080      34.094
2015   12       17    22  50    5.0516   366.0   10.078      34.101
2015   12       17    22  57    5.0517   366.1   10.076      34.109
2015   12       17    23   3    5.0518   366.1   10.074      34.116
2015   12       17    23   9    5.0519   366.2   10.072      34.123
2015   12       17    23  16    5.0519   366.2   10.070      34.131
2015   12       17    23  22    5.0520   366.3   10.068      34.138
2015   12       17    23  28    5.0520   366.3   10.065      34.144
2015   12       17    23  35    5.0520   366.4   10.063      34.151
2015   12       17    23  41    5.0521   366.4   10.061      34.157
2015   12       17    23  47    5.0521   366.5   10.058      34.164
2015   12       17    23  54    5.0521   366.5   10.056      34.170
2015   12       18     0   0    5.0521   366.5   10.053      34.176
