year    month   day   hour  minute  B_enl V_enl   n_enl       T_enl
[year] [month] [day] [hour][minute] [nT]  [km/s]  [cm-3]      [kK]
2015   12       13     0   4    3.4294   569.0    3.275      50.563
2015   12       13     0  10    3.4267   568.8    3.275      50.492
2015   12       13     0  16    3.4240   568.5    3.274      50.421
2015   12       13     0  22    3.4213   568.2    3.273      50.350
2015   12       13     0  28    3.4186   568.0    3.273      50.279
2015   12       13     0  35    3.4159   567.7    3.272      50.209
2015   12       13     0  41    3.4133   567.4    3.271      50.138
2015   12       13     0  47    3.4106   567.1    3.271      50.068
2015   12       13     0  53    3.4080   566.9    3.270      49.998
2015   12       13     0  59    3.4053   566.6    3.270      49.928
2015   12       13     1   5    3.4028   566.3    3.270      49.858
2015   12       13     1  11    3.4002   566.0    3.269      49.788
2015   12       13     1  17    3.3976   565.7    3.269      49.719
2015   12       13     1  24    3.3950   565.5    3.269      49.651
2015   12       13     1  30    3.3925   565.2    3.269      49.583
2015   12       13     1  36    3.3900   564.9    3.269      49.515
2015   12       13     1  42    3.3875   564.6    3.269      49.448
2015   12       13     1  48    3.3850   564.3    3.269      49.381
2015   12       13     1  54    3.3825   564.0    3.269      49.315
2015   12       13     2   0    3.3800   563.7    3.269      49.249
2015   12       13     2   6    3.3776   563.4    3.270      49.184
2015   12       13     2  12    3.3752   563.1    3.270      49.120
2015   12       13     2  19    3.3727   562.8    3.271      49.056
2015   12       13     2  25    3.3703   562.5    3.271      48.993
2015   12       13     2  31    3.3679   562.2    3.272      48.930
2015   12       13     2  37    3.3655   561.9    3.272      48.868
2015   12       13     2  43    3.3632   561.6    3.273      48.806
2015   12       13     2  49    3.3608   561.4    3.274      48.745
2015   12       13     2  55    3.3585   561.1    3.275      48.685
2015   12       13     3   1    3.3561   560.8    3.276      48.625
2015   12       13     3   8    3.3538   560.5    3.277      48.565
2015   12       13     3  14    3.3515   560.2    3.278      48.506
2015   12       13     3  20    3.3492   559.9    3.278      48.447
2015   12       13     3  26    3.3469   559.6    3.279      48.388
2015   12       13     3  32    3.3445   559.3    3.280      48.329
2015   12       13     3  38    3.3422   558.9    3.281      48.270
2015   12       13     3  44    3.3399   558.6    3.282      48.211
2015   12       13     3  50    3.3376   558.3    3.283      48.151
2015   12       13     3  56    3.3353   558.0    3.284      48.091
2015   12       13     4   3    3.3330   557.7    3.285      48.031
2015   12       13     4   9    3.3306   557.4    3.286      47.970
2015   12       13     4  15    3.3283   557.1    3.287      47.908
2015   12       13     4  21    3.3260   556.8    3.288      47.847
2015   12       13     4  27    3.3237   556.5    3.289      47.785
2015   12       13     4  33    3.3214   556.2    3.290      47.722
2015   12       13     4  39    3.3190   555.9    3.291      47.660
2015   12       13     4  45    3.3167   555.6    3.292      47.596
2015   12       13     4  51    3.3144   555.3    3.292      47.532
2015   12       13     4  58    3.3121   555.0    3.293      47.468
2015   12       13     5   4    3.3098   554.6    3.294      47.404
2015   12       13     5  10    3.3075   554.3    3.295      47.338
2015   12       13     5  16    3.3053   554.0    3.295      47.273
2015   12       13     5  22    3.3030   553.7    3.296      47.207
2015   12       13     5  28    3.3007   553.4    3.297      47.140
2015   12       13     5  34    3.2985   553.1    3.297      47.074
2015   12       13     5  40    3.2963   552.8    3.298      47.007
2015   12       13     5  46    3.2940   552.4    3.299      46.939
2015   12       13     5  53    3.2918   552.1    3.299      46.872
2015   12       13     5  59    3.2896   551.8    3.300      46.804
2015   12       13     6   5    3.2874   551.5    3.301      46.736
2015   12       13     6  11    3.2853   551.2    3.301      46.669
2015   12       13     6  17    3.2831   550.8    3.302      46.600
2015   12       13     6  23    3.2810   550.5    3.303      46.532
2015   12       13     6  29    3.2789   550.2    3.303      46.464
2015   12       13     6  35    3.2768   549.9    3.304      46.396
2015   12       13     6  42    3.2747   549.6    3.305      46.328
2015   12       13     6  48    3.2726   549.2    3.306      46.261
2015   12       13     6  54    3.2706   548.9    3.306      46.193
2015   12       13     7   0    3.2685   548.6    3.307      46.125
2015   12       13     7   6    3.2665   548.3    3.308      46.057
2015   12       13     7  12    3.2644   547.9    3.309      45.989
2015   12       13     7  18    3.2624   547.6    3.309      45.921
2015   12       13     7  24    3.2604   547.3    3.310      45.854
2015   12       13     7  30    3.2583   546.9    3.311      45.786
2015   12       13     7  37    3.2563   546.6    3.312      45.719
2015   12       13     7  43    3.2543   546.3    3.312      45.651
2015   12       13     7  49    3.2523   545.9    3.313      45.583
2015   12       13     7  55    3.2503   545.6    3.314      45.515
2015   12       13     8   1    3.2483   545.3    3.315      45.446
2015   12       13     8   7    3.2464   544.9    3.315      45.377
2015   12       13     8  13    3.2444   544.6    3.316      45.308
2015   12       13     8  19    3.2424   544.2    3.317      45.239
2015   12       13     8  26    3.2404   543.9    3.318      45.170
2015   12       13     8  32    3.2385   543.5    3.318      45.101
2015   12       13     8  38    3.2365   543.2    3.319      45.032
2015   12       13     8  44    3.2346   542.9    3.320      44.963
2015   12       13     8  50    3.2326   542.5    3.320      44.894
2015   12       13     8  56    3.2307   542.2    3.321      44.824
2015   12       13     9   2    3.2288   541.8    3.322      44.754
2015   12       13     9   8    3.2269   541.5    3.323      44.684
2015   12       13     9  15    3.2250   541.1    3.323      44.614
2015   12       13     9  21    3.2232   540.8    3.324      44.545
2015   12       13     9  27    3.2213   540.4    3.325      44.475
2015   12       13     9  33    3.2195   540.0    3.326      44.406
2015   12       13     9  39    3.2176   539.7    3.327      44.337
2015   12       13     9  45    3.2158   539.3    3.328      44.269
2015   12       13     9  51    3.2140   539.0    3.329      44.201
2015   12       13     9  57    3.2122   538.6    3.330      44.133
2015   12       13    10   3    3.2105   538.2    3.331      44.066
2015   12       13    10  10    3.2087   537.9    3.332      43.999
2015   12       13    10  16    3.2070   537.5    3.333      43.933
2015   12       13    10  22    3.2053   537.1    3.335      43.866
2015   12       13    10  28    3.2036   536.8    3.336      43.801
2015   12       13    10  34    3.2019   536.4    3.337      43.735
2015   12       13    10  40    3.2002   536.0    3.339      43.670
2015   12       13    10  46    3.1986   535.7    3.340      43.605
2015   12       13    10  52    3.1969   535.3    3.342      43.541
2015   12       13    10  58    3.1953   534.9    3.344      43.476
2015   12       13    11   5    3.1937   534.5    3.345      43.412
2015   12       13    11  11    3.1921   534.2    3.347      43.348
2015   12       13    11  17    3.1905   533.8    3.349      43.284
2015   12       13    11  23    3.1889   533.4    3.351      43.220
2015   12       13    11  29    3.1874   533.0    3.353      43.156
2015   12       13    11  35    3.1859   532.7    3.355      43.093
2015   12       13    11  41    3.1844   532.3    3.357      43.029
2015   12       13    11  47    3.1829   531.9    3.359      42.966
2015   12       13    11  53    3.1814   531.5    3.362      42.903
2015   12       13    12   0    3.1800   531.1    3.364      42.840
2015   12       13    12   6    3.1785   530.7    3.366      42.778
2015   12       13    12  12    3.1772   530.3    3.369      42.715
2015   12       13    12  18    3.1758   530.0    3.371      42.653
2015   12       13    12  24    3.1745   529.6    3.374      42.591
2015   12       13    12  30    3.1731   529.2    3.377      42.529
2015   12       13    12  36    3.1719   528.8    3.379      42.468
2015   12       13    12  42    3.1706   528.4    3.382      42.407
2015   12       13    12  49    3.1694   528.0    3.385      42.346
2015   12       13    12  55    3.1681   527.6    3.388      42.285
2015   12       13    13   1    3.1670   527.2    3.391      42.225
2015   12       13    13   7    3.1658   526.8    3.394      42.165
2015   12       13    13  13    3.1647   526.4    3.398      42.105
2015   12       13    13  19    3.1636   526.0    3.401      42.046
2015   12       13    13  25    3.1625   525.6    3.404      41.987
2015   12       13    13  31    3.1615   525.2    3.408      41.929
2015   12       13    13  37    3.1605   524.8    3.411      41.870
2015   12       13    13  44    3.1595   524.4    3.414      41.813
2015   12       13    13  50    3.1586   524.0    3.418      41.755
2015   12       13    13  56    3.1576   523.6    3.422      41.699
2015   12       13    14   2    3.1567   523.2    3.425      41.642
2015   12       13    14   8    3.1559   522.8    3.429      41.586
2015   12       13    14  14    3.1550   522.4    3.433      41.530
2015   12       13    14  20    3.1542   521.9    3.437      41.475
2015   12       13    14  26    3.1534   521.5    3.440      41.420
2015   12       13    14  33    3.1526   521.1    3.444      41.366
2015   12       13    14  39    3.1519   520.7    3.448      41.312
2015   12       13    14  45    3.1512   520.3    3.452      41.259
2015   12       13    14  51    3.1505   519.9    3.456      41.206
2015   12       13    14  57    3.1498   519.5    3.461      41.153
2015   12       13    15   3    3.1492   519.1    3.465      41.100
2015   12       13    15   9    3.1486   518.7    3.469      41.048
2015   12       13    15  15    3.1481   518.3    3.473      40.996
2015   12       13    15  21    3.1476   517.9    3.477      40.944
2015   12       13    15  28    3.1471   517.4    3.482      40.892
2015   12       13    15  34    3.1467   517.0    3.486      40.840
2015   12       13    15  40    3.1463   516.6    3.491      40.789
2015   12       13    15  46    3.1460   516.2    3.495      40.738
2015   12       13    15  52    3.1456   515.8    3.499      40.688
2015   12       13    15  58    3.1454   515.4    3.504      40.637
2015   12       13    16   4    3.1452   515.0    3.509      40.587
2015   12       13    16  10    3.1449   514.6    3.513      40.536
2015   12       13    16  17    3.1448   514.2    3.518      40.485
2015   12       13    16  23    3.1447   513.8    3.522      40.435
2015   12       13    16  29    3.1446   513.3    3.527      40.384
2015   12       13    16  35    3.1446   512.9    3.532      40.333
2015   12       13    16  41    3.1446   512.5    3.536      40.282
2015   12       13    16  47    3.1446   512.1    3.541      40.231
2015   12       13    16  53    3.1446   511.7    3.546      40.181
2015   12       13    16  59    3.1447   511.3    3.551      40.130
2015   12       13    17   5    3.1448   510.9    3.555      40.078
2015   12       13    17  12    3.1450   510.5    3.560      40.027
2015   12       13    17  18    3.1452   510.1    3.565      39.976
2015   12       13    17  24    3.1453   509.7    3.570      39.925
2015   12       13    17  30    3.1456   509.3    3.575      39.873
2015   12       13    17  36    3.1458   508.9    3.579      39.821
2015   12       13    17  42    3.1461   508.5    3.584      39.769
2015   12       13    17  48    3.1464   508.1    3.589      39.717
2015   12       13    17  54    3.1468   507.7    3.594      39.664
2015   12       13    18   1    3.1471   507.2    3.599      39.612
2015   12       13    18   7    3.1475   506.8    3.604      39.559
2015   12       13    18  13    3.1479   506.4    3.609      39.507
2015   12       13    18  19    3.1484   506.0    3.614      39.454
2015   12       13    18  25    3.1489   505.6    3.619      39.401
2015   12       13    18  31    3.1495   505.2    3.624      39.349
2015   12       13    18  37    3.1500   504.8    3.630      39.296
2015   12       13    18  43    3.1506   504.4    3.635      39.244
2015   12       13    18  49    3.1513   504.0    3.640      39.192
2015   12       13    18  56    3.1520   503.6    3.646      39.140
2015   12       13    19   2    3.1527   503.2    3.651      39.088
2015   12       13    19   8    3.1535   502.8    3.657      39.037
2015   12       13    19  14    3.1543   502.4    3.663      38.986
2015   12       13    19  20    3.1552   502.0    3.669      38.935
2015   12       13    19  26    3.1561   501.6    3.675      38.885
2015   12       13    19  32    3.1571   501.2    3.681      38.836
2015   12       13    19  38    3.1581   500.8    3.687      38.786
2015   12       13    19  44    3.1592   500.4    3.693      38.737
2015   12       13    19  51    3.1603   500.0    3.699      38.689
2015   12       13    19  57    3.1614   499.6    3.706      38.641
2015   12       13    20   3    3.1627   499.2    3.712      38.593
2015   12       13    20   9    3.1639   498.8    3.719      38.546
2015   12       13    20  15    3.1652   498.4    3.726      38.500
2015   12       13    20  21    3.1666   498.0    3.733      38.454
2015   12       13    20  27    3.1680   497.6    3.739      38.408
2015   12       13    20  33    3.1695   497.2    3.746      38.362
2015   12       13    20  39    3.1710   496.8    3.754      38.318
2015   12       13    20  46    3.1726   496.4    3.761      38.273
2015   12       13    20  52    3.1742   496.0    3.768      38.229
2015   12       13    20  58    3.1758   495.6    3.775      38.185
2015   12       13    21   4    3.1775   495.2    3.783      38.142
2015   12       13    21  10    3.1793   494.8    3.791      38.099
2015   12       13    21  16    3.1811   494.4    3.798      38.056
2015   12       13    21  22    3.1830   494.0    3.806      38.014
2015   12       13    21  28    3.1849   493.6    3.814      37.972
2015   12       13    21  34    3.1869   493.3    3.822      37.931
2015   12       13    21  40    3.1890   492.9    3.830      37.890
2015   12       13    21  47    3.1911   492.5    3.838      37.849
2015   12       13    21  53    3.1932   492.1    3.846      37.809
2015   12       13    21  59    3.1955   491.7    3.855      37.770
2015   12       13    22   5    3.1978   491.3    3.863      37.732
2015   12       13    22  11    3.2002   490.9    3.872      37.694
2015   12       13    22  17    3.2026   490.5    3.881      37.656
2015   12       13    22  23    3.2051   490.1    3.890      37.620
2015   12       13    22  29    3.2077   489.7    3.899      37.584
2015   12       13    22  35    3.2104   489.4    3.908      37.548
2015   12       13    22  42    3.2131   489.0    3.918      37.514
2015   12       13    22  48    3.2159   488.6    3.928      37.480
2015   12       13    22  54    3.2188   488.2    3.937      37.447
2015   12       13    23   0    3.2218   487.8    3.947      37.415
2015   12       13    23   6    3.2248   487.5    3.958      37.384
2015   12       13    23  12    3.2279   487.1    3.968      37.354
2015   12       13    23  18    3.2310   486.7    3.978      37.325
2015   12       13    23  24    3.2343   486.4    3.989      37.296
2015   12       13    23  30    3.2376   486.0    4.000      37.269
2015   12       13    23  37    3.2410   485.7    4.011      37.242
2015   12       13    23  43    3.2443   485.3    4.021      37.217
2015   12       13    23  49    3.2478   485.0    4.032      37.193
2015   12       13    23  55    3.2513   484.6    4.044      37.169
2015   12       14     0   1    3.2549   484.3    4.055      37.147
2015   12       14     0   7    3.2585   483.9    4.066      37.125
2015   12       14     0  13    3.2622   483.6    4.077      37.104
2015   12       14     0  19    3.2659   483.3    4.089      37.083
2015   12       14     0  25    3.2697   482.9    4.100      37.062
2015   12       14     0  31    3.2735   482.6    4.112      37.042
2015   12       14     0  38    3.2773   482.3    4.123      37.022
2015   12       14     0  44    3.2812   482.0    4.134      37.003
2015   12       14     0  50    3.2851   481.6    4.146      36.983
2015   12       14     0  56    3.2890   481.3    4.157      36.964
2015   12       14     1   2    3.2930   481.0    4.169      36.945
2015   12       14     1   8    3.2969   480.7    4.180      36.925
2015   12       14     1  14    3.3010   480.4    4.192      36.906
2015   12       14     1  20    3.3050   480.1    4.203      36.887
2015   12       14     1  26    3.3091   479.8    4.215      36.868
2015   12       14     1  33    3.3132   479.5    4.226      36.849
2015   12       14     1  39    3.3173   479.2    4.237      36.829
2015   12       14     1  45    3.3215   478.9    4.248      36.810
2015   12       14     1  51    3.3257   478.6    4.260      36.791
2015   12       14     1  57    3.3299   478.3    4.271      36.772
2015   12       14     2   3    3.3342   478.0    4.282      36.753
2015   12       14     2   9    3.3385   477.7    4.293      36.734
2015   12       14     2  15    3.3429   477.4    4.304      36.715
2015   12       14     2  22    3.3472   477.1    4.315      36.697
2015   12       14     2  28    3.3517   476.8    4.326      36.679
2015   12       14     2  34    3.3562   476.5    4.337      36.661
2015   12       14     2  40    3.3607   476.2    4.349      36.643
2015   12       14     2  46    3.3653   476.0    4.360      36.626
2015   12       14     2  52    3.3699   475.7    4.371      36.609
2015   12       14     2  58    3.3746   475.4    4.382      36.592
2015   12       14     3   4    3.3794   475.1    4.393      36.576
2015   12       14     3  10    3.3841   474.9    4.404      36.561
2015   12       14     3  17    3.3889   474.6    4.415      36.546
2015   12       14     3  23    3.3938   474.3    4.427      36.531
2015   12       14     3  29    3.3987   474.1    4.438      36.518
2015   12       14     3  35    3.4037   473.8    4.449      36.505
2015   12       14     3  41    3.4087   473.5    4.461      36.492
2015   12       14     3  47    3.4137   473.3    4.472      36.480
2015   12       14     3  53    3.4188   473.0    4.484      36.469
2015   12       14     3  59    3.4240   472.8    4.495      36.459
2015   12       14     4   5    3.4291   472.5    4.507      36.450
2015   12       14     4  12    3.4343   472.3    4.519      36.441
2015   12       14     4  18    3.4396   472.0    4.531      36.432
2015   12       14     4  24    3.4449   471.8    4.543      36.425
2015   12       14     4  30    3.4503   471.5    4.555      36.418
2015   12       14     4  36    3.4556   471.3    4.567      36.412
2015   12       14     4  42    3.4611   471.1    4.579      36.407
2015   12       14     4  48    3.4665   470.8    4.592      36.402
2015   12       14     4  54    3.4720   470.6    4.604      36.398
2015   12       14     5   1    3.4775   470.4    4.617      36.395
2015   12       14     5   7    3.4831   470.1    4.630      36.393
2015   12       14     5  13    3.4886   469.9    4.642      36.391
2015   12       14     5  19    3.4943   469.7    4.655      36.390
2015   12       14     5  25    3.4999   469.5    4.668      36.390
2015   12       14     5  31    3.5056   469.2    4.682      36.390
2015   12       14     5  37    3.5113   469.0    4.695      36.391
2015   12       14     5  43    3.5171   468.8    4.708      36.392
2015   12       14     5  49    3.5229   468.6    4.722      36.395
2015   12       14     5  56    3.5287   468.4    4.736      36.398
2015   12       14     6   2    3.5345   468.2    4.750      36.401
2015   12       14     6   8    3.5404   468.0    4.764      36.405
2015   12       14     6  14    3.5464   467.8    4.778      36.410
2015   12       14     6  20    3.5523   467.6    4.792      36.416
2015   12       14     6  26    3.5583   467.4    4.806      36.422
2015   12       14     6  32    3.5643   467.2    4.821      36.429
2015   12       14     6  38    3.5703   467.0    4.835      36.436
2015   12       14     6  45    3.5764   466.8    4.850      36.444
2015   12       14     6  51    3.5825   466.7    4.865      36.454
2015   12       14     6  57    3.5886   466.5    4.879      36.464
2015   12       14     7   3    3.5947   466.3    4.894      36.475
2015   12       14     7   9    3.6008   466.1    4.909      36.488
2015   12       14     7  15    3.6070   466.0    4.924      36.501
2015   12       14     7  21    3.6132   465.8    4.939      36.515
2015   12       14     7  27    3.6194   465.6    4.954      36.530
2015   12       14     7  33    3.6256   465.5    4.968      36.546
2015   12       14     7  40    3.6318   465.3    4.983      36.562
2015   12       14     7  46    3.6380   465.1    4.998      36.579
2015   12       14     7  52    3.6443   465.0    5.013      36.596
2015   12       14     7  58    3.6505   464.8    5.028      36.614
2015   12       14     8   4    3.6568   464.7    5.042      36.632
2015   12       14     8  10    3.6631   464.5    5.057      36.650
2015   12       14     8  16    3.6694   464.4    5.072      36.668
2015   12       14     8  22    3.6757   464.2    5.086      36.686
2015   12       14     8  28    3.6819   464.1    5.101      36.704
2015   12       14     8  35    3.6883   464.0    5.116      36.722
2015   12       14     8  41    3.6946   463.8    5.130      36.740
2015   12       14     8  47    3.7009   463.7    5.145      36.758
2015   12       14     8  53    3.7073   463.5    5.159      36.776
2015   12       14     8  59    3.7136   463.4    5.174      36.794
2015   12       14     9   5    3.7200   463.3    5.188      36.812
2015   12       14     9  11    3.7264   463.1    5.202      36.830
2015   12       14     9  17    3.7328   463.0    5.217      36.848
2015   12       14     9  23    3.7392   462.9    5.231      36.866
2015   12       14     9  30    3.7457   462.7    5.245      36.884
2015   12       14     9  36    3.7522   462.6    5.260      36.903
2015   12       14     9  42    3.7587   462.5    5.274      36.922
2015   12       14     9  48    3.7653   462.4    5.289      36.941
2015   12       14     9  54    3.7718   462.2    5.303      36.960
2015   12       14    10   0    3.7784   462.1    5.318      36.980
2015   12       14    10   6    3.7851   462.0    5.332      37.002
2015   12       14    10  12    3.7917   461.9    5.346      37.025
2015   12       14    10  18    3.7983   461.8    5.361      37.049
2015   12       14    10  25    3.8050   461.7    5.375      37.075
2015   12       14    10  31    3.8117   461.6    5.389      37.102
2015   12       14    10  37    3.8183   461.5    5.402      37.130
2015   12       14    10  43    3.8249   461.4    5.416      37.159
2015   12       14    10  49    3.8316   461.3    5.430      37.187
2015   12       14    10  55    3.8382   461.2    5.443      37.216
2015   12       14    11   1    3.8448   461.1    5.456      37.245
2015   12       14    11   7    3.8514   461.0    5.469      37.273
2015   12       14    11  14    3.8580   461.0    5.482      37.302
2015   12       14    11  20    3.8646   460.9    5.495      37.331
2015   12       14    11  26    3.8712   460.8    5.508      37.360
2015   12       14    11  32    3.8778   460.7    5.520      37.389
2015   12       14    11  38    3.8843   460.6    5.533      37.418
2015   12       14    11  44    3.8909   460.6    5.545      37.447
2015   12       14    11  50    3.8974   460.5    5.558      37.476
2015   12       14    11  56    3.9039   460.4    5.570      37.505
2015   12       14    12   2    3.9104   460.4    5.582      37.533
2015   12       14    12   9    3.9169   460.3    5.594      37.562
2015   12       14    12  15    3.9233   460.2    5.606      37.591
2015   12       14    12  21    3.9298   460.2    5.618      37.620
2015   12       14    12  27    3.9362   460.1    5.630      37.649
2015   12       14    12  33    3.9426   460.0    5.642      37.679
2015   12       14    12  39    3.9490   460.0    5.654      37.708
2015   12       14    12  45    3.9554   459.9    5.665      37.737
2015   12       14    12  51    3.9618   459.9    5.677      37.767
2015   12       14    12  57    3.9682   459.8    5.689      37.797
2015   12       14    13   4    3.9745   459.8    5.700      37.827
2015   12       14    13  10    3.9808   459.7    5.712      37.857
2015   12       14    13  16    3.9871   459.7    5.723      37.887
2015   12       14    13  22    3.9934   459.6    5.735      37.918
2015   12       14    13  28    3.9997   459.6    5.746      37.949
2015   12       14    13  34    4.0060   459.5    5.758      37.980
2015   12       14    13  40    4.0122   459.5    5.769      38.011
2015   12       14    13  46    4.0185   459.5    5.781      38.042
2015   12       14    13  53    4.0247   459.4    5.792      38.074
2015   12       14    13  59    4.0309   459.4    5.804      38.106
2015   12       14    14   5    4.0371   459.3    5.815      38.139
2015   12       14    14  11    4.0433   459.3    5.826      38.172
2015   12       14    14  17    4.0495   459.3    5.838      38.206
2015   12       14    14  23    4.0556   459.2    5.849      38.240
2015   12       14    14  29    4.0617   459.2    5.861      38.275
2015   12       14    14  35    4.0678   459.2    5.872      38.311
2015   12       14    14  41    4.0740   459.1    5.883      38.347
2015   12       14    14  48    4.0801   459.1    5.895      38.385
2015   12       14    14  54    4.0861   459.1    5.906      38.423
2015   12       14    15   0    4.0922   459.0    5.917      38.462
2015   12       14    15   6    4.0983   459.0    5.929      38.502
2015   12       14    15  12    4.1044   459.0    5.940      38.543
2015   12       14    15  18    4.1104   459.0    5.952      38.584
2015   12       14    15  24    4.1165   458.9    5.963      38.627
2015   12       14    15  30    4.1225   458.9    5.975      38.670
2015   12       14    15  36    4.1285   458.9    5.986      38.714
2015   12       14    15  43    4.1346   458.9    5.998      38.759
2015   12       14    15  49    4.1406   458.9    6.009      38.804
2015   12       14    15  55    4.1467   458.9    6.020      38.849
2015   12       14    16   1    4.1527   458.9    6.032      38.894
2015   12       14    16   7    4.1588   458.9    6.043      38.939
2015   12       14    16  13    4.1648   458.8    6.054      38.984
2015   12       14    16  19    4.1708   458.8    6.065      39.028
2015   12       14    16  25    4.1768   458.8    6.077      39.072
2015   12       14    16  31    4.1828   458.8    6.088      39.117
2015   12       14    16  38    4.1887   458.8    6.099      39.161
2015   12       14    16  44    4.1947   458.8    6.110      39.205
2015   12       14    16  50    4.2007   458.8    6.122      39.249
2015   12       14    16  56    4.2067   458.8    6.133      39.294
2015   12       14    17   2    4.2126   458.8    6.144      39.339
2015   12       14    17   8    4.2186   458.8    6.155      39.384
2015   12       14    17  14    4.2246   458.8    6.166      39.430
2015   12       14    17  20    4.2305   458.9    6.177      39.477
2015   12       14    17  26    4.2365   458.9    6.188      39.526
2015   12       14    17  33    4.2424   458.9    6.199      39.575
2015   12       14    17  39    4.2483   458.9    6.209      39.626
2015   12       14    17  45    4.2542   458.9    6.220      39.677
2015   12       14    17  51    4.2600   459.0    6.229      39.728
2015   12       14    17  57    4.2659   459.0    6.239      39.779
2015   12       14    18   3    4.2717   459.0    6.249      39.830
2015   12       14    18   9    4.2774   459.0    6.258      39.880
2015   12       14    18  15    4.2831   459.1    6.267      39.929
2015   12       14    18  22    4.2888   459.1    6.276      39.978
2015   12       14    18  28    4.2945   459.1    6.285      40.026
2015   12       14    18  34    4.3002   459.2    6.293      40.074
2015   12       14    18  40    4.3058   459.2    6.301      40.121
2015   12       14    18  46    4.3114   459.2    6.309      40.168
2015   12       14    18  52    4.3169   459.3    6.317      40.213
2015   12       14    18  58    4.3225   459.3    6.325      40.258
2015   12       14    19   4    4.3280   459.3    6.333      40.303
2015   12       14    19  10    4.3335   459.4    6.340      40.347
2015   12       14    19  17    4.3390   459.4    6.348      40.391
2015   12       14    19  23    4.3445   459.4    6.355      40.434
2015   12       14    19  29    4.3500   459.5    6.362      40.476
2015   12       14    19  35    4.3555   459.5    6.369      40.518
2015   12       14    19  41    4.3609   459.6    6.376      40.560
2015   12       14    19  47    4.3664   459.6    6.383      40.602
2015   12       14    19  53    4.3718   459.6    6.389      40.643
2015   12       14    19  59    4.3772   459.7    6.396      40.683
2015   12       14    20   5    4.3826   459.7    6.402      40.724
2015   12       14    20  12    4.3880   459.8    6.409      40.764
2015   12       14    20  18    4.3933   459.8    6.415      40.804
2015   12       14    20  24    4.3986   459.8    6.422      40.845
2015   12       14    20  30    4.4039   459.9    6.428      40.885
2015   12       14    20  36    4.4091   459.9    6.434      40.926
2015   12       14    20  42    4.4143   460.0    6.440      40.967
2015   12       14    20  48    4.4195   460.0    6.446      41.008
2015   12       14    20  54    4.4246   460.1    6.451      41.050
2015   12       14    21   1    4.4296   460.1    6.457      41.091
2015   12       14    21   7    4.4347   460.2    6.463      41.133
2015   12       14    21  13    4.4397   460.2    6.468      41.175
2015   12       14    21  19    4.4446   460.3    6.473      41.216
2015   12       14    21  25    4.4496   460.3    6.479      41.258
2015   12       14    21  31    4.4544   460.4    6.484      41.300
2015   12       14    21  37    4.4593   460.4    6.489      41.341
2015   12       14    21  43    4.4641   460.5    6.494      41.383
2015   12       14    21  49    4.4689   460.5    6.499      41.424
2015   12       14    21  56    4.4737   460.6    6.504      41.466
2015   12       14    22   2    4.4784   460.6    6.509      41.508
2015   12       14    22   8    4.4831   460.7    6.513      41.549
2015   12       14    22  14    4.4878   460.7    6.518      41.591
2015   12       14    22  20    4.4924   460.8    6.523      41.633
2015   12       14    22  26    4.4971   460.8    6.528      41.675
2015   12       14    22  32    4.5017   460.9    6.533      41.717
2015   12       14    22  38    4.5063   460.9    6.537      41.760
2015   12       14    22  44    4.5108   461.0    6.542      41.803
2015   12       14    22  51    4.5154   461.0    6.547      41.847
2015   12       14    22  57    4.5199   461.1    6.551      41.891
2015   12       14    23   3    4.5245   461.1    6.555      41.934
2015   12       14    23   9    4.5290   461.2    6.560      41.978
2015   12       14    23  15    4.5335   461.2    6.564      42.021
2015   12       14    23  21    4.5380   461.3    6.568      42.064
2015   12       14    23  27    4.5424   461.4    6.572      42.107
2015   12       14    23  33    4.5469   461.4    6.577      42.149
2015   12       14    23  39    4.5513   461.5    6.581      42.191
2015   12       14    23  46    4.5557   461.5    6.585      42.232
2015   12       14    23  52    4.5601   461.6    6.589      42.274
2015   12       14    23  58    4.5644   461.6    6.592      42.315
2015   12       15     0   4    4.5688   461.7    6.596      42.357
2015   12       15     0  10    4.5731   461.8    6.600      42.398
2015   12       15     0  16    4.5774   461.8    6.604      42.440
2015   12       15     0  22    4.5817   461.9    6.607      42.482
2015   12       15     0  28    4.5860   462.0    6.611      42.525
2015   12       15     0  34    4.5902   462.0    6.614      42.568
2015   12       15     0  41    4.5945   462.1    6.618      42.611
2015   12       15     0  47    4.5987   462.2    6.621      42.654
2015   12       15     0  53    4.6029   462.2    6.625      42.698
2015   12       15     0  59    4.6071   462.3    6.628      42.741
2015   12       15     1   5    4.6113   462.4    6.631      42.785
2015   12       15     1  11    4.6154   462.4    6.635      42.828
2015   12       15     1  17    4.6196   462.5    6.638      42.871
2015   12       15     1  23    4.6237   462.6    6.641      42.915
2015   12       15     1  29    4.6278   462.7    6.645      42.959
2015   12       15     1  36    4.6320   462.8    6.649      43.003
2015   12       15     1  42    4.6361   462.8    6.652      43.048
2015   12       15     1  48    4.6402   462.9    6.656      43.093
2015   12       15     1  54    4.6444   463.0    6.660      43.138
2015   12       15     2   0    4.6485   463.1    6.664      43.184
2015   12       15     2   6    4.6527   463.2    6.668      43.231
2015   12       15     2  12    4.6569   463.2    6.673      43.278
2015   12       15     2  18    4.6611   463.3    6.678      43.325
2015   12       15     2  25    4.6653   463.4    6.682      43.375
2015   12       15     2  31    4.6694   463.5    6.687      43.426
2015   12       15     2  37    4.6736   463.6    6.692      43.479
2015   12       15     2  43    4.6777   463.7    6.697      43.533
2015   12       15     2  49    4.6818   463.8    6.702      43.588
2015   12       15     2  55    4.6859   463.9    6.707      43.644
2015   12       15     3   1    4.6899   464.0    6.712      43.701
2015   12       15     3   7    4.6940   464.1    6.717      43.756
2015   12       15     3  13    4.6979   464.3    6.721      43.811
2015   12       15     3  20    4.7018   464.4    6.726      43.865
2015   12       15     3  26    4.7056   464.5    6.731      43.919
2015   12       15     3  32    4.7094   464.6    6.735      43.971
2015   12       15     3  38    4.7131   464.7    6.739      44.024
2015   12       15     3  44    4.7168   464.8    6.743      44.076
2015   12       15     3  50    4.7204   464.9    6.748      44.128
2015   12       15     3  56    4.7239   465.0    6.752      44.179
2015   12       15     4   2    4.7274   465.1    6.755      44.231
2015   12       15     4   8    4.7309   465.2    6.759      44.283
2015   12       15     4  15    4.7343   465.3    6.763      44.334
2015   12       15     4  21    4.7377   465.4    6.767      44.385
2015   12       15     4  27    4.7411   465.5    6.771      44.436
2015   12       15     4  33    4.7444   465.6    6.774      44.488
2015   12       15     4  39    4.7477   465.7    6.778      44.539
2015   12       15     4  45    4.7509   465.8    6.781      44.592
2015   12       15     4  51    4.7541   466.0    6.784      44.644
2015   12       15     4  57    4.7572   466.1    6.787      44.697
2015   12       15     5   3    4.7603   466.2    6.789      44.750
2015   12       15     5  10    4.7633   466.3    6.791      44.802
2015   12       15     5  16    4.7663   466.4    6.793      44.853
2015   12       15     5  22    4.7693   466.5    6.795      44.903
2015   12       15     5  28    4.7722   466.6    6.797      44.952
2015   12       15     5  34    4.7750   466.7    6.798      45.000
2015   12       15     5  40    4.7778   466.8    6.798      45.047
2015   12       15     5  46    4.7806   466.9    6.799      45.093
2015   12       15     5  52    4.7834   467.1    6.799      45.138
2015   12       15     5  59    4.7861   467.2    6.800      45.182
2015   12       15     6   5    4.7887   467.3    6.799      45.225
2015   12       15     6  11    4.7914   467.4    6.799      45.268
2015   12       15     6  17    4.7939   467.5    6.799      45.309
2015   12       15     6  23    4.7965   467.6    6.798      45.350
2015   12       15     6  29    4.7991   467.7    6.797      45.389
2015   12       15     6  35    4.8015   467.8    6.796      45.429
2015   12       15     6  41    4.8040   467.9    6.795      45.467
2015   12       15     6  47    4.8065   468.1    6.793      45.505
2015   12       15     6  54    4.8089   468.2    6.792      45.542
2015   12       15     7   0    4.8113   468.3    6.790      45.578
2015   12       15     7   6    4.8136   468.4    6.788      45.614
2015   12       15     7  12    4.8159   468.5    6.786      45.649
2015   12       15     7  18    4.8182   468.6    6.784      45.683
2015   12       15     7  24    4.8205   468.8    6.781      45.717
2015   12       15     7  30    4.8227   468.9    6.779      45.750
2015   12       15     7  36    4.8249   469.0    6.776      45.782
2015   12       15     7  42    4.8270   469.1    6.774      45.814
2015   12       15     7  49    4.8291   469.2    6.771      45.845
2015   12       15     7  55    4.8312   469.3    6.768      45.876
2015   12       15     8   1    4.8333   469.5    6.765      45.906
2015   12       15     8   7    4.8353   469.6    6.763      45.936
2015   12       15     8  13    4.8373   469.7    6.760      45.966
2015   12       15     8  19    4.8392   469.8    6.757      45.995
2015   12       15     8  25    4.8412   469.9    6.754      46.024
2015   12       15     8  31    4.8431   470.0    6.751      46.053
2015   12       15     8  37    4.8450   470.2    6.748      46.082
2015   12       15     8  44    4.8469   470.3    6.746      46.111
2015   12       15     8  50    4.8487   470.4    6.743      46.140
2015   12       15     8  56    4.8506   470.5    6.741      46.169
2015   12       15     9   2    4.8525   470.6    6.738      46.199
2015   12       15     9   8    4.8543   470.7    6.736      46.228
2015   12       15     9  14    4.8561   470.9    6.734      46.259
2015   12       15     9  20    4.8580   471.0    6.733      46.290
2015   12       15     9  26    4.8598   471.1    6.731      46.321
2015   12       15     9  32    4.8617   471.2    6.730      46.352
2015   12       15     9  39    4.8635   471.3    6.729      46.385
2015   12       15     9  45    4.8653   471.4    6.728      46.419
2015   12       15     9  51    4.8670   471.6    6.727      46.455
2015   12       15     9  57    4.8687   471.7    6.726      46.492
2015   12       15    10   3    4.8704   471.8    6.726      46.530
2015   12       15    10   9    4.8720   472.0    6.725      46.570
2015   12       15    10  15    4.8735   472.1    6.724      46.610
2015   12       15    10  21    4.8750   472.2    6.723      46.649
2015   12       15    10  27    4.8764   472.4    6.722      46.688
2015   12       15    10  34    4.8777   472.5    6.721      46.727
2015   12       15    10  40    4.8790   472.6    6.720      46.765
2015   12       15    10  46    4.8803   472.8    6.719      46.803
2015   12       15    10  52    4.8814   472.9    6.718      46.840
2015   12       15    10  58    4.8826   473.0    6.717      46.877
2015   12       15    11   4    4.8836   473.1    6.717      46.914
2015   12       15    11  10    4.8847   473.3    6.716      46.950
2015   12       15    11  16    4.8857   473.4    6.715      46.987
2015   12       15    11  23    4.8867   473.5    6.714      47.025
2015   12       15    11  29    4.8877   473.6    6.713      47.062
2015   12       15    11  35    4.8887   473.7    6.713      47.098
2015   12       15    11  41    4.8896   473.9    6.712      47.135
2015   12       15    11  47    4.8906   474.0    6.712      47.173
2015   12       15    11  53    4.8915   474.1    6.712      47.213
2015   12       15    11  59    4.8925   474.2    6.711      47.252
2015   12       15    12   5    4.8933   474.4    6.711      47.293
2015   12       15    12  11    4.8942   474.5    6.710      47.334
2015   12       15    12  18    4.8951   474.6    6.709      47.376
2015   12       15    12  24    4.8959   474.7    6.709      47.419
2015   12       15    12  30    4.8967   474.9    6.707      47.460
2015   12       15    12  36    4.8974   475.0    6.706      47.501
2015   12       15    12  42    4.8981   475.1    6.705      47.540
2015   12       15    12  48    4.8987   475.3    6.703      47.580
2015   12       15    12  54    4.8993   475.4    6.701      47.618
2015   12       15    13   0    4.8998   475.5    6.699      47.656
2015   12       15    13   6    4.9002   475.6    6.697      47.693
2015   12       15    13  13    4.9007   475.8    6.695      47.729
2015   12       15    13  19    4.9010   475.9    6.692      47.763
2015   12       15    13  25    4.9014   476.0    6.689      47.797
2015   12       15    13  31    4.9017   476.1    6.685      47.829
2015   12       15    13  37    4.9019   476.3    6.682      47.860
2015   12       15    13  43    4.9021   476.4    6.678      47.889
2015   12       15    13  49    4.9022   476.5    6.674      47.918
2015   12       15    13  55    4.9023   476.6    6.670      47.945
2015   12       15    14   1    4.9024   476.8    6.665      47.971
2015   12       15    14   8    4.9024   476.9    6.661      47.996
2015   12       15    14  14    4.9023   477.0    6.656      48.020
2015   12       15    14  20    4.9023   477.1    6.651      48.044
2015   12       15    14  26    4.9021   477.3    6.645      48.065
2015   12       15    14  32    4.9019   477.4    6.640      48.086
2015   12       15    14  38    4.9017   477.5    6.634      48.106
2015   12       15    14  44    4.9014   477.6    6.628      48.125
2015   12       15    14  50    4.9011   477.8    6.622      48.142
2015   12       15    14  56    4.9007   477.9    6.615      48.159
2015   12       15    15   3    4.9002   478.0    6.609      48.174
2015   12       15    15   9    4.8997   478.2    6.602      48.188
2015   12       15    15  15    4.8992   478.3    6.595      48.201
2015   12       15    15  21    4.8986   478.4    6.588      48.213
2015   12       15    15  27    4.8979   478.5    6.581      48.224
2015   12       15    15  33    4.8972   478.7    6.573      48.234
2015   12       15    15  39    4.8964   478.8    6.566      48.243
2015   12       15    15  45    4.8956   478.9    6.558      48.251
2015   12       15    15  51    4.8947   479.0    6.550      48.258
2015   12       15    15  58    4.8938   479.2    6.542      48.265
2015   12       15    16   4    4.8929   479.3    6.534      48.272
2015   12       15    16  10    4.8918   479.4    6.526      48.277
2015   12       15    16  16    4.8908   479.6    6.518      48.282
2015   12       15    16  22    4.8897   479.7    6.509      48.286
2015   12       15    16  28    4.8885   479.8    6.501      48.289
2015   12       15    16  34    4.8872   480.0    6.492      48.290
2015   12       15    16  40    4.8860   480.1    6.483      48.291
2015   12       15    16  47    4.8846   480.2    6.475      48.291
2015   12       15    16  53    4.8833   480.3    6.466      48.290
2015   12       15    16  59    4.8819   480.4    6.458      48.289
2015   12       15    17   5    4.8806   480.5    6.449      48.287
2015   12       15    17  11    4.8792   480.6    6.441      48.286
2015   12       15    17  17    4.8778   480.7    6.433      48.284
2015   12       15    17  23    4.8764   480.8    6.425      48.281
2015   12       15    17  29    4.8750   480.9    6.416      48.279
2015   12       15    17  35    4.8736   481.0    6.408      48.277
2015   12       15    17  42    4.8722   481.1    6.400      48.275
2015   12       15    17  48    4.8708   481.2    6.392      48.273
2015   12       15    17  54    4.8693   481.3    6.385      48.272
2015   12       15    18   0    4.8678   481.4    6.377      48.272
2015   12       15    18   6    4.8664   481.5    6.369      48.272
2015   12       15    18  12    4.8648   481.6    6.361      48.272
2015   12       15    18  18    4.8633   481.7    6.354      48.273
2015   12       15    18  24    4.8618   481.8    6.346      48.273
2015   12       15    18  30    4.8603   481.9    6.339      48.274
2015   12       15    18  37    4.8587   482.0    6.331      48.274
2015   12       15    18  43    4.8571   482.1    6.324      48.274
2015   12       15    18  49    4.8555   482.2    6.317      48.275
2015   12       15    18  55    4.8539   482.3    6.309      48.275
2015   12       15    19   1    4.8523   482.4    6.302      48.275
2015   12       15    19   7    4.8506   482.5    6.295      48.275
2015   12       15    19  13    4.8490   482.6    6.288      48.274
2015   12       15    19  19    4.8473   482.6    6.281      48.274
2015   12       15    19  25    4.8456   482.7    6.274      48.274
2015   12       15    19  32    4.8439   482.8    6.267      48.274
2015   12       15    19  38    4.8422   482.9    6.260      48.273
2015   12       15    19  44    4.8406   483.0    6.253      48.273
2015   12       15    19  50    4.8389   483.1    6.247      48.273
2015   12       15    19  56    4.8373   483.1    6.240      48.272
2015   12       15    20   2    4.8356   483.2    6.234      48.272
2015   12       15    20   8    4.8340   483.3    6.228      48.271
2015   12       15    20  14    4.8323   483.3    6.222      48.271
2015   12       15    20  20    4.8307   483.4    6.216      48.270
2015   12       15    20  27    4.8290   483.5    6.210      48.270
2015   12       15    20  33    4.8274   483.5    6.204      48.269
2015   12       15    20  39    4.8257   483.6    6.198      48.267
2015   12       15    20  45    4.8241   483.7    6.193      48.265
2015   12       15    20  51    4.8225   483.7    6.187      48.263
2015   12       15    20  57    4.8209   483.8    6.181      48.260
2015   12       15    21   3    4.8193   483.8    6.176      48.256
2015   12       15    21   9    4.8177   483.9    6.170      48.252
2015   12       15    21  15    4.8161   483.9    6.165      48.249
2015   12       15    21  22    4.8145   484.0    6.159      48.245
2015   12       15    21  28    4.8129   484.0    6.154      48.240
2015   12       15    21  34    4.8113   484.1    6.149      48.236
2015   12       15    21  40    4.8096   484.1    6.144      48.231
2015   12       15    21  46    4.8080   484.2    6.139      48.226
2015   12       15    21  52    4.8064   484.2    6.134      48.221
2015   12       15    21  58    4.8048   484.3    6.129      48.216
2015   12       15    22   4    4.8031   484.3    6.124      48.211
2015   12       15    22  10    4.8015   484.4    6.119      48.205
2015   12       15    22  17    4.7999   484.4    6.115      48.200
2015   12       15    22  23    4.7982   484.5    6.110      48.195
2015   12       15    22  29    4.7966   484.5    6.106      48.190
2015   12       15    22  35    4.7950   484.6    6.101      48.184
2015   12       15    22  41    4.7934   484.6    6.096      48.178
2015   12       15    22  47    4.7919   484.7    6.092      48.172
2015   12       15    22  53    4.7902   484.7    6.087      48.166
2015   12       15    22  59    4.7886   484.8    6.082      48.158
2015   12       15    23   6    4.7870   484.8    6.077      48.150
2015   12       15    23  12    4.7853   484.9    6.071      48.141
2015   12       15    23  18    4.7836   485.0    6.066      48.131
2015   12       15    23  24    4.7819   485.0    6.060      48.121
2015   12       15    23  30    4.7801   485.1    6.054      48.110
2015   12       15    23  36    4.7783   485.1    6.048      48.098
2015   12       15    23  42    4.7764   485.2    6.042      48.085
2015   12       15    23  48    4.7745   485.3    6.036      48.071
2015   12       15    23  54    4.7726   485.3    6.030      48.055
2015   12       16     0   1    4.7706   485.3    6.024      48.039
2015   12       16     0   7    4.7686   485.4    6.017      48.022
2015   12       16     0  13    4.7667   485.4    6.011      48.004
2015   12       16     0  19    4.7647   485.5    6.005      47.987
2015   12       16     0  25    4.7627   485.5    5.999      47.969
2015   12       16     0  31    4.7608   485.5    5.993      47.951
2015   12       16     0  37    4.7589   485.5    5.987      47.932
2015   12       16     0  43    4.7569   485.6    5.981      47.914
2015   12       16     0  49    4.7550   485.6    5.975      47.896
2015   12       16     0  56    4.7531   485.6    5.969      47.878
2015   12       16     1   2    4.7513   485.6    5.963      47.861
2015   12       16     1   8    4.7494   485.7    5.957      47.844
2015   12       16     1  14    4.7475   485.7    5.951      47.828
2015   12       16     1  20    4.7457   485.7    5.945      47.813
2015   12       16     1  26    4.7439   485.8    5.940      47.797
2015   12       16     1  32    4.7420   485.8    5.934      47.782
2015   12       16     1  38    4.7402   485.8    5.929      47.766
2015   12       16     1  44    4.7384   485.9    5.923      47.750
2015   12       16     1  51    4.7366   485.9    5.918      47.734
2015   12       16     1  57    4.7347   485.9    5.912      47.716
2015   12       16     2   3    4.7329   485.9    5.907      47.699
2015   12       16     2   9    4.7311   486.0    5.901      47.681
2015   12       16     2  15    4.7293   486.0    5.896      47.663
2015   12       16     2  21    4.7275   486.0    5.891      47.645
2015   12       16     2  27    4.7257   486.0    5.886      47.626
2015   12       16     2  33    4.7240   486.0    5.881      47.608
2015   12       16     2  39    4.7222   486.1    5.876      47.590
2015   12       16     2  46    4.7205   486.1    5.871      47.572
2015   12       16     2  52    4.7188   486.1    5.867      47.554
2015   12       16     2  58    4.7172   486.1    5.862      47.537
2015   12       16     3   4    4.7156   486.1    5.858      47.520
2015   12       16     3  10    4.7141   486.1    5.854      47.504
2015   12       16     3  16    4.7126   486.1    5.850      47.487
2015   12       16     3  22    4.7111   486.1    5.846      47.472
2015   12       16     3  28    4.7097   486.1    5.842      47.457
2015   12       16     3  34    4.7084   486.1    5.839      47.442
2015   12       16     3  41    4.7071   486.1    5.835      47.428
2015   12       16     3  47    4.7059   486.2    5.832      47.415
2015   12       16     3  53    4.7047   486.2    5.829      47.403
2015   12       16     3  59    4.7035   486.2    5.827      47.391
2015   12       16     4   5    4.7025   486.2    5.824      47.380
2015   12       16     4  11    4.7015   486.2    5.822      47.369
2015   12       16     4  17    4.7005   486.2    5.819      47.360
2015   12       16     4  23    4.6996   486.2    5.817      47.352
2015   12       16     4  29    4.6988   486.2    5.816      47.345
2015   12       16     4  36    4.6981   486.2    5.814      47.339
2015   12       16     4  42    4.6975   486.2    5.813      47.334
2015   12       16     4  48    4.6969   486.2    5.811      47.331
2015   12       16     4  54    4.6964   486.2    5.811      47.328
2015   12       16     5   0    4.6960   486.2    5.810      47.326
2015   12       16     5   6    4.6958   486.2    5.809      47.325
2015   12       16     5  12    4.6955   486.2    5.809      47.325
2015   12       16     5  18    4.6954   486.2    5.809      47.327
2015   12       16     5  24    4.6954   486.2    5.809      47.329
2015   12       16     5  31    4.6955   486.2    5.809      47.333
2015   12       16     5  37    4.6957   486.2    5.810      47.338
2015   12       16     5  43    4.6960   486.2    5.811      47.344
2015   12       16     5  49    4.6965   486.2    5.812      47.351
2015   12       16     5  55    4.6970   486.2    5.813      47.358
2015   12       16     6   1    4.6977   486.2    5.814      47.366
2015   12       16     6   7    4.6984   486.2    5.815      47.374
2015   12       16     6  13    4.6993   486.3    5.816      47.382
2015   12       16     6  20    4.7002   486.3    5.817      47.390
2015   12       16     6  26    4.7012   486.3    5.818      47.397
2015   12       16     6  32    4.7023   486.3    5.819      47.405
2015   12       16     6  38    4.7035   486.3    5.820      47.412
2015   12       16     6  44    4.7047   486.3    5.822      47.419
2015   12       16     6  50    4.7060   486.4    5.823      47.426
2015   12       16     6  56    4.7073   486.4    5.824      47.432
2015   12       16     7   2    4.7087   486.4    5.825      47.439
2015   12       16     7   8    4.7101   486.4    5.826      47.445
2015   12       16     7  15    4.7115   486.4    5.827      47.450
2015   12       16     7  21    4.7130   486.5    5.829      47.456
2015   12       16     7  27    4.7145   486.5    5.830      47.460
2015   12       16     7  33    4.7160   486.5    5.831      47.465
2015   12       16     7  39    4.7175   486.5    5.832      47.469
2015   12       16     7  45    4.7191   486.5    5.833      47.474
2015   12       16     7  51    4.7207   486.5    5.834      47.478
2015   12       16     7  57    4.7223   486.6    5.835      47.482
2015   12       16     8   3    4.7240   486.6    5.837      47.486
2015   12       16     8  10    4.7256   486.6    5.838      47.490
2015   12       16     8  16    4.7273   486.6    5.839      47.494
2015   12       16     8  22    4.7291   486.6    5.841      47.498
2015   12       16     8  28    4.7309   486.6    5.842      47.502
2015   12       16     8  34    4.7327   486.6    5.844      47.507
2015   12       16     8  40    4.7345   486.6    5.845      47.512
2015   12       16     8  46    4.7364   486.6    5.847      47.517
2015   12       16     8  52    4.7384   486.6    5.849      47.522
2015   12       16     8  58    4.7404   486.7    5.851      47.527
2015   12       16     9   5    4.7424   486.7    5.854      47.533
2015   12       16     9  11    4.7444   486.7    5.856      47.539
2015   12       16     9  17    4.7466   486.7    5.858      47.545
2015   12       16     9  23    4.7487   486.7    5.861      47.552
2015   12       16     9  29    4.7509   486.7    5.864      47.559
2015   12       16     9  35    4.7532   486.7    5.867      47.565
2015   12       16     9  41    4.7555   486.7    5.871      47.572
2015   12       16     9  47    4.7578   486.7    5.874      47.580
2015   12       16     9  53    4.7603   486.8    5.878      47.589
2015   12       16    10   0    4.7627   486.8    5.882      47.599
2015   12       16    10   6    4.7653   486.8    5.886      47.612
2015   12       16    10  12    4.7679   486.9    5.890      47.626
2015   12       16    10  18    4.7706   486.9    5.893      47.641
2015   12       16    10  24    4.7733   486.9    5.897      47.657
2015   12       16    10  30    4.7760   487.0    5.900      47.673
2015   12       16    10  36    4.7786   487.0    5.902      47.687
2015   12       16    10  42    4.7812   487.0    5.904      47.700
2015   12       16    10  48    4.7836   487.1    5.906      47.712
2015   12       16    10  55    4.7859   487.1    5.907      47.722
2015   12       16    11   1    4.7881   487.1    5.908      47.731
2015   12       16    11   7    4.7903   487.1    5.909      47.739
2015   12       16    11  13    4.7923   487.1    5.909      47.746
2015   12       16    11  19    4.7943   487.1    5.909      47.751
2015   12       16    11  25    4.7961   487.2    5.909      47.755
2015   12       16    11  31    4.7979   487.2    5.909      47.758
2015   12       16    11  37    4.7996   487.2    5.909      47.760
2015   12       16    11  43    4.8012   487.2    5.908      47.761
2015   12       16    11  50    4.8027   487.2    5.907      47.761
2015   12       16    11  56    4.8042   487.2    5.906      47.760
2015   12       16    12   2    4.8055   487.1    5.905      47.758
2015   12       16    12   8    4.8068   487.1    5.904      47.755
2015   12       16    12  14    4.8079   487.1    5.903      47.752
2015   12       16    12  20    4.8089   487.1    5.902      47.747
2015   12       16    12  26    4.8099   487.1    5.900      47.742
2015   12       16    12  32    4.8107   487.1    5.899      47.735
2015   12       16    12  38    4.8114   487.1    5.897      47.728
2015   12       16    12  45    4.8120   487.0    5.895      47.721
2015   12       16    12  51    4.8124   487.0    5.894      47.712
2015   12       16    12  57    4.8127   487.0    5.892      47.703
2015   12       16    13   3    4.8129   487.0    5.890      47.693
2015   12       16    13   9    4.8130   487.0    5.888      47.682
2015   12       16    13  15    4.8130   486.9    5.886      47.671
2015   12       16    13  21    4.8128   486.9    5.884      47.659
2015   12       16    13  27    4.8125   486.9    5.882      47.647
2015   12       16    13  33    4.8121   486.9    5.880      47.634
2015   12       16    13  40    4.8116   486.8    5.878      47.620
2015   12       16    13  46    4.8109   486.8    5.876      47.606
2015   12       16    13  52    4.8102   486.8    5.873      47.591
2015   12       16    13  58    4.8095   486.7    5.871      47.576
2015   12       16    14   4    4.8086   486.7    5.869      47.560
2015   12       16    14  10    4.8078   486.7    5.866      47.543
2015   12       16    14  16    4.8068   486.6    5.864      47.526
2015   12       16    14  22    4.8059   486.6    5.862      47.509
2015   12       16    14  28    4.8049   486.6    5.859      47.491
2015   12       16    14  35    4.8038   486.5    5.857      47.473
2015   12       16    14  41    4.8027   486.5    5.855      47.454
2015   12       16    14  47    4.8017   486.4    5.853      47.435
2015   12       16    14  53    4.8005   486.4    5.850      47.416
2015   12       16    14  59    4.7993   486.4    5.848      47.396
2015   12       16    15   5    4.7982   486.3    5.846      47.376
2015   12       16    15  11    4.7970   486.3    5.844      47.356
2015   12       16    15  17    4.7957   486.2    5.842      47.335
2015   12       16    15  24    4.7945   486.2    5.840      47.315
2015   12       16    15  30    4.7932   486.1    5.839      47.294
2015   12       16    15  36    4.7919   486.1    5.837      47.274
2015   12       16    15  42    4.7906   486.0    5.836      47.253
2015   12       16    15  48    4.7893   486.0    5.835      47.233
2015   12       16    15  54    4.7879   485.9    5.834      47.213
2015   12       16    16   0    4.7866   485.9    5.833      47.194
2015   12       16    16   6    4.7851   485.8    5.832      47.176
2015   12       16    16  12    4.7837   485.8    5.831      47.160
2015   12       16    16  19    4.7822   485.7    5.831      47.147
2015   12       16    16  25    4.7808   485.7    5.830      47.135
2015   12       16    16  31    4.7792   485.6    5.830      47.126
2015   12       16    16  37    4.7777   485.6    5.829      47.118
2015   12       16    16  43    4.7761   485.5    5.829      47.113
2015   12       16    16  49    4.7744   485.5    5.829      47.108
2015   12       16    16  55    4.7728   485.4    5.828      47.105
2015   12       16    17   1    4.7711   485.4    5.828      47.102
2015   12       16    17   7    4.7695   485.3    5.828      47.101
2015   12       16    17  14    4.7678   485.3    5.829      47.102
2015   12       16    17  20    4.7661   485.3    5.829      47.103
2015   12       16    17  26    4.7644   485.2    5.829      47.105
2015   12       16    17  32    4.7626   485.2    5.830      47.109
2015   12       16    17  38    4.7609   485.2    5.831      47.114
2015   12       16    17  44    4.7591   485.1    5.832      47.121
2015   12       16    17  50    4.7573   485.1    5.832      47.130
2015   12       16    17  56    4.7555   485.1    5.833      47.142
2015   12       16    18   2    4.7536   485.1    5.834      47.156
2015   12       16    18   9    4.7517   485.1    5.834      47.173
2015   12       16    18  15    4.7497   485.1    5.835      47.192
2015   12       16    18  21    4.7477   485.1    5.835      47.213
2015   12       16    18  27    4.7456   485.1    5.835      47.234
2015   12       16    18  33    4.7434   485.0    5.834      47.255
2015   12       16    18  39    4.7411   485.0    5.834      47.276
2015   12       16    18  45    4.7387   485.0    5.833      47.295
2015   12       16    18  51    4.7363   485.0    5.831      47.314
2015   12       16    18  57    4.7339   485.0    5.830      47.331
2015   12       16    19   4    4.7315   485.0    5.828      47.347
2015   12       16    19  10    4.7291   485.0    5.827      47.363
2015   12       16    19  16    4.7267   485.0    5.825      47.377
2015   12       16    19  22    4.7243   485.0    5.822      47.390
2015   12       16    19  28    4.7219   485.0    5.820      47.402
2015   12       16    19  34    4.7196   485.0    5.818      47.413
2015   12       16    19  40    4.7174   485.0    5.815      47.423
2015   12       16    19  46    4.7152   485.0    5.812      47.432
2015   12       16    19  52    4.7130   485.0    5.810      47.441
2015   12       16    19  59    4.7109   485.0    5.807      47.448
2015   12       16    20   5    4.7088   485.0    5.804      47.455
2015   12       16    20  11    4.7068   485.0    5.801      47.462
2015   12       16    20  17    4.7048   485.0    5.797      47.467
2015   12       16    20  23    4.7029   485.0    5.794      47.473
2015   12       16    20  29    4.7011   485.0    5.791      47.477
2015   12       16    20  35    4.6992   485.0    5.788      47.482
2015   12       16    20  41    4.6975   485.0    5.785      47.486
2015   12       16    20  47    4.6958   485.0    5.781      47.489
2015   12       16    20  54    4.6941   485.0    5.778      47.492
2015   12       16    21   0    4.6925   485.0    5.775      47.495
2015   12       16    21   6    4.6909   485.0    5.771      47.497
2015   12       16    21  12    4.6894   485.0    5.768      47.498
2015   12       16    21  18    4.6879   485.0    5.765      47.500
2015   12       16    21  24    4.6864   485.0    5.761      47.501
2015   12       16    21  30    4.6850   485.0    5.758      47.502
2015   12       16    21  36    4.6836   485.0    5.755      47.503
2015   12       16    21  42    4.6822   484.9    5.751      47.504
2015   12       16    21  49    4.6808   484.9    5.748      47.504
2015   12       16    21  55    4.6795   484.9    5.745      47.505
2015   12       16    22   1    4.6782   484.9    5.742      47.506
2015   12       16    22   7    4.6769   484.9    5.739      47.507
2015   12       16    22  13    4.6757   484.9    5.737      47.509
2015   12       16    22  19    4.6745   484.9    5.734      47.511
2015   12       16    22  25    4.6733   484.9    5.732      47.513
2015   12       16    22  31    4.6722   484.9    5.730      47.516
2015   12       16    22  37    4.6711   484.9    5.728      47.520
2015   12       16    22  44    4.6700   484.9    5.726      47.525
2015   12       16    22  50    4.6690   484.9    5.725      47.530
2015   12       16    22  56    4.6680   484.9    5.723      47.537
2015   12       16    23   2    4.6670   484.9    5.722      47.544
2015   12       16    23   8    4.6661   484.9    5.722      47.553
2015   12       16    23  14    4.6652   484.9    5.722      47.562
2015   12       16    23  20    4.6643   484.9    5.722      47.573
2015   12       16    23  26    4.6635   484.9    5.722      47.585
2015   12       16    23  32    4.6628   484.9    5.723      47.598
2015   12       16    23  39    4.6620   484.9    5.724      47.612
2015   12       16    23  45    4.6613   484.9    5.725      47.627
2015   12       16    23  51    4.6607   485.0    5.727      47.644
2015   12       16    23  57    4.6601   485.0    5.729      47.662
2015   12       17     0   3    4.6595   485.0    5.731      47.680
2015   12       17     0   9    4.6589   485.0    5.734      47.700
2015   12       17     0  15    4.6584   485.0    5.737      47.721
2015   12       17     0  21    4.6578   485.0    5.741      47.743
2015   12       17     0  27    4.6572   485.0    5.745      47.765
2015   12       17     0  34    4.6566   485.1    5.749      47.789
2015   12       17     0  40    4.6559   485.1    5.753      47.813
2015   12       17     0  46    4.6552   485.1    5.758      47.838
2015   12       17     0  52    4.6545   485.1    5.763      47.863
2015   12       17     0  58    4.6537   485.1    5.768      47.889
2015   12       17     1   4    4.6528   485.1    5.773      47.916
2015   12       17     1  10    4.6519   485.2    5.779      47.943
2015   12       17     1  16    4.6509   485.2    5.785      47.971
2015   12       17     1  22    4.6498   485.2    5.791      47.999
2015   12       17     1  29    4.6488   485.2    5.797      48.028
2015   12       17     1  35    4.6476   485.2    5.803      48.056
2015   12       17     1  41    4.6465   485.2    5.810      48.085
2015   12       17     1  47    4.6453   485.3    5.816      48.113
2015   12       17     1  53    4.6441   485.3    5.823      48.142
2015   12       17     1  59    4.6428   485.3    5.830      48.170
2015   12       17     2   5    4.6415   485.3    5.837      48.199
2015   12       17     2  11    4.6402   485.3    5.844      48.229
2015   12       17     2  17    4.6389   485.3    5.850      48.258
2015   12       17     2  24    4.6376   485.3    5.857      48.288
2015   12       17     2  30    4.6363   485.3    5.864      48.318
2015   12       17     2  36    4.6350   485.3    5.870      48.346
2015   12       17     2  42    4.6337   485.3    5.877      48.375
2015   12       17     2  48    4.6325   485.4    5.883      48.402
2015   12       17     2  54    4.6312   485.4    5.890      48.429
2015   12       17     3   0    4.6300   485.4    5.896      48.456
2015   12       17     3   6    4.6288   485.4    5.903      48.481
2015   12       17     3  12    4.6277   485.4    5.909      48.507
2015   12       17     3  19    4.6265   485.4    5.916      48.533
2015   12       17     3  25    4.6254   485.4    5.922      48.557
2015   12       17     3  31    4.6243   485.4    5.929      48.581
2015   12       17     3  37    4.6232   485.4    5.935      48.606
2015   12       17     3  43    4.6221   485.4    5.942      48.632
2015   12       17     3  49    4.6209   485.5    5.948      48.659
2015   12       17     3  55    4.6198   485.5    5.954      48.687
2015   12       17     4   1    4.6186   485.5    5.960      48.717
2015   12       17     4   7    4.6174   485.5    5.965      48.747
2015   12       17     4  14    4.6162   485.6    5.970      48.777
2015   12       17     4  20    4.6149   485.6    5.975      48.806
2015   12       17     4  26    4.6136   485.6    5.980      48.833
2015   12       17     4  32    4.6122   485.7    5.984      48.858
2015   12       17     4  38    4.6108   485.7    5.988      48.882
2015   12       17     4  44    4.6093   485.7    5.992      48.905
2015   12       17     4  50    4.6079   485.7    5.996      48.926
2015   12       17     4  56    4.6064   485.8    5.999      48.945
2015   12       17     5   2    4.6048   485.8    6.002      48.963
2015   12       17     5   9    4.6033   485.8    6.005      48.980
2015   12       17     5  15    4.6018   485.8    6.008      48.995
2015   12       17     5  21    4.6002   485.9    6.010      49.010
2015   12       17     5  27    4.5986   485.9    6.013      49.023
2015   12       17     5  33    4.5970   485.9    6.015      49.035
2015   12       17     5  39    4.5954   485.9    6.017      49.046
2015   12       17     5  45    4.5938   485.9    6.019      49.056
2015   12       17     5  51    4.5922   486.0    6.021      49.066
2015   12       17     5  57    4.5906   486.0    6.023      49.075
2015   12       17     6   4    4.5890   486.0    6.025      49.083
2015   12       17     6  10    4.5874   486.0    6.027      49.091
2015   12       17     6  16    4.5858   486.0    6.029      49.098
2015   12       17     6  22    4.5842   486.0    6.031      49.105
2015   12       17     6  28    4.5827   486.0    6.033      49.111
2015   12       17     6  34    4.5812   486.0    6.034      49.118
2015   12       17     6  40    4.5797   486.0    6.036      49.124
2015   12       17     6  46    4.5783   486.0    6.038      49.130
2015   12       17     6  52    4.5770   486.0    6.041      49.136
2015   12       17     6  59    4.5757   486.0    6.043      49.142
2015   12       17     7   5    4.5745   486.0    6.045      49.148
2015   12       17     7  11    4.5734   486.0    6.048      49.156
2015   12       17     7  17    4.5724   486.0    6.051      49.164
2015   12       17     7  23    4.5715   486.0    6.054      49.172
2015   12       17     7  29    4.5707   486.0    6.057      49.181
2015   12       17     7  35    4.5700   486.0    6.060      49.191
2015   12       17     7  41    4.5695   486.0    6.064      49.203
2015   12       17     7  47    4.5691   486.0    6.067      49.216
2015   12       17     7  54    4.5689   486.0    6.070      49.230
2015   12       17     8   0    4.5688   486.0    6.074      49.244
2015   12       17     8   6    4.5689   486.0    6.077      49.259
2015   12       17     8  12    4.5690   486.0    6.080      49.275
2015   12       17     8  18    4.5694   486.0    6.082      49.290
2015   12       17     8  24    4.5699   486.0    6.085      49.303
2015   12       17     8  30    4.5705   486.0    6.087      49.315
2015   12       17     8  36    4.5713   486.0    6.089      49.325
2015   12       17     8  42    4.5721   486.1    6.090      49.334
2015   12       17     8  49    4.5731   486.1    6.091      49.342
2015   12       17     8  55    4.5741   486.1    6.092      49.348
2015   12       17     9   1    4.5752   486.1    6.092      49.353
2015   12       17     9   7    4.5763   486.1    6.092      49.356
2015   12       17     9  13    4.5774   486.1    6.092      49.358
2015   12       17     9  19    4.5785   486.1    6.092      49.358
2015   12       17     9  25    4.5796   486.2    6.091      49.356
2015   12       17     9  31    4.5808   486.2    6.090      49.353
2015   12       17     9  37    4.5819   486.2    6.088      49.349
2015   12       17     9  44    4.5830   486.2    6.086      49.343
2015   12       17     9  50    4.5841   486.3    6.084      49.336
2015   12       17     9  56    4.5853   486.3    6.082      49.327
2015   12       17    10   2    4.5864   486.3    6.079      49.318
2015   12       17    10   8    4.5876   486.4    6.076      49.307
2015   12       17    10  14    4.5887   486.4    6.073      49.295
2015   12       17    10  20    4.5899   486.4    6.069      49.281
2015   12       17    10  26    4.5911   486.5    6.066      49.267
2015   12       17    10  32    4.5923   486.5    6.062      49.252
2015   12       17    10  39    4.5936   486.5    6.058      49.236
2015   12       17    10  45    4.5949   486.6    6.054      49.219
2015   12       17    10  51    4.5962   486.6    6.049      49.201
2015   12       17    10  57    4.5976   486.7    6.045      49.183
2015   12       17    11   3    4.5989   486.7    6.040      49.164
2015   12       17    11   9    4.6003   486.8    6.035      49.145
2015   12       17    11  15    4.6017   486.8    6.030      49.125
2015   12       17    11  21    4.6031   486.9    6.025      49.104
2015   12       17    11  27    4.6044   486.9    6.020      49.083
2015   12       17    11  34    4.6058   487.0    6.015      49.062
2015   12       17    11  40    4.6071   487.0    6.009      49.040
2015   12       17    11  46    4.6083   487.1    6.003      49.017
2015   12       17    11  52    4.6094   487.1    5.997      48.992
2015   12       17    11  58    4.6106   487.2    5.991      48.967
2015   12       17    12   4    4.6116   487.3    5.984      48.941
2015   12       17    12  10    4.6126   487.3    5.977      48.913
2015   12       17    12  16    4.6135   487.4    5.970      48.884
2015   12       17    12  22    4.6144   487.5    5.963      48.854
2015   12       17    12  29    4.6152   487.5    5.955      48.822
2015   12       17    12  35    4.6159   487.6    5.948      48.789
2015   12       17    12  41    4.6165   487.7    5.940      48.756
2015   12       17    12  47    4.6171   487.7    5.932      48.721
2015   12       17    12  53    4.6176   487.8    5.924      48.686
2015   12       17    12  59    4.6180   487.9    5.915      48.650
2015   12       17    13   5    4.6184   487.9    5.907      48.614
2015   12       17    13  11    4.6187   488.0    5.898      48.576
2015   12       17    13  17    4.6189   488.1    5.890      48.539
2015   12       17    13  24    4.6190   488.1    5.881      48.501
2015   12       17    13  30    4.6191   488.2    5.872      48.462
2015   12       17    13  36    4.6191   488.3    5.863      48.423
2015   12       17    13  42    4.6190   488.3    5.854      48.385
2015   12       17    13  48    4.6189   488.4    5.846      48.345
2015   12       17    13  54    4.6187   488.4    5.837      48.306
2015   12       17    14   0    4.6185   488.5    5.828      48.266
2015   12       17    14   6    4.6181   488.6    5.819      48.225
2015   12       17    14  12    4.6178   488.6    5.809      48.185
2015   12       17    14  19    4.6173   488.7    5.800      48.144
2015   12       17    14  25    4.6168   488.8    5.791      48.103
2015   12       17    14  31    4.6163   488.8    5.782      48.061
2015   12       17    14  37    4.6157   488.9    5.773      48.019
2015   12       17    14  43    4.6150   488.9    5.764      47.977
2015   12       17    14  49    4.6143   489.0    5.755      47.934
2015   12       17    14  55    4.6135   489.1    5.746      47.891
2015   12       17    15   1    4.6126   489.1    5.736      47.847
2015   12       17    15   7    4.6117   489.2    5.727      47.803
2015   12       17    15  14    4.6107   489.2    5.718      47.758
2015   12       17    15  20    4.6097   489.3    5.709      47.713
2015   12       17    15  26    4.6086   489.3    5.699      47.668
2015   12       17    15  32    4.6075   489.4    5.690      47.623
2015   12       17    15  38    4.6064   489.4    5.681      47.578
2015   12       17    15  44    4.6052   489.5    5.672      47.534
2015   12       17    15  50    4.6039   489.5    5.663      47.490
2015   12       17    15  56    4.6026   489.6    5.654      47.446
2015   12       17    16   2    4.6013   489.6    5.645      47.403
2015   12       17    16   9    4.5999   489.7    5.636      47.360
2015   12       17    16  15    4.5985   489.7    5.627      47.318
2015   12       17    16  21    4.5970   489.8    5.619      47.275
2015   12       17    16  27    4.5955   489.8    5.610      47.233
2015   12       17    16  33    4.5940   489.9    5.601      47.191
2015   12       17    16  39    4.5924   489.9    5.593      47.149
2015   12       17    16  45    4.5908   490.0    5.584      47.107
2015   12       17    16  51    4.5891   490.0    5.576      47.065
2015   12       17    16  57    4.5874   490.0    5.568      47.023
2015   12       17    17   4    4.5856   490.1    5.559      46.980
2015   12       17    17  10    4.5838   490.1    5.551      46.937
2015   12       17    17  16    4.5820   490.2    5.543      46.894
2015   12       17    17  22    4.5801   490.2    5.535      46.851
2015   12       17    17  28    4.5782   490.2    5.528      46.808
2015   12       17    17  34    4.5762   490.3    5.520      46.764
2015   12       17    17  40    4.5742   490.3    5.512      46.721
2015   12       17    17  46    4.5722   490.3    5.505      46.677
2015   12       17    17  52    4.5702   490.4    5.498      46.634
2015   12       17    17  59    4.5681   490.4    5.491      46.591
2015   12       17    18   5    4.5660   490.4    5.484      46.548
2015   12       17    18  11    4.5639   490.4    5.478      46.505
2015   12       17    18  17    4.5618   490.4    5.472      46.464
2015   12       17    18  23    4.5597   490.4    5.466      46.423
2015   12       17    18  29    4.5575   490.4    5.460      46.384
2015   12       17    18  35    4.5554   490.4    5.455      46.346
2015   12       17    18  41    4.5533   490.4    5.450      46.309
2015   12       17    18  47    4.5511   490.4    5.446      46.273
2015   12       17    18  54    4.5490   490.4    5.442      46.239
2015   12       17    19   0    4.5469   490.4    5.438      46.207
2015   12       17    19   6    4.5448   490.4    5.434      46.176
2015   12       17    19  12    4.5427   490.3    5.431      46.148
2015   12       17    19  18    4.5407   490.3    5.429      46.121
2015   12       17    19  24    4.5387   490.3    5.426      46.096
2015   12       17    19  30    4.5367   490.3    5.424      46.073
2015   12       17    19  36    4.5348   490.2    5.423      46.053
2015   12       17    19  42    4.5329   490.2    5.421      46.035
2015   12       17    19  49    4.5311   490.1    5.420      46.017
2015   12       17    19  55    4.5293   490.1    5.420      46.003
2015   12       17    20   1    4.5277   490.1    5.420      45.993
2015   12       17    20   7    4.5261   490.0    5.420      45.985
2015   12       17    20  13    4.5246   490.0    5.420      45.979
2015   12       17    20  19    4.5231   489.9    5.421      45.975
2015   12       17    20  25    4.5217   489.9    5.421      45.972
2015   12       17    20  31    4.5204   489.8    5.422      45.972
2015   12       17    20  37    4.5190   489.8    5.422      45.971
2015   12       17    20  44    4.5177   489.8    5.422      45.970
2015   12       17    20  50    4.5163   489.7    5.422      45.967
2015   12       17    20  56    4.5149   489.7    5.422      45.964
2015   12       17    21   2    4.5136   489.6    5.422      45.960
2015   12       17    21   8    4.5122   489.6    5.422      45.956
2015   12       17    21  14    4.5108   489.6    5.421      45.952
2015   12       17    21  20    4.5094   489.5    5.421      45.946
2015   12       17    21  26    4.5080   489.5    5.420      45.940
2015   12       17    21  32    4.5066   489.4    5.419      45.934
2015   12       17    21  38    4.5053   489.4    5.418      45.926
2015   12       17    21  45    4.5038   489.4    5.417      45.918
2015   12       17    21  51    4.5024   489.3    5.416      45.909
2015   12       17    21  57    4.5009   489.3    5.415      45.899
2015   12       17    22   3    4.4994   489.3    5.413      45.888
2015   12       17    22   9    4.4979   489.2    5.412      45.876
2015   12       17    22  15    4.4963   489.2    5.410      45.864
2015   12       17    22  21    4.4947   489.2    5.408      45.851
2015   12       17    22  27    4.4931   489.1    5.406      45.837
2015   12       17    22  33    4.4914   489.1    5.404      45.823
2015   12       17    22  40    4.4897   489.1    5.402      45.808
2015   12       17    22  46    4.4879   489.1    5.400      45.792
2015   12       17    22  52    4.4861   489.0    5.398      45.777
2015   12       17    22  58    4.4843   489.0    5.396      45.760
2015   12       17    23   4    4.4825   489.0    5.394      45.744
2015   12       17    23  10    4.4806   489.0    5.391      45.727
2015   12       17    23  16    4.4787   488.9    5.389      45.709
2015   12       17    23  22    4.4767   488.9    5.386      45.692
2015   12       17    23  28    4.4747   488.9    5.384      45.674
2015   12       17    23  35    4.4727   488.9    5.381      45.656
2015   12       17    23  41    4.4707   488.8    5.379      45.637
2015   12       17    23  47    4.4686   488.8    5.376      45.619
2015   12       17    23  53    4.4665   488.8    5.374      45.600
2015   12       17    23  59    4.4644   488.8    5.371      45.581
2015   12       18     0   5    4.4623   488.7    5.368      45.562
2015   12       18     0  11    4.4601   488.7    5.365      45.542
2015   12       18     0  17    4.4579   488.7    5.363      45.522
2015   12       18     0  23    4.4556   488.7    5.360      45.502
2015   12       18     0  30    4.4534   488.7    5.357      45.483
2015   12       18     0  36    4.4511   488.6    5.354      45.462
2015   12       18     0  42    4.4488   488.6    5.352      45.442
2015   12       18     0  48    4.4464   488.6    5.349      45.422
2015   12       18     0  54    4.4440   488.6    5.346      45.401
2015   12       18     1   0    4.4416   488.5    5.343      45.381
2015   12       18     1   6    4.4392   488.5    5.340      45.360
2015   12       18     1  12    4.4367   488.5    5.337      45.339
2015   12       18     1  18    4.4343   488.5    5.335      45.318
2015   12       18     1  25    4.4318   488.4    5.332      45.297
2015   12       18     1  31    4.4292   488.4    5.329      45.276
2015   12       18     1  37    4.4267   488.4    5.326      45.255
2015   12       18     1  43    4.4241   488.4    5.323      45.233
2015   12       18     1  49    4.4215   488.4    5.320      45.212
2015   12       18     1  55    4.4189   488.3    5.318      45.190
2015   12       18     2   1    4.4163   488.3    5.315      45.169
2015   12       18     2   7    4.4137   488.3    5.312      45.147
2015   12       18     2  13    4.4110   488.2    5.309      45.126
2015   12       18     2  20    4.4083   488.2    5.307      45.104
2015   12       18     2  26    4.4056   488.2    5.304      45.082
2015   12       18     2  32    4.4029   488.2    5.301      45.060
2015   12       18     2  38    4.4002   488.1    5.299      45.039
2015   12       18     2  44    4.3975   488.1    5.296      45.017
2015   12       18     2  50    4.3948   488.1    5.294      44.995
2015   12       18     2  56    4.3921   488.0    5.291      44.974
2015   12       18     3   2    4.3893   488.0    5.289      44.952
2015   12       18     3   8    4.3866   488.0    5.286      44.930
2015   12       18     3  15    4.3838   487.9    5.284      44.909
2015   12       18     3  21    4.3811   487.9    5.281      44.887
2015   12       18     3  27    4.3783   487.8    5.279      44.865
2015   12       18     3  33    4.3756   487.8    5.277      44.844
2015   12       18     3  39    4.3729   487.8    5.275      44.822
2015   12       18     3  45    4.3701   487.7    5.272      44.801
2015   12       18     3  51    4.3674   487.7    5.270      44.780
2015   12       18     3  57    4.3647   487.6    5.268      44.758
2015   12       18     4   3    4.3620   487.6    5.266      44.737
2015   12       18     4  10    4.3594   487.5    5.264      44.716
2015   12       18     4  16    4.3567   487.5    5.262      44.695
2015   12       18     4  22    4.3541   487.4    5.260      44.674
2015   12       18     4  28    4.3515   487.4    5.258      44.653
2015   12       18     4  34    4.3489   487.3    5.256      44.632
2015   12       18     4  40    4.3464   487.3    5.254      44.611
2015   12       18     4  46    4.3438   487.3    5.252      44.590
2015   12       18     4  52    4.3414   487.2    5.250      44.569
2015   12       18     4  58    4.3389   487.1    5.249      44.549
2015   12       18     5   5    4.3365   487.1    5.247      44.529
2015   12       18     5  11    4.3340   487.0    5.245      44.508
2015   12       18     5  17    4.3316   487.0    5.243      44.488
2015   12       18     5  23    4.3293   486.9    5.242      44.468
2015   12       18     5  29    4.3270   486.9    5.240      44.448
2015   12       18     5  35    4.3247   486.8    5.238      44.428
2015   12       18     5  41    4.3224   486.8    5.237      44.407
2015   12       18     5  47    4.3201   486.7    5.235      44.387
2015   12       18     5  53    4.3178   486.7    5.233      44.367
2015   12       18     6   0    4.3155   486.6    5.231      44.347
2015   12       18     6   6    4.3133   486.6    5.230      44.327
2015   12       18     6  12    4.3110   486.5    5.228      44.307
2015   12       18     6  18    4.3088   486.5    5.226      44.286
2015   12       18     6  24    4.3065   486.4    5.224      44.266
2015   12       18     6  30    4.3042   486.4    5.222      44.245
2015   12       18     6  36    4.3019   486.3    5.220      44.224
2015   12       18     6  42    4.2996   486.3    5.218      44.202
2015   12       18     6  48    4.2974   486.2    5.216      44.181
2015   12       18     6  55    4.2950   486.2    5.214      44.159
2015   12       18     7   1    4.2927   486.1    5.212      44.137
2015   12       18     7   7    4.2904   486.1    5.210      44.114
2015   12       18     7  13    4.2881   486.0    5.208      44.092
2015   12       18     7  19    4.2857   486.0    5.206      44.069
2015   12       18     7  25    4.2834   485.9    5.204      44.046
2015   12       18     7  31    4.2809   485.8    5.201      44.023
2015   12       18     7  37    4.2786   485.8    5.199      43.999
2015   12       18     7  43    4.2761   485.7    5.197      43.975
2015   12       18     7  50    4.2737   485.7    5.195      43.951
2015   12       18     7  56    4.2713   485.6    5.192      43.927
2015   12       18     8   2    4.2688   485.6    5.190      43.903
2015   12       18     8   8    4.2663   485.5    5.188      43.878
2015   12       18     8  14    4.2638   485.4    5.186      43.854
2015   12       18     8  20    4.2613   485.4    5.183      43.829
2015   12       18     8  26    4.2588   485.3    5.181      43.804
2015   12       18     8  32    4.2562   485.3    5.179      43.779
2015   12       18     8  38    4.2537   485.2    5.177      43.754
2015   12       18     8  45    4.2511   485.1    5.174      43.728
2015   12       18     8  51    4.2485   485.1    5.172      43.703
2015   12       18     8  57    4.2459   485.0    5.170      43.678
2015   12       18     9   3    4.2433   485.0    5.168      43.652
2015   12       18     9   9    4.2406   484.9    5.166      43.627
2015   12       18     9  15    4.2380   484.8    5.164      43.602
2015   12       18     9  21    4.2354   484.8    5.161      43.576
2015   12       18     9  27    4.2327   484.7    5.159      43.551
2015   12       18     9  33    4.2300   484.6    5.158      43.526
2015   12       18     9  40    4.2274   484.6    5.156      43.501
2015   12       18     9  46    4.2246   484.5    5.154      43.476
2015   12       18     9  52    4.2220   484.4    5.152      43.452
2015   12       18     9  58    4.2193   484.4    5.150      43.427
2015   12       18    10   4    4.2166   484.3    5.149      43.403
2015   12       18    10  10    4.2138   484.2    5.147      43.378
2015   12       18    10  16    4.2111   484.2    5.145      43.354
2015   12       18    10  22    4.2084   484.1    5.144      43.330
2015   12       18    10  28    4.2057   484.0    5.142      43.306
2015   12       18    10  34    4.2030   483.9    5.141      43.283
2015   12       18    10  41    4.2002   483.9    5.140      43.260
2015   12       18    10  47    4.1975   483.8    5.138      43.237
2015   12       18    10  53    4.1947   483.7    5.137      43.215
2015   12       18    10  59    4.1920   483.6    5.136      43.192
2015   12       18    11   5    4.1892   483.6    5.134      43.170
2015   12       18    11  11    4.1864   483.5    5.133      43.147
2015   12       18    11  17    4.1836   483.4    5.131      43.124
2015   12       18    11  23    4.1808   483.4    5.130      43.101
2015   12       18    11  29    4.1780   483.3    5.128      43.078
2015   12       18    11  36    4.1751   483.2    5.127      43.054
2015   12       18    11  42    4.1723   483.1    5.125      43.030
2015   12       18    11  48    4.1694   483.1    5.124      43.006
2015   12       18    11  54    4.1665   483.0    5.122      42.981
2015   12       18    12   0    4.1636   482.9    5.120      42.956
2015   12       18    12   6    4.1607   482.8    5.119      42.931
2015   12       18    12  12    4.1577   482.8    5.117      42.906
2015   12       18    12  18    4.1547   482.7    5.115      42.880
2015   12       18    12  24    4.1517   482.6    5.113      42.854
2015   12       18    12  31    4.1487   482.5    5.111      42.827
2015   12       18    12  37    4.1457   482.5    5.109      42.800
2015   12       18    12  43    4.1426   482.4    5.107      42.773
2015   12       18    12  49    4.1396   482.3    5.105      42.746
2015   12       18    12  55    4.1365   482.2    5.103      42.718
2015   12       18    13   1    4.1334   482.2    5.101      42.690
2015   12       18    13   7    4.1303   482.1    5.099      42.662
2015   12       18    13  13    4.1272   482.0    5.097      42.633
2015   12       18    13  19    4.1240   481.9    5.094      42.604
2015   12       18    13  25    4.1208   481.8    5.092      42.575
2015   12       18    13  32    4.1177   481.8    5.090      42.545
2015   12       18    13  38    4.1145   481.7    5.087      42.515
2015   12       18    13  44    4.1113   481.6    5.085      42.485
2015   12       18    13  50    4.1081   481.5    5.083      42.455
2015   12       18    13  56    4.1049   481.4    5.080      42.424
2015   12       18    14   2    4.1017   481.4    5.078      42.393
2015   12       18    14   8    4.0984   481.3    5.075      42.362
2015   12       18    14  14    4.0952   481.2    5.072      42.331
2015   12       18    14  20    4.0919   481.1    5.070      42.299
2015   12       18    14  27    4.0887   481.0    5.067      42.267
2015   12       18    14  33    4.0854   480.9    5.064      42.235
2015   12       18    14  39    4.0822   480.9    5.062      42.203
2015   12       18    14  45    4.0789   480.8    5.059      42.170
2015   12       18    14  51    4.0756   480.7    5.056      42.137
2015   12       18    14  57    4.0723   480.6    5.053      42.104
2015   12       18    15   3    4.0690   480.5    5.051      42.071
2015   12       18    15   9    4.0658   480.4    5.048      42.038
2015   12       18    15  15    4.0625   480.3    5.045      42.004
2015   12       18    15  22    4.0592   480.2    5.042      41.971
2015   12       18    15  28    4.0559   480.2    5.039      41.937
2015   12       18    15  34    4.0526   480.1    5.036      41.903
2015   12       18    15  40    4.0493   480.0    5.033      41.868
2015   12       18    15  46    4.0460   479.9    5.030      41.834
2015   12       18    15  52    4.0427   479.8    5.027      41.799
2015   12       18    15  58    4.0394   479.7    5.024      41.764
2015   12       18    16   4    4.0361   479.6    5.021      41.730
2015   12       18    16  10    4.0328   479.5    5.019      41.694
2015   12       18    16  17    4.0296   479.4    5.016      41.659
2015   12       18    16  23    4.0263   479.3    5.013      41.624
2015   12       18    16  29    4.0230   479.3    5.010      41.588
2015   12       18    16  35    4.0197   479.2    5.007      41.553
2015   12       18    16  41    4.0164   479.1    5.004      41.517
2015   12       18    16  47    4.0132   479.0    5.001      41.481
2015   12       18    16  53    4.0099   478.9    4.998      41.445
2015   12       18    16  59    4.0066   478.8    4.995      41.410
2015   12       18    17   5    4.0034   478.7    4.993      41.374
2015   12       18    17  12    4.0001   478.6    4.990      41.338
2015   12       18    17  18    3.9968   478.5    4.987      41.302
2015   12       18    17  24    3.9936   478.4    4.984      41.266
2015   12       18    17  30    3.9904   478.3    4.982      41.230
2015   12       18    17  36    3.9871   478.2    4.979      41.195
2015   12       18    17  42    3.9839   478.1    4.977      41.159
2015   12       18    17  48    3.9807   478.0    4.974      41.123
2015   12       18    17  54    3.9775   477.9    4.972      41.088
2015   12       18    18   0    3.9743   477.8    4.969      41.053
2015   12       18    18   7    3.9711   477.7    4.967      41.017
2015   12       18    18  13    3.9679   477.6    4.965      40.982
2015   12       18    18  19    3.9647   477.5    4.963      40.947
2015   12       18    18  25    3.9615   477.4    4.960      40.912
2015   12       18    18  31    3.9584   477.3    4.958      40.877
2015   12       18    18  37    3.9552   477.2    4.956      40.842
2015   12       18    18  43    3.9521   477.0    4.954      40.807
2015   12       18    18  49    3.9489   476.9    4.952      40.773
2015   12       18    18  55    3.9458   476.8    4.951      40.739
2015   12       18    19   2    3.9426   476.7    4.949      40.705
2015   12       18    19   8    3.9395   476.6    4.947      40.670
2015   12       18    19  14    3.9364   476.5    4.946      40.637
2015   12       18    19  20    3.9333   476.4    4.944      40.603
2015   12       18    19  26    3.9301   476.3    4.943      40.570
2015   12       18    19  32    3.9270   476.2    4.941      40.537
2015   12       18    19  38    3.9239   476.0    4.940      40.504
2015   12       18    19  44    3.9207   475.9    4.939      40.471
2015   12       18    19  50    3.9176   475.8    4.937      40.438
2015   12       18    19  56    3.9145   475.7    4.936      40.406
2015   12       18    20   3    3.9114   475.6    4.935      40.373
2015   12       18    20   9    3.9083   475.5    4.934      40.341
2015   12       18    20  15    3.9052   475.3    4.933      40.309
2015   12       18    20  21    3.9020   475.2    4.932      40.276
2015   12       18    20  27    3.8989   475.1    4.931      40.244
2015   12       18    20  33    3.8958   475.0    4.930      40.212
2015   12       18    20  39    3.8927   474.9    4.929      40.180
2015   12       18    20  45    3.8895   474.7    4.928      40.148
2015   12       18    20  51    3.8864   474.6    4.927      40.115
2015   12       18    20  58    3.8832   474.5    4.926      40.083
2015   12       18    21   4    3.8801   474.4    4.925      40.051
2015   12       18    21  10    3.8769   474.2    4.924      40.019
2015   12       18    21  16    3.8737   474.1    4.923      39.986
2015   12       18    21  22    3.8706   474.0    4.921      39.953
2015   12       18    21  28    3.8674   473.8    4.920      39.919
2015   12       18    21  34    3.8642   473.7    4.919      39.886
2015   12       18    21  40    3.8610   473.6    4.917      39.852
2015   12       18    21  46    3.8579   473.4    4.916      39.818
2015   12       18    21  53    3.8547   473.3    4.914      39.784
2015   12       18    21  59    3.8516   473.2    4.913      39.750
2015   12       18    22   5    3.8484   473.1    4.911      39.715
2015   12       18    22  11    3.8453   472.9    4.910      39.680
2015   12       18    22  17    3.8421   472.8    4.908      39.645
2015   12       18    22  23    3.8390   472.6    4.906      39.610
2015   12       18    22  29    3.8359   472.5    4.905      39.574
2015   12       18    22  35    3.8328   472.4    4.903      39.538
2015   12       18    22  41    3.8297   472.2    4.901      39.502
2015   12       18    22  48    3.8266   472.1    4.900      39.466
2015   12       18    22  54    3.8235   472.0    4.898      39.429
2015   12       18    23   0    3.8205   471.8    4.896      39.393
2015   12       18    23   6    3.8174   471.7    4.894      39.356
2015   12       18    23  12    3.8144   471.6    4.892      39.319
2015   12       18    23  18    3.8113   471.4    4.890      39.282
2015   12       18    23  24    3.8083   471.3    4.888      39.244
2015   12       18    23  30    3.8053   471.2    4.886      39.207
2015   12       18    23  36    3.8023   471.0    4.884      39.169
2015   12       18    23  43    3.7992   470.9    4.882      39.131
2015   12       18    23  49    3.7963   470.7    4.880      39.093
2015   12       18    23  55    3.7932   470.6    4.878      39.054
2015   12       19     0   1    3.7902   470.5    4.876      39.016
2015   12       19     0   7    3.7872   470.3    4.874      38.977
2015   12       19     0  13    3.7843   470.2    4.872      38.938
2015   12       19     0  19    3.7813   470.1    4.869      38.899
2015   12       19     0  25    3.7783   469.9    4.867      38.859
2015   12       19     0  31    3.7753   469.8    4.865      38.820
2015   12       19     0  38    3.7723   469.6    4.863      38.780
2015   12       19     0  44    3.7693   469.5    4.861      38.740
2015   12       19     0  50    3.7663   469.3    4.858      38.700
2015   12       19     0  56    3.7633   469.2    4.856      38.659
2015   12       19     1   2    3.7603   469.1    4.854      38.619
2015   12       19     1   8    3.7573   468.9    4.851      38.578
2015   12       19     1  14    3.7543   468.8    4.849      38.537
2015   12       19     1  20    3.7513   468.6    4.847      38.496
2015   12       19     1  26    3.7483   468.5    4.844      38.454
2015   12       19     1  33    3.7453   468.3    4.842      38.413
2015   12       19     1  39    3.7424   468.2    4.840      38.371
2015   12       19     1  45    3.7394   468.0    4.837      38.329
2015   12       19     1  51    3.7364   467.9    4.835      38.288
2015   12       19     1  57    3.7334   467.7    4.833      38.245
2015   12       19     2   3    3.7304   467.6    4.830      38.203
2015   12       19     2   9    3.7275   467.4    4.828      38.161
2015   12       19     2  15    3.7245   467.3    4.826      38.119
2015   12       19     2  21    3.7216   467.1    4.824      38.077
2015   12       19     2  27    3.7186   467.0    4.822      38.034
2015   12       19     2  34    3.7157   466.8    4.820      37.992
2015   12       19     2  40    3.7127   466.7    4.818      37.950
2015   12       19     2  46    3.7098   466.5    4.816      37.908
2015   12       19     2  52    3.7069   466.4    4.814      37.866
2015   12       19     2  58    3.7039   466.2    4.812      37.824
2015   12       19     3   4    3.7010   466.1    4.810      37.783
2015   12       19     3  10    3.6982   465.9    4.809      37.741
2015   12       19     3  16    3.6953   465.8    4.807      37.700
2015   12       19     3  22    3.6924   465.6    4.805      37.660
2015   12       19     3  29    3.6896   465.4    4.804      37.619
2015   12       19     3  35    3.6867   465.3    4.803      37.579
2015   12       19     3  41    3.6839   465.1    4.801      37.538
2015   12       19     3  47    3.6810   465.0    4.800      37.499
2015   12       19     3  53    3.6782   464.8    4.799      37.459
2015   12       19     3  59    3.6753   464.7    4.798      37.419
2015   12       19     4   5    3.6725   464.5    4.797      37.380
2015   12       19     4  11    3.6696   464.3    4.796      37.341
2015   12       19     4  17    3.6668   464.2    4.795      37.302
2015   12       19     4  24    3.6639   464.0    4.794      37.263
2015   12       19     4  30    3.6611   463.9    4.793      37.224
2015   12       19     4  36    3.6582   463.7    4.792      37.185
2015   12       19     4  42    3.6553   463.5    4.791      37.146
2015   12       19     4  48    3.6524   463.4    4.790      37.106
2015   12       19     4  54    3.6495   463.2    4.789      37.067
2015   12       19     5   0    3.6467   463.1    4.788      37.028
2015   12       19     5   6    3.6437   462.9    4.787      36.988
2015   12       19     5  12    3.6408   462.7    4.786      36.949
2015   12       19     5  19    3.6379   462.6    4.785      36.909
2015   12       19     5  25    3.6350   462.4    4.784      36.869
2015   12       19     5  31    3.6321   462.2    4.783      36.829
2015   12       19     5  37    3.6292   462.0    4.782      36.788
2015   12       19     5  43    3.6263   461.9    4.781      36.748
2015   12       19     5  49    3.6234   461.7    4.780      36.707
2015   12       19     5  55    3.6205   461.5    4.780      36.667
2015   12       19     6   1    3.6176   461.3    4.779      36.626
2015   12       19     6   7    3.6148   461.2    4.778      36.585
2015   12       19     6  14    3.6119   461.0    4.777      36.544
2015   12       19     6  20    3.6091   460.8    4.776      36.504
2015   12       19     6  26    3.6063   460.6    4.775      36.463
2015   12       19     6  32    3.6035   460.4    4.775      36.422
2015   12       19     6  38    3.6008   460.3    4.774      36.382
2015   12       19     6  44    3.5980   460.1    4.773      36.342
2015   12       19     6  50    3.5954   459.9    4.773      36.302
2015   12       19     6  56    3.5927   459.7    4.772      36.262
2015   12       19     7   2    3.5901   459.5    4.772      36.223
2015   12       19     7   9    3.5875   459.3    4.772      36.184
2015   12       19     7  15    3.5849   459.1    4.772      36.145
2015   12       19     7  21    3.5824   458.9    4.772      36.107
2015   12       19     7  27    3.5799   458.8    4.772      36.070
2015   12       19     7  33    3.5775   458.6    4.772      36.033
2015   12       19     7  39    3.5751   458.4    4.772      35.996
2015   12       19     7  45    3.5727   458.2    4.772      35.961
2015   12       19     7  51    3.5704   458.0    4.773      35.925
2015   12       19     7  57    3.5680   457.8    4.774      35.891
2015   12       19     8   4    3.5657   457.6    4.774      35.858
2015   12       19     8  10    3.5635   457.4    4.775      35.825
2015   12       19     8  16    3.5612   457.3    4.775      35.792
2015   12       19     8  22    3.5589   457.1    4.776      35.760
2015   12       19     8  28    3.5566   456.9    4.776      35.727
2015   12       19     8  34    3.5542   456.7    4.777      35.694
2015   12       19     8  40    3.5519   456.5    4.777      35.661
2015   12       19     8  46    3.5495   456.3    4.777      35.627
2015   12       19     8  52    3.5471   456.2    4.777      35.593
2015   12       19     8  58    3.5447   456.0    4.777      35.558
2015   12       19     9   5    3.5423   455.8    4.776      35.523
2015   12       19     9  11    3.5398   455.6    4.776      35.487
2015   12       19     9  17    3.5374   455.4    4.776      35.451
2015   12       19     9  23    3.5349   455.2    4.775      35.414
2015   12       19     9  29    3.5324   455.1    4.775      35.377
2015   12       19     9  35    3.5300   454.9    4.774      35.340
2015   12       19     9  41    3.5275   454.7    4.773      35.302
2015   12       19     9  47    3.5250   454.5    4.772      35.264
2015   12       19     9  53    3.5225   454.3    4.771      35.225
2015   12       19    10   0    3.5199   454.1    4.771      35.186
2015   12       19    10   6    3.5174   454.0    4.770      35.147
2015   12       19    10  12    3.5149   453.8    4.768      35.107
2015   12       19    10  18    3.5124   453.6    4.767      35.067
2015   12       19    10  24    3.5099   453.4    4.766      35.027
2015   12       19    10  30    3.5073   453.2    4.765      34.986
2015   12       19    10  36    3.5048   453.0    4.764      34.945
2015   12       19    10  42    3.5023   452.8    4.763      34.904
2015   12       19    10  48    3.4998   452.7    4.762      34.863
2015   12       19    10  55    3.4973   452.5    4.760      34.821
2015   12       19    11   1    3.4948   452.3    4.759      34.780
2015   12       19    11   7    3.4923   452.1    4.758      34.738
2015   12       19    11  13    3.4898   451.9    4.757      34.696
2015   12       19    11  19    3.4873   451.7    4.756      34.654
2015   12       19    11  25    3.4849   451.5    4.754      34.612
2015   12       19    11  31    3.4824   451.3    4.753      34.569
2015   12       19    11  37    3.4799   451.1    4.752      34.527
2015   12       19    11  43    3.4775   451.0    4.751      34.484
2015   12       19    11  50    3.4750   450.8    4.749      34.442
2015   12       19    11  56    3.4726   450.6    4.748      34.399
2015   12       19    12   2    3.4701   450.4    4.747      34.356
2015   12       19    12   8    3.4677   450.2    4.746      34.314
2015   12       19    12  14    3.4652   450.0    4.745      34.271
2015   12       19    12  20    3.4628   449.8    4.743      34.228
2015   12       19    12  26    3.4604   449.6    4.742      34.185
2015   12       19    12  32    3.4580   449.4    4.741      34.142
2015   12       19    12  38    3.4555   449.2    4.740      34.098
2015   12       19    12  44    3.4531   449.0    4.739      34.055
2015   12       19    12  51    3.4507   448.8    4.738      34.011
2015   12       19    12  57    3.4483   448.6    4.737      33.968
2015   12       19    13   3    3.4459   448.4    4.735      33.924
2015   12       19    13   9    3.4435   448.2    4.734      33.881
2015   12       19    13  15    3.4411   448.0    4.733      33.837
2015   12       19    13  21    3.4387   447.8    4.732      33.794
2015   12       19    13  27    3.4363   447.6    4.731      33.750
2015   12       19    13  33    3.4339   447.4    4.730      33.706
2015   12       19    13  39    3.4315   447.2    4.729      33.663
2015   12       19    13  46    3.4292   447.0    4.728      33.620
2015   12       19    13  52    3.4268   446.8    4.727      33.576
2015   12       19    13  58    3.4245   446.6    4.727      33.533
2015   12       19    14   4    3.4222   446.4    4.726      33.491
2015   12       19    14  10    3.4199   446.2    4.725      33.448
2015   12       19    14  16    3.4176   446.0    4.725      33.406
2015   12       19    14  22    3.4154   445.8    4.724      33.364
2015   12       19    14  28    3.4132   445.6    4.724      33.323
2015   12       19    14  34    3.4110   445.4    4.724      33.282
2015   12       19    14  41    3.4088   445.2    4.723      33.241
2015   12       19    14  47    3.4067   444.9    4.723      33.202
2015   12       19    14  53    3.4046   444.7    4.724      33.162
2015   12       19    14  59    3.4026   444.5    4.724      33.124
2015   12       19    15   5    3.4006   444.3    4.724      33.086
2015   12       19    15  11    3.3986   444.1    4.725      33.049
2015   12       19    15  17    3.3967   443.9    4.726      33.012
2015   12       19    15  23    3.3949   443.7    4.726      32.977
2015   12       19    15  29    3.3930   443.5    4.728      32.943
2015   12       19    15  36    3.3912   443.3    4.729      32.909
2015   12       19    15  42    3.3894   443.1    4.730      32.876
2015   12       19    15  48    3.3876   442.8    4.731      32.844
2015   12       19    15  54    3.3858   442.6    4.732      32.812
2015   12       19    16   0    3.3840   442.4    4.734      32.781
2015   12       19    16   6    3.3823   442.2    4.735      32.749
2015   12       19    16  12    3.3805   442.0    4.736      32.717
2015   12       19    16  18    3.3787   441.8    4.737      32.685
2015   12       19    16  24    3.3769   441.6    4.739      32.653
2015   12       19    16  31    3.3750   441.4    4.740      32.620
2015   12       19    16  37    3.3732   441.2    4.741      32.588
2015   12       19    16  43    3.3714   441.0    4.742      32.555
2015   12       19    16  49    3.3695   440.8    4.744      32.523
2015   12       19    16  55    3.3676   440.6    4.745      32.490
2015   12       19    17   1    3.3658   440.4    4.746      32.457
2015   12       19    17   7    3.3639   440.2    4.747      32.424
2015   12       19    17  13    3.3620   440.0    4.748      32.391
2015   12       19    17  19    3.3602   439.7    4.750      32.358
2015   12       19    17  26    3.3583   439.5    4.751      32.325
2015   12       19    17  32    3.3564   439.3    4.752      32.291
2015   12       19    17  38    3.3545   439.1    4.753      32.258
2015   12       19    17  44    3.3526   438.9    4.754      32.225
2015   12       19    17  50    3.3507   438.7    4.755      32.191
2015   12       19    17  56    3.3488   438.5    4.757      32.158
2015   12       19    18   2    3.3469   438.3    4.758      32.125
2015   12       19    18   8    3.3450   438.1    4.759      32.091
2015   12       19    18  14    3.3431   437.9    4.760      32.058
2015   12       19    18  20    3.3412   437.7    4.761      32.024
2015   12       19    18  27    3.3393   437.4    4.762      31.991
2015   12       19    18  33    3.3374   437.2    4.763      31.957
2015   12       19    18  39    3.3356   437.0    4.764      31.923
2015   12       19    18  45    3.3337   436.8    4.765      31.890
2015   12       19    18  51    3.3318   436.6    4.766      31.856
2015   12       19    18  57    3.3299   436.4    4.767      31.822
2015   12       19    19   3    3.3281   436.2    4.768      31.788
2015   12       19    19   9    3.3262   435.9    4.769      31.755
2015   12       19    19  15    3.3243   435.7    4.770      31.721
2015   12       19    19  22    3.3225   435.5    4.771      31.687
2015   12       19    19  28    3.3207   435.3    4.772      31.654
2015   12       19    19  34    3.3189   435.1    4.773      31.620
2015   12       19    19  40    3.3171   434.9    4.774      31.586
2015   12       19    19  46    3.3153   434.7    4.775      31.552
2015   12       19    19  52    3.3135   434.4    4.776      31.518
2015   12       19    19  58    3.3118   434.2    4.777      31.485
2015   12       19    20   4    3.3100   434.0    4.778      31.451
2015   12       19    20  10    3.3083   433.8    4.778      31.418
2015   12       19    20  17    3.3066   433.6    4.779      31.384
2015   12       19    20  23    3.3049   433.4    4.780      31.350
2015   12       19    20  29    3.3032   433.1    4.781      31.316
2015   12       19    20  35    3.3015   432.9    4.781      31.282
2015   12       19    20  41    3.2998   432.7    4.782      31.247
2015   12       19    20  47    3.2981   432.5    4.782      31.213
2015   12       19    20  53    3.2965   432.3    4.783      31.178
2015   12       19    20  59    3.2948   432.0    4.783      31.143
2015   12       19    21   5    3.2932   431.8    4.784      31.108
2015   12       19    21  12    3.2916   431.6    4.784      31.072
2015   12       19    21  18    3.2900   431.4    4.785      31.037
2015   12       19    21  24    3.2884   431.1    4.785      31.001
2015   12       19    21  30    3.2868   430.9    4.785      30.965
2015   12       19    21  36    3.2852   430.7    4.785      30.929
2015   12       19    21  42    3.2836   430.5    4.786      30.892
2015   12       19    21  48    3.2820   430.3    4.786      30.856
2015   12       19    21  54    3.2804   430.0    4.786      30.819
2015   12       19    22   0    3.2789   429.8    4.786      30.782
2015   12       19    22   7    3.2773   429.6    4.786      30.745
2015   12       19    22  13    3.2758   429.3    4.787      30.707
2015   12       19    22  19    3.2742   429.1    4.787      30.670
2015   12       19    22  25    3.2727   428.9    4.787      30.632
2015   12       19    22  31    3.2712   428.7    4.787      30.594
2015   12       19    22  37    3.2696   428.4    4.787      30.556
2015   12       19    22  43    3.2681   428.2    4.787      30.518
2015   12       19    22  49    3.2666   428.0    4.788      30.480
2015   12       19    22  55    3.2651   427.7    4.788      30.443
2015   12       19    23   2    3.2637   427.5    4.788      30.405
2015   12       19    23   8    3.2622   427.3    4.789      30.367
2015   12       19    23  14    3.2607   427.0    4.789      30.329
2015   12       19    23  20    3.2593   426.8    4.789      30.292
2015   12       19    23  26    3.2578   426.6    4.790      30.254
2015   12       19    23  32    3.2564   426.4    4.791      30.217
2015   12       19    23  38    3.2550   426.1    4.791      30.180
2015   12       19    23  44    3.2536   425.9    4.792      30.143
2015   12       19    23  50    3.2522   425.7    4.793      30.106
2015   12       19    23  57    3.2508   425.4    4.793      30.069
2015   12       20     0   3    3.2494   425.2    4.794      30.033
2015   12       20     0   9    3.2481   425.0    4.795      29.997
2015   12       20     0  15    3.2467   424.7    4.796      29.960
2015   12       20     0  21    3.2453   424.5    4.797      29.925
2015   12       20     0  27    3.2440   424.3    4.798      29.889
2015   12       20     0  33    3.2426   424.0    4.800      29.854
2015   12       20     0  39    3.2413   423.8    4.801      29.819
2015   12       20     0  45    3.2399   423.6    4.802      29.784
2015   12       20     0  51    3.2386   423.3    4.803      29.749
2015   12       20     0  58    3.2372   423.1    4.805      29.714
2015   12       20     1   4    3.2359   422.9    4.806      29.680
2015   12       20     1  10    3.2346   422.6    4.808      29.646
2015   12       20     1  16    3.2332   422.4    4.809      29.612
2015   12       20     1  22    3.2319   422.2    4.811      29.578
2015   12       20     1  28    3.2306   421.9    4.812      29.544
2015   12       20     1  34    3.2292   421.7    4.814      29.511
2015   12       20     1  40    3.2279   421.5    4.816      29.477
2015   12       20     1  46    3.2266   421.2    4.817      29.444
2015   12       20     1  53    3.2253   421.0    4.819      29.410
2015   12       20     1  59    3.2239   420.7    4.821      29.377
2015   12       20     2   5    3.2226   420.5    4.823      29.344
2015   12       20     2  11    3.2214   420.2    4.825      29.311
2015   12       20     2  17    3.2201   420.0    4.827      29.278
2015   12       20     2  23    3.2189   419.7    4.829      29.246
2015   12       20     2  29    3.2176   419.5    4.831      29.213
2015   12       20     2  35    3.2164   419.3    4.833      29.181
2015   12       20     2  41    3.2152   419.0    4.835      29.149
2015   12       20     2  48    3.2140   418.8    4.838      29.117
2015   12       20     2  54    3.2129   418.5    4.840      29.086
2015   12       20     3   0    3.2118   418.3    4.842      29.055
2015   12       20     3   6    3.2107   418.0    4.845      29.024
2015   12       20     3  12    3.2097   417.8    4.848      28.993
2015   12       20     3  18    3.2087   417.5    4.851      28.963
2015   12       20     3  24    3.2077   417.3    4.854      28.933
2015   12       20     3  30    3.2068   417.0    4.857      28.904
2015   12       20     3  36    3.2058   416.7    4.860      28.875
2015   12       20     3  43    3.2050   416.5    4.863      28.846
2015   12       20     3  49    3.2042   416.2    4.866      28.818
2015   12       20     3  55    3.2034   416.0    4.870      28.790
2015   12       20     4   1    3.2026   415.7    4.873      28.762
2015   12       20     4   7    3.2019   415.5    4.877      28.734
2015   12       20     4  13    3.2012   415.2    4.880      28.707
2015   12       20     4  19    3.2006   415.0    4.884      28.680
2015   12       20     4  25    3.2000   414.7    4.888      28.653
2015   12       20     4  31    3.1994   414.4    4.892      28.626
2015   12       20     4  38    3.1989   414.2    4.896      28.600
2015   12       20     4  44    3.1984   413.9    4.900      28.574
2015   12       20     4  50    3.1980   413.7    4.904      28.548
2015   12       20     4  56    3.1975   413.4    4.909      28.522
2015   12       20     5   2    3.1971   413.2    4.913      28.497
2015   12       20     5   8    3.1967   412.9    4.918      28.471
2015   12       20     5  14    3.1963   412.7    4.922      28.446
2015   12       20     5  20    3.1960   412.4    4.927      28.421
2015   12       20     5  26    3.1957   412.2    4.931      28.396
2015   12       20     5  33    3.1953   411.9    4.936      28.372
2015   12       20     5  39    3.1951   411.6    4.940      28.347
2015   12       20     5  45    3.1948   411.4    4.945      28.323
2015   12       20     5  51    3.1945   411.1    4.950      28.298
2015   12       20     5  57    3.1942   410.9    4.954      28.274
2015   12       20     6   3    3.1940   410.6    4.959      28.250
2015   12       20     6   9    3.1938   410.4    4.964      28.225
2015   12       20     6  15    3.1935   410.1    4.968      28.201
2015   12       20     6  21    3.1933   409.9    4.973      28.177
2015   12       20     6  28    3.1931   409.6    4.978      28.152
2015   12       20     6  34    3.1929   409.3    4.982      28.128
2015   12       20     6  40    3.1928   409.1    4.987      28.104
2015   12       20     6  46    3.1926   408.8    4.992      28.079
2015   12       20     6  52    3.1924   408.6    4.996      28.055
2015   12       20     6  58    3.1923   408.3    5.001      28.031
2015   12       20     7   4    3.1922   408.1    5.005      28.006
2015   12       20     7  10    3.1921   407.8    5.010      27.982
2015   12       20     7  16    3.1920   407.6    5.015      27.957
2015   12       20     7  22    3.1919   407.3    5.019      27.933
2015   12       20     7  29    3.1919   407.0    5.024      27.908
2015   12       20     7  35    3.1919   406.8    5.028      27.883
2015   12       20     7  41    3.1919   406.5    5.033      27.859
2015   12       20     7  47    3.1919   406.3    5.037      27.834
2015   12       20     7  53    3.1919   406.0    5.042      27.809
2015   12       20     7  59    3.1920   405.7    5.046      27.785
2015   12       20     8   5    3.1921   405.5    5.051      27.760
2015   12       20     8  11    3.1923   405.2    5.055      27.735
2015   12       20     8  17    3.1924   405.0    5.060      27.710
2015   12       20     8  24    3.1926   404.7    5.065      27.686
2015   12       20     8  30    3.1929   404.4    5.069      27.661
2015   12       20     8  36    3.1931   404.2    5.074      27.636
2015   12       20     8  42    3.1934   403.9    5.079      27.611
2015   12       20     8  48    3.1938   403.7    5.084      27.586
2015   12       20     8  54    3.1941   403.4    5.088      27.561
2015   12       20     9   0    3.1945   403.1    5.093      27.537
2015   12       20     9   6    3.1949   402.9    5.098      27.512
2015   12       20     9  12    3.1954   402.6    5.103      27.487
2015   12       20     9  19    3.1959   402.4    5.108      27.462
2015   12       20     9  25    3.1965   402.1    5.113      27.438
2015   12       20     9  31    3.1970   401.8    5.119      27.413
2015   12       20     9  37    3.1977   401.6    5.124      27.388
2015   12       20     9  43    3.1983   401.3    5.129      27.364
2015   12       20     9  49    3.1990   401.0    5.135      27.339
2015   12       20     9  55    3.1997   400.8    5.140      27.315
2015   12       20    10   1    3.2005   400.5    5.146      27.291
2015   12       20    10   7    3.2013   400.3    5.152      27.267
2015   12       20    10  14    3.2022   400.0    5.158      27.243
2015   12       20    10  20    3.2030   399.7    5.163      27.220
2015   12       20    10  26    3.2040   399.5    5.170      27.196
2015   12       20    10  32    3.2049   399.2    5.176      27.173
2015   12       20    10  38    3.2059   398.9    5.182      27.150
2015   12       20    10  44    3.2069   398.7    5.188      27.127
2015   12       20    10  50    3.2080   398.4    5.195      27.104
2015   12       20    10  56    3.2091   398.2    5.201      27.082
2015   12       20    11   2    3.2102   397.9    5.208      27.060
2015   12       20    11   9    3.2114   397.6    5.215      27.039
2015   12       20    11  15    3.2126   397.4    5.222      27.017
2015   12       20    11  21    3.2139   397.1    5.229      26.997
2015   12       20    11  27    3.2152   396.9    5.236      26.976
2015   12       20    11  33    3.2165   396.6    5.244      26.956
2015   12       20    11  39    3.2179   396.4    5.251      26.936
2015   12       20    11  45    3.2193   396.1    5.259      26.916
2015   12       20    11  51    3.2207   395.8    5.266      26.897
2015   12       20    11  57    3.2222   395.6    5.274      26.878
2015   12       20    12   4    3.2237   395.3    5.282      26.860
2015   12       20    12  10    3.2252   395.1    5.290      26.842
2015   12       20    12  16    3.2268   394.8    5.298      26.824
2015   12       20    12  22    3.2284   394.6    5.306      26.806
2015   12       20    12  28    3.2300   394.3    5.315      26.789
2015   12       20    12  34    3.2317   394.1    5.323      26.773
2015   12       20    12  40    3.2334   393.8    5.331      26.756
2015   12       20    12  46    3.2352   393.6    5.340      26.740
2015   12       20    12  52    3.2370   393.3    5.348      26.724
2015   12       20    12  59    3.2388   393.1    5.357      26.709
2015   12       20    13   5    3.2406   392.8    5.366      26.694
2015   12       20    13  11    3.2425   392.6    5.375      26.679
2015   12       20    13  17    3.2444   392.3    5.383      26.665
2015   12       20    13  23    3.2464   392.1    5.392      26.650
2015   12       20    13  29    3.2484   391.8    5.402      26.637
2015   12       20    13  35    3.2504   391.6    5.411      26.623
2015   12       20    13  41    3.2525   391.3    5.420      26.610
2015   12       20    13  47    3.2546   391.1    5.429      26.597
2015   12       20    13  53    3.2568   390.9    5.438      26.584
2015   12       20    14   0    3.2590   390.6    5.448      26.572
2015   12       20    14   6    3.2613   390.4    5.457      26.560
2015   12       20    14  12    3.2636   390.1    5.467      26.548
2015   12       20    14  18    3.2660   389.9    5.477      26.537
2015   12       20    14  24    3.2684   389.6    5.486      26.526
2015   12       20    14  30    3.2708   389.4    5.496      26.515
2015   12       20    14  36    3.2733   389.2    5.506      26.504
2015   12       20    14  42    3.2759   388.9    5.516      26.494
2015   12       20    14  48    3.2784   388.7    5.526      26.484
2015   12       20    14  55    3.2811   388.5    5.536      26.474
2015   12       20    15   1    3.2837   388.2    5.546      26.465
2015   12       20    15   7    3.2865   388.0    5.556      26.456
2015   12       20    15  13    3.2893   387.7    5.567      26.447
2015   12       20    15  19    3.2921   387.5    5.577      26.438
2015   12       20    15  25    3.2950   387.3    5.587      26.430
2015   12       20    15  31    3.2979   387.0    5.598      26.421
2015   12       20    15  37    3.3009   386.8    5.609      26.413
2015   12       20    15  43    3.3039   386.6    5.619      26.406
2015   12       20    15  50    3.3070   386.4    5.630      26.398
2015   12       20    15  56    3.3101   386.1    5.641      26.391
2015   12       20    16   2    3.3133   385.9    5.652      26.384
2015   12       20    16   8    3.3165   385.7    5.663      26.377
2015   12       20    16  14    3.3197   385.4    5.674      26.370
2015   12       20    16  20    3.3230   385.2    5.685      26.364
2015   12       20    16  26    3.3264   385.0    5.696      26.358
2015   12       20    16  32    3.3298   384.8    5.707      26.352
2015   12       20    16  38    3.3331   384.6    5.719      26.346
2015   12       20    16  45    3.3366   384.3    5.730      26.340
2015   12       20    16  51    3.3401   384.1    5.742      26.334
2015   12       20    16  57    3.3436   383.9    5.753      26.329
2015   12       20    17   3    3.3471   383.7    5.765      26.324
2015   12       20    17   9    3.3507   383.5    5.776      26.319
2015   12       20    17  15    3.3543   383.2    5.788      26.314
2015   12       20    17  21    3.3579   383.0    5.800      26.309
2015   12       20    17  27    3.3616   382.8    5.812      26.304
2015   12       20    17  33    3.3653   382.6    5.823      26.300
2015   12       20    17  39    3.3690   382.4    5.835      26.295
2015   12       20    17  46    3.3727   382.2    5.847      26.291
2015   12       20    17  52    3.3764   382.0    5.859      26.287
2015   12       20    17  58    3.3802   381.8    5.871      26.283
2015   12       20    18   4    3.3840   381.5    5.884      26.279
2015   12       20    18  10    3.3878   381.3    5.896      26.275
2015   12       20    18  16    3.3916   381.1    5.908      26.271
2015   12       20    18  22    3.3954   380.9    5.920      26.267
2015   12       20    18  28    3.3993   380.7    5.932      26.264
2015   12       20    18  34    3.4032   380.5    5.945      26.260
2015   12       20    18  41    3.4071   380.3    5.957      26.257
2015   12       20    18  47    3.4110   380.1    5.969      26.253
2015   12       20    18  53    3.4149   379.9    5.982      26.250
2015   12       20    18  59    3.4189   379.7    5.994      26.247
2015   12       20    19   5    3.4228   379.5    6.007      26.244
2015   12       20    19  11    3.4269   379.3    6.019      26.241
2015   12       20    19  17    3.4309   379.1    6.032      26.238
2015   12       20    19  23    3.4349   378.9    6.045      26.236
2015   12       20    19  29    3.4390   378.7    6.057      26.233
2015   12       20    19  36    3.4431   378.5    6.070      26.231
2015   12       20    19  42    3.4472   378.3    6.083      26.229
2015   12       20    19  48    3.4514   378.1    6.096      26.227
2015   12       20    19  54    3.4556   377.9    6.108      26.225
2015   12       20    20   0    3.4598   377.6    6.121      26.224
2015   12       20    20   6    3.4640   377.4    6.134      26.222
2015   12       20    20  12    3.4684   377.3    6.148      26.221
2015   12       20    20  18    3.4727   377.1    6.161      26.220
2015   12       20    20  24    3.4771   376.9    6.174      26.220
2015   12       20    20  31    3.4815   376.7    6.187      26.220
2015   12       20    20  37    3.4859   376.5    6.201      26.219
2015   12       20    20  43    3.4904   376.3    6.214      26.220
2015   12       20    20  49    3.4950   376.1    6.228      26.220
2015   12       20    20  55    3.4996   375.9    6.242      26.221
2015   12       20    21   1    3.5042   375.7    6.256      26.222
2015   12       20    21   7    3.5089   375.5    6.269      26.224
2015   12       20    21  13    3.5136   375.3    6.284      26.226
2015   12       20    21  19    3.5184   375.1    6.298      26.228
2015   12       20    21  26    3.5232   374.9    6.312      26.231
2015   12       20    21  32    3.5281   374.7    6.326      26.234
2015   12       20    21  38    3.5331   374.5    6.341      26.237
2015   12       20    21  44    3.5380   374.4    6.355      26.241
2015   12       20    21  50    3.5431   374.2    6.370      26.245
2015   12       20    21  56    3.5481   374.0    6.385      26.249
2015   12       20    22   2    3.5533   373.8    6.400      26.254
2015   12       20    22   8    3.5584   373.6    6.415      26.259
2015   12       20    22  14    3.5636   373.5    6.430      26.264
2015   12       20    22  20    3.5688   373.3    6.445      26.270
2015   12       20    22  27    3.5741   373.1    6.460      26.276
2015   12       20    22  33    3.5794   372.9    6.476      26.282
2015   12       20    22  39    3.5848   372.7    6.491      26.289
2015   12       20    22  45    3.5901   372.6    6.507      26.296
2015   12       20    22  51    3.5955   372.4    6.522      26.303
2015   12       20    22  57    3.6009   372.2    6.538      26.310
2015   12       20    23   3    3.6064   372.1    6.553      26.318
2015   12       20    23   9    3.6118   371.9    6.569      26.326
2015   12       20    23  15    3.6173   371.7    6.585      26.334
2015   12       20    23  22    3.6228   371.5    6.601      26.342
2015   12       20    23  28    3.6284   371.4    6.616      26.350
2015   12       20    23  34    3.6339   371.2    6.632      26.359
2015   12       20    23  40    3.6395   371.0    6.648      26.367
2015   12       20    23  46    3.6451   370.9    6.664      26.376
2015   12       20    23  52    3.6507   370.7    6.680      26.385
2015   12       20    23  58    3.6563   370.6    6.696      26.395
2015   12       21     0   4    3.6620   370.4    6.712      26.404
2015   12       21     0  10    3.6676   370.2    6.728      26.413
2015   12       21     0  17    3.6733   370.1    6.744      26.423
2015   12       21     0  23    3.6790   369.9    6.760      26.432
2015   12       21     0  29    3.6847   369.7    6.776      26.442
2015   12       21     0  35    3.6904   369.6    6.792      26.452
2015   12       21     0  41    3.6962   369.4    6.808      26.462
2015   12       21     0  47    3.7019   369.3    6.824      26.473
2015   12       21     0  53    3.7077   369.1    6.840      26.483
2015   12       21     0  59    3.7135   368.9    6.856      26.494
2015   12       21     1   5    3.7194   368.8    6.872      26.504
2015   12       21     1  12    3.7253   368.6    6.889      26.515
2015   12       21     1  18    3.7312   368.5    6.905      26.527
2015   12       21     1  24    3.7371   368.3    6.921      26.538
2015   12       21     1  30    3.7431   368.2    6.938      26.550
2015   12       21     1  36    3.7491   368.0    6.955      26.562
2015   12       21     1  42    3.7552   367.9    6.971      26.575
2015   12       21     1  48    3.7613   367.7    6.988      26.587
2015   12       21     1  54    3.7675   367.6    7.005      26.601
2015   12       21     2   0    3.7737   367.4    7.022      26.614
2015   12       21     2   7    3.7800   367.3    7.039      26.628
2015   12       21     2  13    3.7863   367.1    7.057      26.642
2015   12       21     2  19    3.7927   367.0    7.074      26.657
2015   12       21     2  25    3.7991   366.8    7.092      26.672
2015   12       21     2  31    3.8056   366.7    7.110      26.688
2015   12       21     2  37    3.8121   366.5    7.128      26.704
2015   12       21     2  43    3.8188   366.4    7.146      26.721
2015   12       21     2  49    3.8254   366.3    7.164      26.738
2015   12       21     2  55    3.8322   366.1    7.183      26.755
2015   12       21     3   2    3.8390   366.0    7.201      26.773
2015   12       21     3   8    3.8458   365.9    7.220      26.792
2015   12       21     3  14    3.8528   365.7    7.239      26.811
2015   12       21     3  20    3.8598   365.6    7.259      26.830
2015   12       21     3  26    3.8668   365.5    7.278      26.850
2015   12       21     3  32    3.8740   365.3    7.298      26.870
2015   12       21     3  38    3.8812   365.2    7.317      26.891
2015   12       21     3  44    3.8885   365.1    7.337      26.912
2015   12       21     3  50    3.8958   365.0    7.357      26.934
2015   12       21     3  56    3.9032   364.8    7.378      26.956
2015   12       21     4   3    3.9106   364.7    7.398      26.979
2015   12       21     4   9    3.9181   364.6    7.419      27.002
2015   12       21     4  15    3.9256   364.5    7.440      27.025
2015   12       21     4  21    3.9332   364.4    7.461      27.049
2015   12       21     4  27    3.9408   364.3    7.483      27.073
2015   12       21     4  33    3.9484   364.1    7.504      27.099
2015   12       21     4  39    3.9560   364.0    7.526      27.124
2015   12       21     4  45    3.9636   363.9    7.547      27.150
2015   12       21     4  51    3.9712   363.8    7.569      27.177
2015   12       21     4  58    3.9788   363.7    7.590      27.205
2015   12       21     5   4    3.9864   363.6    7.612      27.234
2015   12       21     5  10    3.9940   363.5    7.633      27.264
2015   12       21     5  16    4.0016   363.5    7.654      27.294
2015   12       21     5  22    4.0092   363.4    7.676      27.326
2015   12       21     5  28    4.0168   363.3    7.697      27.357
2015   12       21     5  34    4.0244   363.2    7.717      27.390
2015   12       21     5  40    4.0320   363.1    7.738      27.422
2015   12       21     5  46    4.0396   363.0    7.759      27.455
2015   12       21     5  53    4.0471   362.9    7.780      27.489
2015   12       21     5  59    4.0547   362.8    7.800      27.522
2015   12       21     6   5    4.0623   362.7    7.821      27.556
2015   12       21     6  11    4.0699   362.7    7.841      27.590
2015   12       21     6  17    4.0775   362.6    7.861      27.624
2015   12       21     6  23    4.0851   362.5    7.881      27.657
2015   12       21     6  29    4.0927   362.4    7.901      27.691
2015   12       21     6  35    4.1003   362.3    7.922      27.725
2015   12       21     6  41    4.1079   362.2    7.941      27.759
2015   12       21     6  48    4.1156   362.2    7.961      27.792
2015   12       21     6  54    4.1232   362.1    7.981      27.826
2015   12       21     7   0    4.1308   362.0    8.001      27.858
2015   12       21     7   6    4.1385   361.9    8.021      27.891
2015   12       21     7  12    4.1462   361.8    8.041      27.924
2015   12       21     7  18    4.1538   361.8    8.060      27.956
2015   12       21     7  24    4.1616   361.7    8.080      27.988
2015   12       21     7  30    4.1693   361.6    8.099      28.020
2015   12       21     7  36    4.1771   361.5    8.119      28.052
2015   12       21     7  42    4.1848   361.4    8.139      28.084
2015   12       21     7  49    4.1926   361.4    8.158      28.115
2015   12       21     7  55    4.2005   361.3    8.177      28.146
2015   12       21     8   1    4.2083   361.2    8.197      28.178
2015   12       21     8   7    4.2162   361.1    8.216      28.209
2015   12       21     8  13    4.2242   361.1    8.236      28.240
2015   12       21     8  19    4.2321   361.0    8.255      28.271
2015   12       21     8  25    4.2402   360.9    8.275      28.302
2015   12       21     8  31    4.2482   360.8    8.294      28.333
2015   12       21     8  37    4.2564   360.8    8.314      28.364
2015   12       21     8  44    4.2646   360.7    8.333      28.395
2015   12       21     8  50    4.2729   360.6    8.353      28.426
2015   12       21     8  56    4.2812   360.6    8.373      28.457
2015   12       21     9   2    4.2896   360.5    8.392      28.488
2015   12       21     9   8    4.2980   360.4    8.412      28.519
2015   12       21     9  14    4.3066   360.4    8.433      28.551
2015   12       21     9  20    4.3153   360.3    8.453      28.582
2015   12       21     9  26    4.3240   360.2    8.473      28.614
2015   12       21     9  32    4.3328   360.2    8.494      28.645
2015   12       21     9  39    4.3418   360.1    8.515      28.677
2015   12       21     9  45    4.3508   360.0    8.536      28.709
2015   12       21     9  51    4.3600   360.0    8.558      28.741
2015   12       21     9  57    4.3692   359.9    8.580      28.774
2015   12       21    10   3    4.3786   359.9    8.602      28.806
2015   12       21    10   9    4.3882   359.8    8.624      28.839
2015   12       21    10  15    4.3978   359.8    8.647      28.873
2015   12       21    10  21    4.4076   359.7    8.670      28.907
2015   12       21    10  27    4.4175   359.6    8.694      28.941
2015   12       21    10  34    4.4274   359.6    8.718      28.975
2015   12       21    10  40    4.4375   359.6    8.743      29.009
2015   12       21    10  46    4.4477   359.5    8.767      29.045
2015   12       21    10  52    4.4579   359.5    8.793      29.081
2015   12       21    10  58    4.4681   359.4    8.818      29.118
2015   12       21    11   4    4.4784   359.4    8.844      29.157
2015   12       21    11  10    4.4886   359.4    8.869      29.196
2015   12       21    11  16    4.4988   359.3    8.895      29.238
2015   12       21    11  22    4.5090   359.3    8.921      29.282
2015   12       21    11  29    4.5192   359.3    8.946      29.328
2015   12       21    11  35    4.5293   359.3    8.972      29.376
2015   12       21    11  41    4.5395   359.3    8.997      29.426
2015   12       21    11  47    4.5495   359.3    9.022      29.477
2015   12       21    11  53    4.5595   359.3    9.047      29.529
2015   12       21    11  59    4.5694   359.2    9.072      29.583
2015   12       21    12   5    4.5793   359.2    9.097      29.638
2015   12       21    12  11    4.5890   359.2    9.121      29.693
2015   12       21    12  17    4.5987   359.2    9.144      29.748
2015   12       21    12  24    4.6083   359.2    9.168      29.804
2015   12       21    12  30    4.6179   359.2    9.190      29.860
2015   12       21    12  36    4.6274   359.3    9.213      29.916
2015   12       21    12  42    4.6369   359.3    9.235      29.972
2015   12       21    12  48    4.6463   359.3    9.257      30.028
2015   12       21    12  54    4.6557   359.3    9.279      30.085
2015   12       21    13   0    4.6650   359.3    9.300      30.141
2015   12       21    13   6    4.6743   359.3    9.321      30.197
2015   12       21    13  12    4.6836   359.3    9.342      30.253
2015   12       21    13  18    4.6928   359.3    9.363      30.309
2015   12       21    13  25    4.7021   359.3    9.383      30.365
2015   12       21    13  31    4.7113   359.3    9.403      30.420
2015   12       21    13  37    4.7205   359.3    9.423      30.475
2015   12       21    13  43    4.7297   359.3    9.443      30.529
2015   12       21    13  49    4.7389   359.3    9.463      30.584
2015   12       21    13  55    4.7481   359.4    9.483      30.638
2015   12       21    14   1    4.7572   359.4    9.502      30.691
2015   12       21    14   7    4.7664   359.4    9.522      30.744
2015   12       21    14  13    4.7756   359.4    9.541      30.797
2015   12       21    14  20    4.7848   359.4    9.560      30.849
2015   12       21    14  26    4.7940   359.4    9.580      30.900
2015   12       21    14  32    4.8033   359.4    9.599      30.952
2015   12       21    14  38    4.8125   359.4    9.618      31.003
2015   12       21    14  44    4.8218   359.5    9.637      31.053
2015   12       21    14  50    4.8311   359.5    9.656      31.103
2015   12       21    14  56    4.8404   359.5    9.675      31.153
2015   12       21    15   2    4.8498   359.5    9.694      31.202
2015   12       21    15   8    4.8592   359.5    9.713      31.252
2015   12       21    15  15    4.8686   359.5    9.732      31.301
2015   12       21    15  21    4.8781   359.6    9.751      31.350
2015   12       21    15  27    4.8877   359.6    9.770      31.399
2015   12       21    15  33    4.8973   359.6    9.789      31.447
2015   12       21    15  39    4.9070   359.6    9.808      31.496
2015   12       21    15  45    4.9168   359.6    9.827      31.545
2015   12       21    15  51    4.9266   359.7    9.847      31.594
2015   12       21    15  57    4.9365   359.7    9.866      31.643
2015   12       21    16   3    4.9465   359.7    9.886      31.692
2015   12       21    16  10    4.9566   359.7    9.906      31.741
2015   12       21    16  16    4.9668   359.8    9.927      31.791
2015   12       21    16  22    4.9772   359.8    9.947      31.841
2015   12       21    16  28    4.9876   359.8    9.968      31.891
2015   12       21    16  34    4.9982   359.9    9.990      31.942
2015   12       21    16  40    5.0088   359.9   10.011      31.993
2015   12       21    16  46    5.0197   359.9   10.034      32.045
2015   12       21    16  52    5.0306   360.0   10.057      32.096
2015   12       21    16  58    5.0418   360.0   10.080      32.149
2015   12       21    17   5    5.0530   360.0   10.104      32.203
2015   12       21    17  11    5.0645   360.1   10.129      32.257
2015   12       21    17  17    5.0762   360.1   10.154      32.312
2015   12       21    17  23    5.0881   360.1   10.181      32.368
2015   12       21    17  29    5.1002   360.2   10.209      32.424
2015   12       21    17  35    5.1125   360.2   10.237      32.481
2015   12       21    17  41    5.1249   360.3   10.266      32.540
2015   12       21    17  47    5.1375   360.3   10.296      32.602
2015   12       21    17  53    5.1501   360.4   10.326      32.669
2015   12       21    18   0    5.1627   360.5   10.357      32.738
2015   12       21    18   6    5.1754   360.5   10.388      32.811
2015   12       21    18  12    5.1880   360.6   10.419      32.888
2015   12       21    18  18    5.2005   360.7   10.449      32.968
2015   12       21    18  24    5.2130   360.8   10.478      33.051
2015   12       21    18  30    5.2252   360.9   10.508      33.136
2015   12       21    18  36    5.2374   361.0   10.536      33.222
2015   12       21    18  42    5.2494   361.1   10.564      33.308
2015   12       21    18  48    5.2613   361.2   10.590      33.395
2015   12       21    18  54    5.2730   361.3   10.616      33.482
2015   12       21    19   1    5.2846   361.5   10.641      33.570
2015   12       21    19   7    5.2960   361.6   10.665      33.657
2015   12       21    19  13    5.3074   361.7   10.688      33.744
2015   12       21    19  19    5.3185   361.8   10.710      33.831
2015   12       21    19  25    5.3296   361.9   10.732      33.916
2015   12       21    19  31    5.3405   362.0   10.752      34.001
2015   12       21    19  37    5.3513   362.1   10.772      34.084
2015   12       21    19  43    5.3620   362.2   10.791      34.166
2015   12       21    19  49    5.3727   362.3   10.809      34.246
2015   12       21    19  56    5.3832   362.5   10.827      34.325
2015   12       21    20   2    5.3937   362.6   10.844      34.404
2015   12       21    20   8    5.4041   362.7   10.861      34.480
2015   12       21    20  14    5.4145   362.8   10.877      34.556
2015   12       21    20  20    5.4248   362.9   10.893      34.630
2015   12       21    20  26    5.4352   363.0   10.909      34.704
2015   12       21    20  32    5.4454   363.1   10.924      34.776
2015   12       21    20  38    5.4557   363.2   10.938      34.848
2015   12       21    20  44    5.4658   363.3   10.953      34.919
2015   12       21    20  51    5.4761   363.4   10.967      34.988
2015   12       21    20  57    5.4862   363.5   10.981      35.057
2015   12       21    21   3    5.4964   363.6   10.994      35.126
2015   12       21    21   9    5.5065   363.7   11.008      35.193
2015   12       21    21  15    5.5167   363.9   11.021      35.260
2015   12       21    21  21    5.5268   364.0   11.034      35.327
2015   12       21    21  27    5.5370   364.1   11.047      35.393
2015   12       21    21  33    5.5471   364.2   11.060      35.458
2015   12       21    21  39    5.5572   364.3   11.073      35.523
2015   12       21    21  46    5.5673   364.4   11.086      35.588
2015   12       21    21  52    5.5775   364.5   11.099      35.652
2015   12       21    21  58    5.5876   364.6   11.111      35.715
2015   12       21    22   4    5.5977   364.7   11.124      35.779
2015   12       21    22  10    5.6078   364.8   11.136      35.842
2015   12       21    22  16    5.6180   364.9   11.149      35.905
2015   12       21    22  22    5.6281   365.0   11.161      35.967
2015   12       21    22  28    5.6383   365.1   11.174      36.030
2015   12       21    22  34    5.6484   365.3   11.186      36.092
2015   12       21    22  41    5.6586   365.4   11.199      36.154
2015   12       21    22  47    5.6688   365.5   11.211      36.216
2015   12       21    22  53    5.6790   365.6   11.224      36.278
2015   12       21    22  59    5.6892   365.7   11.237      36.339
2015   12       21    23   5    5.6995   365.8   11.249      36.401
2015   12       21    23  11    5.7098   365.9   11.263      36.463
2015   12       21    23  17    5.7201   366.0   11.276      36.526
2015   12       21    23  23    5.7304   366.1   11.289      36.588
2015   12       21    23  29    5.7408   366.3   11.303      36.651
2015   12       21    23  35    5.7513   366.4   11.317      36.714
2015   12       21    23  42    5.7617   366.5   11.332      36.778
2015   12       21    23  48    5.7722   366.6   11.347      36.842
2015   12       21    23  54    5.7828   366.7   11.362      36.906
2015   12       22     0   0    5.7934   366.8   11.378      36.972
2015   12       22     0   6    5.8041   367.0   11.395      37.038
2015   12       22     0  12    5.8149   367.1   11.412      37.104
2015   12       22     0  18    5.8257   367.2   11.431      37.172
2015   12       22     0  24    5.8367   367.3   11.449      37.241
2015   12       22     0  30    5.8477   367.4   11.469      37.312
2015   12       22     0  37    5.8590   367.6   11.490      37.383
2015   12       22     0  43    5.8703   367.7   11.512      37.455
2015   12       22     0  49    5.8817   367.8   11.535      37.528
2015   12       22     0  55    5.8933   367.9   11.559      37.603
2015   12       22     1   1    5.9049   368.1   11.584      37.681
2015   12       22     1   7    5.9166   368.2   11.610      37.764
2015   12       22     1  13    5.9284   368.3   11.637      37.850
2015   12       22     1  19    5.9402   368.5   11.664      37.942
2015   12       22     1  25    5.9521   368.6   11.692      38.038
2015   12       22     1  32    5.9639   368.8   11.720      38.139
2015   12       22     1  38    5.9759   369.0   11.748      38.244
2015   12       22     1  44    5.9878   369.1   11.777      38.352
2015   12       22     1  50    5.9998   369.3   11.807      38.462
2015   12       22     1  56    6.0118   369.4   11.836      38.572
2015   12       22     2   2    6.0238   369.6   11.866      38.687
2015   12       22     2   8    6.0360   369.8   11.895      38.806
2015   12       22     2  14    6.0483   370.0   11.925      38.928
2015   12       22     2  20    6.0607   370.2   11.953      39.053
2015   12       22     2  27    6.0732   370.4   11.981      39.180
2015   12       22     2  33    6.0857   370.6   12.008      39.310
2015   12       22     2  39    6.0983   370.9   12.034      39.442
2015   12       22     2  45    6.1110   371.1   12.058      39.577
2015   12       22     2  51    6.1237   371.3   12.082      39.711
2015   12       22     2  57    6.1365   371.6   12.104      39.842
2015   12       22     3   3    6.1490   371.8   12.125      39.971
2015   12       22     3   9    6.1615   372.0   12.145      40.098
2015   12       22     3  15    6.1737   372.3   12.164      40.222
2015   12       22     3  22    6.1859   372.5   12.181      40.344
2015   12       22     3  28    6.1978   372.8   12.198      40.464
2015   12       22     3  34    6.2096   373.0   12.212      40.582
2015   12       22     3  40    6.2212   373.2   12.226      40.698
2015   12       22     3  46    6.2328   373.5   12.239      40.811
2015   12       22     3  52    6.2441   373.7   12.251      40.923
2015   12       22     3  58    6.2554   374.0   12.261      41.032
2015   12       22     4   4    6.2665   374.2   12.271      41.139
2015   12       22     4  10    6.2775   374.4   12.280      41.244
2015   12       22     4  16    6.2883   374.7   12.288      41.347
2015   12       22     4  23    6.2990   374.9   12.295      41.449
2015   12       22     4  29    6.3096   375.2   12.302      41.549
2015   12       22     4  35    6.3200   375.4   12.308      41.647
2015   12       22     4  41    6.3303   375.6   12.313      41.743
2015   12       22     4  47    6.3406   375.9   12.318      41.838
2015   12       22     4  53    6.3506   376.1   12.322      41.931
2015   12       22     4  59    6.3606   376.4   12.325      42.023
2015   12       22     5   5    6.3705   376.6   12.328      42.113
2015   12       22     5  11    6.3803   376.8   12.330      42.202
2015   12       22     5  18    6.3899   377.1   12.332      42.289
2015   12       22     5  24    6.3994   377.3   12.334      42.375
2015   12       22     5  30    6.4088   377.5   12.335      42.460
2015   12       22     5  36    6.4181   377.8   12.336      42.544
2015   12       22     5  42    6.4273   378.0   12.336      42.626
2015   12       22     5  48    6.4364   378.2   12.337      42.708
2015   12       22     5  54    6.4454   378.5   12.336      42.788
2015   12       22     6   0    6.4543   378.7   12.336      42.867
2015   12       22     6   6    6.4631   378.9   12.335      42.945
2015   12       22     6  13    6.4719   379.2   12.334      43.022
2015   12       22     6  19    6.4805   379.4   12.333      43.098
2015   12       22     6  25    6.4890   379.6   12.332      43.174
2015   12       22     6  31    6.4975   379.9   12.331      43.248
2015   12       22     6  37    6.5059   380.1   12.329      43.322
2015   12       22     6  43    6.5142   380.3   12.328      43.395
2015   12       22     6  49    6.5225   380.6   12.327      43.467
2015   12       22     6  55    6.5306   380.8   12.325      43.539
2015   12       22     7   1    6.5388   381.0   12.324      43.610
2015   12       22     7   8    6.5469   381.2   12.322      43.681
2015   12       22     7  14    6.5549   381.5   12.321      43.751
2015   12       22     7  20    6.5629   381.7   12.320      43.821
2015   12       22     7  26    6.5708   381.9   12.319      43.891
2015   12       22     7  32    6.5787   382.1   12.319      43.960
2015   12       22     7  38    6.5866   382.4   12.318      44.030
2015   12       22     7  44    6.5944   382.6   12.318      44.100
2015   12       22     7  50    6.6022   382.8   12.318      44.169
2015   12       22     7  56    6.6101   383.0   12.319      44.239
2015   12       22     8   3    6.6178   383.3   12.320      44.309
2015   12       22     8   9    6.6256   383.5   12.321      44.380
2015   12       22     8  15    6.6334   383.7   12.323      44.452
2015   12       22     8  21    6.6412   383.9   12.326      44.523
2015   12       22     8  27    6.6490   384.1   12.329      44.595
2015   12       22     8  33    6.6568   384.3   12.333      44.667
2015   12       22     8  39    6.6646   384.5   12.337      44.741
2015   12       22     8  45    6.6726   384.8   12.343      44.815
2015   12       22     8  51    6.6805   385.0   12.349      44.891
2015   12       22     8  58    6.6886   385.2   12.356      44.968
2015   12       22     9   4    6.6968   385.3   12.366      45.045
2015   12       22     9  10    6.7052   385.5   12.376      45.122
2015   12       22     9  16    6.7137   385.7   12.388      45.200
2015   12       22     9  22    6.7224   385.9   12.401      45.283
2015   12       22     9  28    6.7313   386.1   12.415      45.371
2015   12       22     9  34    6.7406   386.3   12.430      45.465
2015   12       22     9  40    6.7501   386.6   12.447      45.563
2015   12       22     9  46    6.7600   386.8   12.464      45.666
2015   12       22     9  52    6.7701   387.0   12.481      45.774
2015   12       22     9  59    6.7805   387.3   12.499      45.888
2015   12       22    10   5    6.7911   387.5   12.518      46.008
2015   12       22    10  11    6.8020   387.8   12.537      46.131
2015   12       22    10  17    6.8132   388.0   12.557      46.257
2015   12       22    10  23    6.8246   388.3   12.578      46.385
2015   12       22    10  29    6.8361   388.5   12.599      46.515
2015   12       22    10  35    6.8478   388.7   12.622      46.645
2015   12       22    10  41    6.8597   389.0   12.646      46.775
2015   12       22    10  47    6.8720   389.3   12.671      46.914
2015   12       22    10  54    6.8845   389.6   12.696      47.062
2015   12       22    11   0    6.8972   389.9   12.721      47.216
2015   12       22    11   6    6.9100   390.2   12.746      47.376
2015   12       22    11  12    6.9228   390.5   12.770      47.539
2015   12       22    11  18    6.9355   390.9   12.793      47.708
2015   12       22    11  24    6.9480   391.3   12.814      47.881
2015   12       22    11  30    6.9603   391.7   12.833      48.057
2015   12       22    11  36    6.9720   392.1   12.850      48.229
2015   12       22    11  42    6.9834   392.4   12.865      48.395
2015   12       22    11  49    6.9942   392.8   12.877      48.557
2015   12       22    11  55    7.0046   393.2   12.888      48.714
2015   12       22    12   1    7.0145   393.6   12.896      48.867
2015   12       22    12   7    7.0239   394.0   12.902      49.015
2015   12       22    12  13    7.0329   394.4   12.905      49.159
2015   12       22    12  19    7.0414   394.8   12.907      49.298
2015   12       22    12  25    7.0494   395.2   12.906      49.432
2015   12       22    12  31    7.0571   395.6   12.904      49.562
2015   12       22    12  37    7.0645   396.0   12.900      49.688
2015   12       22    12  44    7.0715   396.4   12.894      49.810
2015   12       22    12  50    7.0783   396.8   12.887      49.929
2015   12       22    12  56    7.0849   397.2   12.879      50.045
2015   12       22    13   2    7.0912   397.6   12.870      50.158
2015   12       22    13   8    7.0973   398.0   12.859      50.269
2015   12       22    13  14    7.1033   398.4   12.848      50.377
2015   12       22    13  20    7.1091   398.8   12.836      50.482
2015   12       22    13  26    7.1147   399.2   12.823      50.585
2015   12       22    13  32    7.1203   399.6   12.810      50.687
2015   12       22    13  38    7.1258   400.0   12.796      50.786
2015   12       22    13  45    7.1312   400.4   12.781      50.884
2015   12       22    13  51    7.1365   400.8   12.766      50.979
2015   12       22    13  57    7.1418   401.2   12.751      51.074
2015   12       22    14   3    7.1471   401.6   12.736      51.166
2015   12       22    14   9    7.1523   402.0   12.720      51.258
2015   12       22    14  15    7.1575   402.4   12.704      51.349
2015   12       22    14  21    7.1627   402.8   12.688      51.440
2015   12       22    14  27    7.1678   403.1   12.672      51.529
2015   12       22    14  33    7.1729   403.5   12.656      51.618
2015   12       22    14  40    7.1779   403.9   12.639      51.706
2015   12       22    14  46    7.1829   404.3   12.622      51.794
2015   12       22    14  52    7.1879   404.7   12.606      51.881
2015   12       22    14  58    7.1928   405.1   12.588      51.968
2015   12       22    15   4    7.1977   405.5   12.571      52.055
2015   12       22    15  10    7.2025   405.9   12.554      52.141
2015   12       22    15  16    7.2073   406.3   12.537      52.226
2015   12       22    15  22    7.2120   406.7   12.519      52.311
2015   12       22    15  28    7.2167   407.1   12.501      52.396
2015   12       22    15  35    7.2214   407.5   12.483      52.480
2015   12       22    15  41    7.2259   407.9   12.464      52.564
2015   12       22    15  47    7.2305   408.3   12.446      52.647
2015   12       22    15  53    7.2349   408.7   12.427      52.728
2015   12       22    15  59    7.2393   409.1   12.409      52.808
2015   12       22    16   5    7.2437   409.5   12.391      52.886
2015   12       22    16  11    7.2481   409.9   12.373      52.963
2015   12       22    16  17    7.2524   410.3   12.356      53.037
2015   12       22    16  23    7.2568   410.6   12.340      53.109
2015   12       22    16  30    7.2613   411.0   12.324      53.180
2015   12       22    16  36    7.2659   411.3   12.310      53.251
2015   12       22    16  42    7.2706   411.6   12.296      53.323
2015   12       22    16  48    7.2754   412.0   12.284      53.396
2015   12       22    16  54    7.2803   412.3   12.273      53.472
2015   12       22    17   0    7.2854   412.6   12.263      53.551
2015   12       22    17   6    7.2908   413.0   12.254      53.635
2015   12       22    17  12    7.2964   413.3   12.246      53.723
2015   12       22    17  18    7.3024   413.7   12.240      53.818
2015   12       22    17  25    7.3086   414.1   12.236      53.920
2015   12       22    17  31    7.3153   414.5   12.233      54.030
2015   12       22    17  37    7.3222   414.9   12.231      54.146
2015   12       22    17  43    7.3295   415.3   12.231      54.268
2015   12       22    17  49    7.3370   415.6   12.233      54.394
2015   12       22    17  55    7.3447   416.0   12.237      54.519
2015   12       22    18   1    7.3527   416.3   12.243      54.643
2015   12       22    18   7    7.3611   416.7   12.250      54.775
2015   12       22    18  13    7.3697   417.0   12.259      54.915
2015   12       22    18  19    7.3785   417.4   12.268      55.062
2015   12       22    18  26    7.3874   417.8   12.277      55.214
2015   12       22    18  32    7.3964   418.2   12.286      55.371
2015   12       22    18  38    7.4053   418.6   12.294      55.537
2015   12       22    18  44    7.4142   419.1   12.300      55.710
2015   12       22    18  50    7.4227   419.6   12.305      55.885
2015   12       22    18  56    7.4310   420.0   12.309      56.057
2015   12       22    19   2    7.4388   420.5   12.310      56.227
2015   12       22    19   8    7.4463   421.0   12.310      56.392
2015   12       22    19  14    7.4533   421.5   12.309      56.555
2015   12       22    19  21    7.4601   422.0   12.305      56.714
2015   12       22    19  27    7.4664   422.5   12.299      56.871
2015   12       22    19  33    7.4722   423.0   12.292      57.025
2015   12       22    19  39    7.4777   423.5   12.282      57.174
2015   12       22    19  45    7.4828   424.0   12.271      57.319
2015   12       22    19  51    7.4876   424.5   12.258      57.462
2015   12       22    19  57    7.4921   425.0   12.244      57.600
2015   12       22    20   3    7.4964   425.6   12.228      57.736
2015   12       22    20   9    7.5004   426.1   12.211      57.869
2015   12       22    20  16    7.5043   426.6   12.193      57.999
2015   12       22    20  22    7.5080   427.2   12.174      58.126
2015   12       22    20  28    7.5115   427.7   12.154      58.252
2015   12       22    20  34    7.5149   428.3   12.134      58.375
2015   12       22    20  40    7.5182   428.8   12.112      58.496
2015   12       22    20  46    7.5213   429.3   12.090      58.614
2015   12       22    20  52    7.5244   429.9   12.068      58.730
2015   12       22    20  58    7.5273   430.4   12.045      58.844
2015   12       22    21   4    7.5301   431.0   12.021      58.957
2015   12       22    21  11    7.5329   431.5   11.998      59.068
2015   12       22    21  17    7.5356   432.1   11.974      59.177
2015   12       22    21  23    7.5382   432.6   11.950      59.285
2015   12       22    21  29    7.5408   433.2   11.925      59.391
2015   12       22    21  35    7.5432   433.7   11.901      59.497
2015   12       22    21  41    7.5456   434.3   11.876      59.602
2015   12       22    21  47    7.5479   434.8   11.851      59.706
2015   12       22    21  53    7.5501   435.4   11.825      59.810
2015   12       22    21  59    7.5522   436.0   11.800      59.913
2015   12       22    22   6    7.5543   436.5   11.774      60.015
2015   12       22    22  12    7.5562   437.1   11.747      60.117
2015   12       22    22  18    7.5580   437.7   11.721      60.218
2015   12       22    22  24    7.5598   438.3   11.694      60.320
2015   12       22    22  30    7.5614   438.9   11.666      60.421
2015   12       22    22  36    7.5628   439.6   11.638      60.523
2015   12       22    22  42    7.5640   440.2   11.609      60.626
2015   12       22    22  48    7.5650   440.8   11.579      60.731
2015   12       22    22  54    7.5658   441.5   11.549      60.838
2015   12       22    23   1    7.5663   442.2   11.518      60.945
2015   12       22    23   7    7.5666   442.8   11.486      61.052
2015   12       22    23  13    7.5664   443.5   11.453      61.157
2015   12       22    23  19    7.5658   444.1   11.419      61.259
2015   12       22    23  25    7.5648   444.7   11.384      61.356
2015   12       22    23  31    7.5633   445.3   11.348      61.449
2015   12       22    23  37    7.5612   446.0   11.310      61.539
2015   12       22    23  43    7.5583   446.6   11.271      61.627
2015   12       22    23  49    7.5546   447.2   11.229      61.706
2015   12       22    23  55    7.5503   447.7   11.186      61.774
2015   12       23     0   2    7.5456   448.3   11.142      61.834
