year    month   day   hour  minute  B_enl V_enl   n_enl       T_enl
[year] [month] [day] [hour][minute] [nT]  [km/s]  [cm-3]      [kK]
2015   11        1     0   3    3.4018   341.3   10.547      27.647
2015   11        1     0  10    3.4024   341.3   10.554      27.651
2015   11        1     0  17    3.4030   341.2   10.561      27.655
2015   11        1     0  24    3.4037   341.2   10.568      27.658
2015   11        1     0  31    3.4043   341.2   10.575      27.662
2015   11        1     0  39    3.4051   341.1   10.582      27.666
2015   11        1     0  46    3.4056   341.1   10.589      27.670
2015   11        1     0  53    3.4064   341.1   10.596      27.674
2015   11        1     1   0    3.4069   341.1   10.603      27.678
2015   11        1     1   7    3.4076   341.0   10.610      27.682
2015   11        1     1  14    3.4083   341.0   10.617      27.686
2015   11        1     1  21    3.4089   341.0   10.624      27.690
2015   11        1     1  28    3.4096   340.9   10.631      27.694
2015   11        1     1  36    3.4103   340.9   10.638      27.698
2015   11        1     1  43    3.4111   340.9   10.644      27.703
2015   11        1     1  50    3.4117   340.9   10.651      27.707
2015   11        1     1  57    3.4125   340.8   10.658      27.712
2015   11        1     2   4    3.4132   340.8   10.665      27.716
2015   11        1     2  11    3.4139   340.8   10.672      27.721
2015   11        1     2  18    3.4147   340.7   10.680      27.725
2015   11        1     2  25    3.4154   340.7   10.687      27.730
2015   11        1     2  32    3.4162   340.7   10.694      27.735
2015   11        1     2  40    3.4169   340.7   10.701      27.740
2015   11        1     2  47    3.4178   340.6   10.708      27.745
2015   11        1     2  54    3.4186   340.6   10.716      27.751
2015   11        1     3   1    3.4195   340.6   10.723      27.756
2015   11        1     3   8    3.4203   340.6   10.731      27.762
2015   11        1     3  15    3.4211   340.5   10.739      27.767
2015   11        1     3  22    3.4221   340.5   10.746      27.773
2015   11        1     3  29    3.4230   340.5   10.754      27.779
2015   11        1     3  36    3.4239   340.5   10.762      27.786
2015   11        1     3  43    3.4250   340.4   10.771      27.792
2015   11        1     3  51    3.4259   340.4   10.779      27.799
2015   11        1     3  58    3.4270   340.4   10.787      27.806
2015   11        1     4   5    3.4280   340.4   10.796      27.813
2015   11        1     4  12    3.4291   340.4   10.805      27.820
2015   11        1     4  19    3.4303   340.3   10.814      27.828
2015   11        1     4  26    3.4314   340.3   10.823      27.836
2015   11        1     4  33    3.4325   340.3   10.832      27.844
2015   11        1     4  40    3.4337   340.3   10.842      27.852
2015   11        1     4  47    3.4350   340.3   10.851      27.861
2015   11        1     4  54    3.4362   340.3   10.861      27.870
2015   11        1     5   1    3.4375   340.2   10.871      27.879
2015   11        1     5   8    3.4388   340.2   10.881      27.889
2015   11        1     5  16    3.4401   340.2   10.892      27.898
2015   11        1     5  23    3.4415   340.2   10.902      27.909
2015   11        1     5  30    3.4429   340.2   10.913      27.919
2015   11        1     5  37    3.4442   340.2   10.924      27.930
2015   11        1     5  44    3.4456   340.2   10.935      27.942
2015   11        1     5  51    3.4470   340.1   10.946      27.954
2015   11        1     5  58    3.4484   340.1   10.957      27.966
2015   11        1     6   5    3.4498   340.1   10.968      27.979
2015   11        1     6  12    3.4512   340.1   10.979      27.993
2015   11        1     6  19    3.4526   340.1   10.990      28.007
2015   11        1     6  27    3.4539   340.1   11.001      28.021
2015   11        1     6  34    3.4553   340.1   11.012      28.035
2015   11        1     6  41    3.4567   340.1   11.023      28.050
2015   11        1     6  48    3.4580   340.1   11.034      28.066
2015   11        1     6  55    3.4593   340.1   11.044      28.081
2015   11        1     7   2    3.4606   340.1   11.055      28.096
2015   11        1     7   9    3.4619   340.1   11.065      28.112
2015   11        1     7  16    3.4632   340.1   11.075      28.127
2015   11        1     7  23    3.4644   340.1   11.085      28.143
2015   11        1     7  31    3.4657   340.1   11.095      28.158
2015   11        1     7  38    3.4670   340.1   11.104      28.174
2015   11        1     7  45    3.4681   340.1   11.114      28.189
2015   11        1     7  52    3.4693   340.1   11.123      28.204
2015   11        1     7  59    3.4705   340.1   11.132      28.218
2015   11        1     8   6    3.4717   340.1   11.141      28.233
2015   11        1     8  13    3.4728   340.1   11.150      28.248
2015   11        1     8  20    3.4740   340.1   11.159      28.262
2015   11        1     8  28    3.4750   340.1   11.167      28.276
2015   11        1     8  35    3.4762   340.1   11.175      28.290
2015   11        1     8  42    3.4773   340.1   11.184      28.304
2015   11        1     8  49    3.4784   340.1   11.192      28.318
2015   11        1     8  56    3.4795   340.1   11.199      28.331
2015   11        1     9   3    3.4806   340.1   11.207      28.345
2015   11        1     9  10    3.4817   340.2   11.215      28.358
2015   11        1     9  17    3.4828   340.2   11.222      28.371
2015   11        1     9  25    3.4839   340.2   11.230      28.384
2015   11        1     9  32    3.4849   340.2   11.237      28.397
2015   11        1     9  39    3.4860   340.2   11.244      28.410
2015   11        1     9  46    3.4870   340.2   11.252      28.422
2015   11        1     9  53    3.4881   340.2   11.259      28.435
2015   11        1    10   0    3.4891   340.2   11.266      28.447
2015   11        1    10   7    3.4902   340.2   11.273      28.459
2015   11        1    10  14    3.4913   340.2   11.279      28.472
2015   11        1    10  21    3.4923   340.2   11.286      28.484
2015   11        1    10  29    3.4934   340.2   11.293      28.496
2015   11        1    10  36    3.4944   340.3   11.300      28.508
2015   11        1    10  43    3.4955   340.3   11.306      28.519
2015   11        1    10  50    3.4965   340.3   11.313      28.531
2015   11        1    10  57    3.4976   340.3   11.319      28.543
2015   11        1    11   4    3.4987   340.3   11.326      28.554
2015   11        1    11  11    3.4997   340.3   11.332      28.566
2015   11        1    11  18    3.5008   340.3   11.339      28.577
2015   11        1    11  25    3.5019   340.3   11.345      28.589
2015   11        1    11  32    3.5030   340.3   11.352      28.600
2015   11        1    11  39    3.5041   340.4   11.359      28.611
2015   11        1    11  46    3.5052   340.4   11.365      28.622
2015   11        1    11  54    3.5063   340.4   11.372      28.634
2015   11        1    12   1    3.5074   340.4   11.379      28.645
2015   11        1    12   8    3.5086   340.4   11.385      28.656
2015   11        1    12  15    3.5097   340.4   11.392      28.667
2015   11        1    12  22    3.5109   340.4   11.399      28.678
2015   11        1    12  29    3.5122   340.4   11.406      28.690
2015   11        1    12  36    3.5134   340.5   11.414      28.701
2015   11        1    12  43    3.5146   340.5   11.421      28.713
2015   11        1    12  50    3.5159   340.5   11.428      28.725
2015   11        1    12  57    3.5172   340.5   11.436      28.737
2015   11        1    13   4    3.5185   340.5   11.444      28.749
2015   11        1    13  12    3.5198   340.5   11.451      28.762
2015   11        1    13  19    3.5212   340.5   11.459      28.775
2015   11        1    13  26    3.5225   340.6   11.467      28.789
2015   11        1    13  33    3.5239   340.6   11.474      28.802
2015   11        1    13  40    3.5253   340.6   11.482      28.816
2015   11        1    13  47    3.5267   340.6   11.490      28.831
2015   11        1    13  54    3.5281   340.7   11.498      28.846
2015   11        1    14   1    3.5294   340.7   11.506      28.861
2015   11        1    14   8    3.5308   340.7   11.513      28.876
2015   11        1    14  15    3.5322   340.7   11.521      28.892
2015   11        1    14  23    3.5335   340.8   11.528      28.908
2015   11        1    14  30    3.5348   340.8   11.535      28.924
2015   11        1    14  37    3.5362   340.8   11.542      28.941
2015   11        1    14  44    3.5374   340.8   11.549      28.957
2015   11        1    14  51    3.5387   340.9   11.556      28.974
2015   11        1    14  58    3.5399   340.9   11.562      28.990
2015   11        1    15   5    3.5412   340.9   11.568      29.007
2015   11        1    15  12    3.5423   341.0   11.574      29.023
2015   11        1    15  20    3.5435   341.0   11.580      29.039
2015   11        1    15  27    3.5446   341.0   11.585      29.055
2015   11        1    15  34    3.5458   341.0   11.590      29.070
2015   11        1    15  41    3.5469   341.1   11.595      29.086
2015   11        1    15  48    3.5480   341.1   11.600      29.101
2015   11        1    15  55    3.5490   341.1   11.604      29.116
2015   11        1    16   2    3.5500   341.2   11.609      29.130
2015   11        1    16   9    3.5511   341.2   11.613      29.144
2015   11        1    16  17    3.5521   341.2   11.616      29.157
2015   11        1    16  24    3.5531   341.3   11.620      29.171
2015   11        1    16  31    3.5541   341.3   11.623      29.184
2015   11        1    16  38    3.5550   341.3   11.627      29.196
2015   11        1    16  45    3.5560   341.4   11.630      29.209
2015   11        1    16  52    3.5569   341.4   11.633      29.221
2015   11        1    16  59    3.5579   341.4   11.636      29.233
2015   11        1    17   6    3.5588   341.5   11.638      29.244
2015   11        1    17  14    3.5598   341.5   11.641      29.256
2015   11        1    17  21    3.5607   341.5   11.643      29.267
2015   11        1    17  28    3.5616   341.6   11.646      29.277
2015   11        1    17  35    3.5625   341.6   11.648      29.288
2015   11        1    17  42    3.5634   341.6   11.650      29.298
2015   11        1    17  49    3.5643   341.6   11.652      29.308
2015   11        1    17  56    3.5652   341.7   11.654      29.318
2015   11        1    18   3    3.5660   341.7   11.656      29.328
2015   11        1    18  10    3.5669   341.7   11.658      29.337
2015   11        1    18  17    3.5678   341.8   11.660      29.346
2015   11        1    18  25    3.5687   341.8   11.661      29.355
2015   11        1    18  32    3.5696   341.8   11.663      29.364
2015   11        1    18  39    3.5705   341.9   11.665      29.373
2015   11        1    18  46    3.5714   341.9   11.666      29.381
2015   11        1    18  53    3.5722   341.9   11.668      29.390
2015   11        1    19   0    3.5731   342.0   11.669      29.398
2015   11        1    19   7    3.5740   342.0   11.671      29.407
2015   11        1    19  14    3.5749   342.0   11.672      29.415
2015   11        1    19  21    3.5758   342.1   11.674      29.422
2015   11        1    19  28    3.5767   342.1   11.675      29.430
2015   11        1    19  35    3.5776   342.1   11.677      29.438
2015   11        1    19  42    3.5785   342.1   11.678      29.446
2015   11        1    19  49    3.5795   342.2   11.680      29.454
2015   11        1    19  57    3.5804   342.2   11.681      29.462
2015   11        1    20   4    3.5814   342.2   11.683      29.469
2015   11        1    20  11    3.5823   342.3   11.685      29.477
2015   11        1    20  18    3.5833   342.3   11.686      29.485
2015   11        1    20  25    3.5843   342.3   11.688      29.492
2015   11        1    20  32    3.5854   342.4   11.690      29.500
2015   11        1    20  39    3.5864   342.4   11.692      29.508
2015   11        1    20  46    3.5874   342.4   11.694      29.516
2015   11        1    20  53    3.5885   342.5   11.697      29.524
2015   11        1    21   0    3.5896   342.5   11.699      29.532
2015   11        1    21   7    3.5907   342.5   11.701      29.540
2015   11        1    21  15    3.5918   342.6   11.704      29.548
2015   11        1    21  22    3.5929   342.6   11.707      29.556
2015   11        1    21  29    3.5940   342.6   11.710      29.565
2015   11        1    21  36    3.5952   342.7   11.713      29.574
2015   11        1    21  43    3.5963   342.7   11.716      29.583
2015   11        1    21  50    3.5974   342.8   11.719      29.593
2015   11        1    21  57    3.5986   342.8   11.722      29.603
2015   11        1    22   4    3.5997   342.8   11.725      29.613
2015   11        1    22  11    3.6009   342.9   11.728      29.623
2015   11        1    22  19    3.6021   342.9   11.731      29.634
2015   11        1    22  26    3.6032   342.9   11.734      29.645
2015   11        1    22  33    3.6044   343.0   11.738      29.655
2015   11        1    22  40    3.6055   343.0   11.741      29.666
2015   11        1    22  47    3.6067   343.1   11.744      29.677
2015   11        1    22  54    3.6078   343.1   11.747      29.689
2015   11        1    23   1    3.6090   343.1   11.750      29.700
2015   11        1    23   8    3.6101   343.2   11.753      29.711
2015   11        1    23  16    3.6112   343.2   11.756      29.722
2015   11        1    23  23    3.6124   343.3   11.759      29.733
2015   11        1    23  30    3.6135   343.3   11.762      29.745
2015   11        1    23  37    3.6147   343.4   11.764      29.756
2015   11        1    23  44    3.6158   343.4   11.767      29.767
2015   11        1    23  51    3.6169   343.4   11.770      29.779
2015   11        1    23  58    3.6180   343.5   11.772      29.790
2015   11        2     0   5    3.6191   343.5   11.775      29.801
2015   11        2     0  12    3.6203   343.6   11.777      29.812
2015   11        2     0  20    3.6214   343.6   11.779      29.823
2015   11        2     0  27    3.6225   343.7   11.781      29.834
2015   11        2     0  34    3.6236   343.7   11.783      29.845
2015   11        2     0  41    3.6246   343.7   11.785      29.856
2015   11        2     0  48    3.6257   343.8   11.787      29.866
2015   11        2     0  55    3.6268   343.8   11.788      29.877
2015   11        2     1   2    3.6279   343.9   11.790      29.887
2015   11        2     1   9    3.6289   343.9   11.791      29.897
2015   11        2     1  17    3.6300   344.0   11.792      29.907
2015   11        2     1  24    3.6311   344.0   11.793      29.916
2015   11        2     1  31    3.6321   344.0   11.794      29.926
2015   11        2     1  38    3.6332   344.1   11.795      29.935
2015   11        2     1  45    3.6343   344.1   11.796      29.944
2015   11        2     1  52    3.6353   344.2   11.796      29.953
2015   11        2     1  59    3.6364   344.2   11.797      29.961
2015   11        2     2   6    3.6375   344.2   11.797      29.969
2015   11        2     2  14    3.6386   344.3   11.798      29.977
2015   11        2     2  21    3.6397   344.3   11.798      29.985
2015   11        2     2  28    3.6408   344.4   11.798      29.994
2015   11        2     2  35    3.6419   344.4   11.798      30.001
2015   11        2     2  42    3.6431   344.4   11.799      30.009
2015   11        2     2  49    3.6442   344.5   11.799      30.017
2015   11        2     2  56    3.6453   344.5   11.799      30.024
2015   11        2     3   3    3.6465   344.6   11.799      30.031
2015   11        2     3  11    3.6477   344.6   11.799      30.039
2015   11        2     3  18    3.6489   344.7   11.799      30.046
2015   11        2     3  25    3.6501   344.7   11.799      30.053
2015   11        2     3  32    3.6513   344.7   11.800      30.060
2015   11        2     3  39    3.6525   344.8   11.800      30.067
2015   11        2     3  46    3.6537   344.8   11.800      30.074
2015   11        2     3  53    3.6550   344.9   11.800      30.081
2015   11        2     4   0    3.6563   344.9   11.800      30.088
2015   11        2     4   8    3.6575   344.9   11.800      30.096
2015   11        2     4  15    3.6588   345.0   11.801      30.102
2015   11        2     4  22    3.6601   345.0   11.801      30.110
2015   11        2     4  29    3.6615   345.1   11.801      30.117
2015   11        2     4  36    3.6628   345.1   11.802      30.124
2015   11        2     4  43    3.6642   345.2   11.802      30.131
2015   11        2     4  50    3.6656   345.2   11.803      30.138
2015   11        2     4  57    3.6670   345.2   11.804      30.145
2015   11        2     5   5    3.6684   345.3   11.804      30.152
2015   11        2     5  12    3.6699   345.3   11.805      30.159
2015   11        2     5  19    3.6713   345.4   11.806      30.167
2015   11        2     5  26    3.6728   345.4   11.807      30.174
2015   11        2     5  33    3.6743   345.5   11.808      30.182
2015   11        2     5  40    3.6759   345.5   11.809      30.189
2015   11        2     5  47    3.6774   345.5   11.811      30.197
2015   11        2     5  55    3.6790   345.6   11.812      30.205
2015   11        2     6   2    3.6806   345.6   11.814      30.212
2015   11        2     6   9    3.6823   345.7   11.815      30.220
2015   11        2     6  16    3.6839   345.7   11.817      30.229
2015   11        2     6  23    3.6856   345.8   11.819      30.237
2015   11        2     6  30    3.6874   345.8   11.821      30.245
2015   11        2     6  37    3.6891   345.9   11.824      30.253
2015   11        2     6  45    3.6909   345.9   11.826      30.262
2015   11        2     6  52    3.6928   346.0   11.828      30.271
2015   11        2     6  59    3.6946   346.0   11.831      30.280
2015   11        2     7   6    3.6964   346.0   11.834      30.290
2015   11        2     7  13    3.6983   346.1   11.836      30.299
2015   11        2     7  20    3.7002   346.1   11.839      30.309
2015   11        2     7  27    3.7021   346.2   11.841      30.319
2015   11        2     7  34    3.7041   346.2   11.844      30.329
2015   11        2     7  41    3.7061   346.3   11.847      30.339
2015   11        2     7  49    3.7081   346.3   11.850      30.350
2015   11        2     7  56    3.7100   346.4   11.852      30.360
2015   11        2     8   3    3.7121   346.4   11.855      30.370
2015   11        2     8  10    3.7141   346.5   11.858      30.381
2015   11        2     8  17    3.7162   346.5   11.860      30.391
2015   11        2     8  24    3.7183   346.6   11.863      30.402
2015   11        2     8  31    3.7204   346.6   11.865      30.412
2015   11        2     8  38    3.7226   346.7   11.868      30.423
2015   11        2     8  46    3.7248   346.7   11.870      30.433
2015   11        2     8  53    3.7270   346.8   11.872      30.443
2015   11        2     9   0    3.7291   346.8   11.875      30.453
2015   11        2     9   7    3.7314   346.9   11.877      30.464
2015   11        2     9  14    3.7337   346.9   11.880      30.474
2015   11        2     9  21    3.7359   347.0   11.882      30.484
2015   11        2     9  28    3.7382   347.0   11.884      30.494
2015   11        2     9  35    3.7406   347.1   11.887      30.505
2015   11        2     9  42    3.7429   347.1   11.889      30.515
2015   11        2     9  50    3.7453   347.2   11.892      30.525
2015   11        2     9  57    3.7479   347.2   11.894      30.535
2015   11        2    10   4    3.7502   347.3   11.896      30.545
2015   11        2    10  11    3.7527   347.3   11.899      30.556
2015   11        2    10  18    3.7552   347.4   11.901      30.566
2015   11        2    10  25    3.7577   347.4   11.904      30.576
2015   11        2    10  32    3.7604   347.5   11.906      30.586
2015   11        2    10  39    3.7628   347.5   11.909      30.597
2015   11        2    10  47    3.7654   347.6   11.911      30.607
2015   11        2    10  54    3.7681   347.6   11.914      30.617
2015   11        2    11   1    3.7707   347.7   11.916      30.628
2015   11        2    11   8    3.7734   347.7   11.919      30.638
2015   11        2    11  15    3.7763   347.8   11.922      30.649
2015   11        2    11  22    3.7789   347.8   11.924      30.660
2015   11        2    11  29    3.7817   347.9   11.927      30.670
2015   11        2    11  36    3.7847   347.9   11.930      30.681
2015   11        2    11  44    3.7874   348.0   11.933      30.692
2015   11        2    11  51    3.7903   348.0   11.936      30.702
2015   11        2    11  58    3.7932   348.1   11.939      30.713
2015   11        2    12   5    3.7963   348.1   11.942      30.724
2015   11        2    12  12    3.7993   348.2   11.945      30.735
2015   11        2    12  19    3.8025   348.2   11.948      30.746
2015   11        2    12  26    3.8058   348.3   11.952      30.758
2015   11        2    12  34    3.8091   348.3   11.955      30.769
2015   11        2    12  41    3.8124   348.4   11.959      30.781
2015   11        2    12  48    3.8156   348.4   11.963      30.792
2015   11        2    12  55    3.8193   348.5   11.967      30.804
2015   11        2    13   2    3.8229   348.5   11.972      30.816
2015   11        2    13   9    3.8265   348.6   11.976      30.828
2015   11        2    13  16    3.8303   348.6   11.981      30.841
2015   11        2    13  23    3.8341   348.7   11.986      30.853
2015   11        2    13  31    3.8381   348.7   11.991      30.866
2015   11        2    13  38    3.8421   348.8   11.997      30.879
2015   11        2    13  45    3.8462   348.8   12.003      30.893
2015   11        2    13  52    3.8504   348.9   12.009      30.907
2015   11        2    13  59    3.8547   349.0   12.015      30.921
2015   11        2    14   6    3.8590   349.0   12.022      30.936
2015   11        2    14  13    3.8634   349.1   12.029      30.951
2015   11        2    14  21    3.8678   349.1   12.037      30.966
2015   11        2    14  28    3.8724   349.2   12.045      30.983
2015   11        2    14  35    3.8769   349.2   12.053      31.000
2015   11        2    14  42    3.8815   349.3   12.061      31.018
2015   11        2    14  49    3.8862   349.4   12.069      31.037
2015   11        2    14  56    3.8906   349.4   12.077      31.057
2015   11        2    15   3    3.8956   349.5   12.086      31.077
2015   11        2    15  10    3.9004   349.6   12.095      31.098
2015   11        2    15  17    3.9049   349.6   12.104      31.120
2015   11        2    15  25    3.9100   349.7   12.113      31.142
2015   11        2    15  32    3.9145   349.8   12.122      31.165
2015   11        2    15  39    3.9197   349.8   12.131      31.189
2015   11        2    15  46    3.9246   349.9   12.140      31.213
2015   11        2    15  53    3.9292   350.0   12.149      31.237
2015   11        2    16   0    3.9342   350.0   12.158      31.262
2015   11        2    16   7    3.9394   350.1   12.168      31.288
2015   11        2    16  14    3.9442   350.2   12.177      31.313
2015   11        2    16  21    3.9492   350.3   12.187      31.339
2015   11        2    16  29    3.9542   350.3   12.196      31.365
2015   11        2    16  36    3.9593   350.4   12.206      31.391
2015   11        2    16  43    3.9644   350.5   12.216      31.417
2015   11        2    16  50    3.9695   350.6   12.227      31.444
2015   11        2    16  57    3.9747   350.6   12.237      31.471
2015   11        2    17   4    3.9798   350.7   12.248      31.499
2015   11        2    17  11    3.9853   350.8   12.258      31.527
2015   11        2    17  18    3.9902   350.9   12.270      31.555
2015   11        2    17  26    3.9954   351.0   12.281      31.584
2015   11        2    17  33    4.0007   351.0   12.292      31.613
2015   11        2    17  40    4.0060   351.1   12.304      31.643
2015   11        2    17  47    4.0113   351.2   12.315      31.674
2015   11        2    17  54    4.0166   351.3   12.327      31.705
2015   11        2    18   1    4.0222   351.4   12.339      31.738
2015   11        2    18   8    4.0276   351.5   12.351      31.771
2015   11        2    18  15    4.0329   351.6   12.363      31.805
2015   11        2    18  23    4.0383   351.7   12.376      31.839
2015   11        2    18  30    4.0439   351.8   12.388      31.875
2015   11        2    18  37    4.0494   351.9   12.401      31.911
2015   11        2    18  44    4.0551   352.0   12.414      31.948
2015   11        2    18  51    4.0610   352.1   12.427      31.985
2015   11        2    18  58    4.0666   352.2   12.440      32.024
2015   11        2    19   5    4.0726   352.3   12.454      32.063
2015   11        2    19  12    4.0785   352.4   12.468      32.103
2015   11        2    19  20    4.0843   352.5   12.482      32.143
2015   11        2    19  27    4.0905   352.6   12.496      32.184
2015   11        2    19  34    4.0967   352.7   12.511      32.226
2015   11        2    19  41    4.1030   352.8   12.527      32.268
2015   11        2    19  48    4.1095   352.9   12.543      32.312
2015   11        2    19  55    4.1164   353.1   12.559      32.355
2015   11        2    20   2    4.1230   353.2   12.577      32.400
2015   11        2    20  10    4.1302   353.3   12.595      32.445
2015   11        2    20  17    4.1370   353.4   12.613      32.491
2015   11        2    20  24    4.1443   353.6   12.633      32.540
2015   11        2    20  31    4.1519   353.7   12.652      32.591
2015   11        2    20  38    4.1593   353.8   12.673      32.644
2015   11        2    20  45    4.1669   354.0   12.694      32.699
2015   11        2    20  52    4.1748   354.1   12.715      32.755
2015   11        2    20  59    4.1828   354.3   12.737      32.814
2015   11        2    21   7    4.1911   354.4   12.760      32.873
2015   11        2    21  14    4.1990   354.6   12.782      32.935
2015   11        2    21  21    4.2072   354.7   12.805      32.999
2015   11        2    21  28    4.2156   354.9   12.828      33.065
2015   11        2    21  35    4.2236   355.1   12.851      33.134
2015   11        2    21  42    4.2318   355.2   12.873      33.205
2015   11        2    21  49    4.2403   355.4   12.895      33.279
2015   11        2    21  56    4.2481   355.6   12.917      33.353
2015   11        2    22   4    4.2562   355.8   12.938      33.429
2015   11        2    22  11    4.2641   355.9   12.959      33.505
2015   11        2    22  18    4.2724   356.1   12.979      33.582
2015   11        2    22  25    4.2802   356.3   12.998      33.658
2015   11        2    22  32    4.2876   356.5   13.016      33.736
2015   11        2    22  39    4.2951   356.7   13.034      33.813
2015   11        2    22  46    4.3026   356.9   13.050      33.890
2015   11        2    22  53    4.3099   357.1   13.066      33.967
2015   11        2    23   0    4.3174   357.3   13.081      34.043
2015   11        2    23   8    4.3243   357.4   13.095      34.118
2015   11        2    23  15    4.3313   357.6   13.109      34.192
2015   11        2    23  22    4.3382   357.8   13.121      34.265
2015   11        2    23  29    4.3451   358.0   13.134      34.337
2015   11        2    23  36    4.3518   358.2   13.145      34.408
2015   11        2    23  43    4.3587   358.4   13.156      34.477
2015   11        2    23  50    4.3650   358.6   13.167      34.546
2015   11        2    23  57    4.3718   358.7   13.177      34.614
2015   11        3     0   4    4.3780   358.9   13.187      34.682
2015   11        3     0  12    4.3844   359.1   13.197      34.748
2015   11        3     0  19    4.3909   359.3   13.206      34.815
2015   11        3     0  26    4.3970   359.5   13.216      34.880
2015   11        3     0  33    4.4032   359.7   13.225      34.945
2015   11        3     0  40    4.4096   359.9   13.234      35.010
2015   11        3     0  47    4.4155   360.1   13.243      35.075
2015   11        3     0  54    4.4217   360.2   13.252      35.140
2015   11        3     1   1    4.4279   360.4   13.261      35.205
2015   11        3     1   9    4.4340   360.6   13.270      35.270
2015   11        3     1  16    4.4399   360.8   13.279      35.335
2015   11        3     1  23    4.4460   361.0   13.287      35.401
2015   11        3     1  30    4.4521   361.2   13.296      35.467
2015   11        3     1  37    4.4581   361.4   13.305      35.533
2015   11        3     1  44    4.4642   361.6   13.314      35.600
2015   11        3     1  51    4.4702   361.8   13.323      35.667
2015   11        3     1  58    4.4762   362.0   13.333      35.735
2015   11        3     2   5    4.4824   362.3   13.342      35.803
2015   11        3     2  13    4.4885   362.5   13.352      35.872
2015   11        3     2  20    4.4946   362.7   13.362      35.941
2015   11        3     2  27    4.5008   362.9   13.372      36.011
2015   11        3     2  34    4.5070   363.1   13.383      36.081
2015   11        3     2  41    4.5132   363.3   13.394      36.151
2015   11        3     2  48    4.5195   363.5   13.406      36.223
2015   11        3     2  55    4.5259   363.8   13.418      36.295
2015   11        3     3   3    4.5325   364.0   13.431      36.368
2015   11        3     3  10    4.5390   364.2   13.445      36.441
2015   11        3     3  17    4.5457   364.4   13.460      36.515
2015   11        3     3  24    4.5525   364.6   13.476      36.590
2015   11        3     3  31    4.5593   364.9   13.493      36.667
2015   11        3     3  38    4.5664   365.1   13.512      36.746
2015   11        3     3  45    4.5735   365.3   13.531      36.828
2015   11        3     3  52    4.5806   365.6   13.552      36.913
2015   11        3     4   0    4.5881   365.8   13.574      37.000
2015   11        3     4   7    4.5956   366.0   13.597      37.089
2015   11        3     4  14    4.6033   366.3   13.622      37.182
2015   11        3     4  21    4.6111   366.5   13.649      37.279
2015   11        3     4  28    4.6191   366.8   13.676      37.381
2015   11        3     4  35    4.6270   367.1   13.704      37.487
2015   11        3     4  42    4.6353   367.3   13.734      37.599
2015   11        3     4  49    4.6434   367.6   13.763      37.715
2015   11        3     4  57    4.6517   367.9   13.794      37.836
2015   11        3     5   4    4.6600   368.2   13.824      37.962
2015   11        3     5  11    4.6686   368.5   13.854      38.092
2015   11        3     5  18    4.6770   368.8   13.884      38.226
2015   11        3     5  25    4.6853   369.1   13.913      38.361
2015   11        3     5  32    4.6936   369.5   13.941      38.499
2015   11        3     5  39    4.7016   369.8   13.967      38.640
2015   11        3     5  46    4.7097   370.1   13.991      38.780
2015   11        3     5  54    4.7175   370.5   14.014      38.921
2015   11        3     6   1    4.7248   370.9   14.033      39.059
2015   11        3     6   8    4.7322   371.2   14.051      39.196
2015   11        3     6  15    4.7390   371.6   14.066      39.331
2015   11        3     6  22    4.7458   372.0   14.079      39.463
2015   11        3     6  29    4.7521   372.4   14.089      39.592
2015   11        3     6  36    4.7583   372.7   14.096      39.717
2015   11        3     6  43    4.7640   373.1   14.101      39.837
2015   11        3     6  50    4.7694   373.5   14.104      39.954
2015   11        3     6  58    4.7745   373.9   14.104      40.067
2015   11        3     7   5    4.7796   374.2   14.102      40.177
2015   11        3     7  12    4.7842   374.6   14.099      40.283
2015   11        3     7  19    4.7886   375.0   14.094      40.387
2015   11        3     7  26    4.7930   375.3   14.087      40.488
2015   11        3     7  33    4.7971   375.7   14.080      40.587
2015   11        3     7  40    4.8011   376.1   14.071      40.684
2015   11        3     7  47    4.8050   376.4   14.062      40.780
2015   11        3     7  54    4.8088   376.8   14.052      40.875
2015   11        3     8   2    4.8125   377.1   14.041      40.969
2015   11        3     8   9    4.8161   377.5   14.029      41.062
2015   11        3     8  16    4.8197   377.8   14.017      41.155
2015   11        3     8  23    4.8232   378.2   14.005      41.248
2015   11        3     8  30    4.8267   378.5   13.992      41.341
2015   11        3     8  37    4.8301   378.9   13.979      41.434
2015   11        3     8  44    4.8336   379.2   13.966      41.528
2015   11        3     8  51    4.8370   379.6   13.952      41.622
2015   11        3     8  58    4.8403   379.9   13.938      41.717
2015   11        3     9   6    4.8436   380.3   13.924      41.812
2015   11        3     9  13    4.8469   380.6   13.910      41.909
2015   11        3     9  20    4.8501   381.0   13.896      42.006
2015   11        3     9  27    4.8533   381.4   13.881      42.104
2015   11        3     9  34    4.8564   381.7   13.866      42.203
2015   11        3     9  41    4.8595   382.1   13.851      42.304
2015   11        3     9  48    4.8625   382.4   13.836      42.404
2015   11        3     9  55    4.8656   382.8   13.821      42.507
2015   11        3    10   3    4.8686   383.2   13.807      42.609
2015   11        3    10  10    4.8715   383.5   13.792      42.713
2015   11        3    10  17    4.8743   383.9   13.777      42.817
2015   11        3    10  24    4.8773   384.3   13.762      42.923
2015   11        3    10  31    4.8802   384.6   13.748      43.028
2015   11        3    10  38    4.8830   385.0   13.734      43.134
2015   11        3    10  45    4.8858   385.4   13.721      43.240
2015   11        3    10  53    4.8886   385.7   13.708      43.347
2015   11        3    11   0    4.8912   386.1   13.695      43.454
2015   11        3    11   7    4.8940   386.5   13.683      43.562
2015   11        3    11  14    4.8970   386.9   13.672      43.669
2015   11        3    11  21    4.8998   387.2   13.662      43.776
2015   11        3    11  28    4.9027   387.6   13.653      43.883
2015   11        3    11  35    4.9053   388.0   13.645      43.992
2015   11        3    11  42    4.9082   388.4   13.638      44.103
2015   11        3    11  50    4.9115   388.7   13.632      44.216
2015   11        3    11  57    4.9145   389.1   13.627      44.329
2015   11        3    12   4    4.9172   389.5   13.622      44.444
2015   11        3    12  11    4.9206   389.9   13.619      44.558
2015   11        3    12  18    4.9232   390.3   13.616      44.676
2015   11        3    12  25    4.9267   390.7   13.613      44.794
2015   11        3    12  32    4.9298   391.1   13.611      44.915
2015   11        3    12  39    4.9328   391.5   13.608      45.035
2015   11        3    12  47    4.9352   391.9   13.605      45.158
2015   11        3    12  54    4.9385   392.4   13.601      45.280
2015   11        3    13   1    4.9412   392.8   13.596      45.404
2015   11        3    13   8    4.9431   393.3   13.591      45.525
2015   11        3    13  15    4.9459   393.8   13.583      45.644
2015   11        3    13  22    4.9474   394.2   13.575      45.761
2015   11        3    13  29    4.9498   394.7   13.565      45.875
2015   11        3    13  36    4.9508   395.2   13.553      45.986
2015   11        3    13  43    4.9520   395.7   13.539      46.096
2015   11        3    13  50    4.9537   396.2   13.523      46.202
2015   11        3    13  58    4.9543   396.7   13.505      46.304
2015   11        3    14   5    4.9541   397.3   13.485      46.403
2015   11        3    14  12    4.9549   397.8   13.463      46.499
2015   11        3    14  19    4.9548   398.3   13.440      46.592
2015   11        3    14  26    4.9543   398.8   13.415      46.684
2015   11        3    14  33    4.9537   399.3   13.388      46.774
2015   11        3    14  40    4.9520   399.9   13.360      46.861
2015   11        3    14  47    4.9516   400.4   13.331      46.948
2015   11        3    14  54    4.9502   400.9   13.300      47.033
2015   11        3    15   2    4.9479   401.4   13.268      47.117
2015   11        3    15   9    4.9468   401.9   13.234      47.200
2015   11        3    15  16    4.9448   402.4   13.200      47.282
2015   11        3    15  23    4.9425   402.9   13.163      47.363
2015   11        3    15  30    4.9400   403.4   13.126      47.443
2015   11        3    15  37    4.9365   403.9   13.086      47.523
2015   11        3    15  44    4.9335   404.4   13.046      47.601
2015   11        3    15  51    4.9303   404.9   13.004      47.678
2015   11        3    15  58    4.9277   405.4   12.960      47.752
2015   11        3    16   6    4.9239   405.9   12.915      47.826
2015   11        3    16  13    4.9199   406.4   12.868      47.898
2015   11        3    16  20    4.9156   406.9   12.819      47.967
2015   11        3    16  27    4.9111   407.4   12.768      48.033
2015   11        3    16  34    4.9061   407.8   12.715      48.097
2015   11        3    16  41    4.9009   408.3   12.661      48.160
2015   11        3    16  48    4.8944   408.8   12.604      48.219
2015   11        3    16  55    4.8895   409.3   12.546      48.273
2015   11        3    17   3    4.8834   409.7   12.486      48.321
2015   11        3    17  10    4.8771   410.2   12.425      48.365
2015   11        3    17  17    4.8706   410.6   12.364      48.405
2015   11        3    17  24    4.8640   411.1   12.302      48.440
2015   11        3    17  31    4.8572   411.5   12.240      48.472
2015   11        3    17  38    4.8494   412.0   12.178      48.501
2015   11        3    17  45    4.8433   412.4   12.115      48.529
2015   11        3    17  52    4.8354   412.9   12.054      48.555
2015   11        3    18   0    4.8291   413.3   11.992      48.580
2015   11        3    18   7    4.8211   413.7   11.931      48.603
2015   11        3    18  14    4.8148   414.2   11.871      48.624
2015   11        3    18  21    4.8076   414.6   11.812      48.645
2015   11        3    18  28    4.7992   415.1   11.753      48.667
2015   11        3    18  35    4.7919   415.5   11.695      48.689
2015   11        3    18  42    4.7854   416.0   11.637      48.712
2015   11        3    18  50    4.7769   416.4   11.580      48.734
2015   11        3    18  57    4.7702   416.9   11.523      48.756
2015   11        3    19   4    4.7615   417.3   11.467      48.777
2015   11        3    19  11    4.7536   417.8   11.411      48.797
2015   11        3    19  18    4.7457   418.2   11.356      48.817
2015   11        3    19  25    4.7376   418.7   11.301      48.835
2015   11        3    19  32    4.7305   419.1   11.247      48.851
2015   11        3    19  39    4.7221   419.6   11.193      48.866
2015   11        3    19  46    4.7127   420.0   11.140      48.879
2015   11        3    19  54    4.7051   420.5   11.087      48.890
2015   11        3    20   1    4.6955   420.9   11.034      48.900
2015   11        3    20   8    4.6866   421.4   10.982      48.907
2015   11        3    20  15    4.6777   421.8   10.930      48.912
2015   11        3    20  22    4.6697   422.3   10.879      48.915
2015   11        3    20  29    4.6595   422.7   10.828      48.916
2015   11        3    20  36    4.6513   423.2   10.777      48.914
2015   11        3    20  43    4.6409   423.7   10.727      48.910
2015   11        3    20  50    4.6314   424.1   10.677      48.904
2015   11        3    20  58    4.6229   424.6   10.628      48.896
2015   11        3    21   5    4.6121   425.0   10.579      48.885
2015   11        3    21  12    4.6034   425.5   10.530      48.873
2015   11        3    21  19    4.5934   425.9   10.482      48.860
2015   11        3    21  26    4.5824   426.4   10.434      48.845
2015   11        3    21  33    4.5733   426.9   10.385      48.830
2015   11        3    21  40    4.5621   427.3   10.338      48.814
2015   11        3    21  47    4.5527   427.8   10.290      48.798
2015   11        3    21  54    4.5422   428.2   10.242      48.782
2015   11        3    22   2    4.5315   428.7   10.193      48.765
2015   11        3    22   9    4.5208   429.1   10.145      48.748
2015   11        3    22  16    4.5098   429.6   10.097      48.730
2015   11        3    22  23    4.4987   430.1   10.048      48.712
2015   11        3    22  30    4.4873   430.5    9.998      48.693
2015   11        3    22  37    4.4759   431.0    9.948      48.673
2015   11        3    22  44    4.4631   431.4    9.898      48.651
2015   11        3    22  51    4.4513   431.9    9.847      48.629
2015   11        3    22  58    4.4403   432.3    9.794      48.603
2015   11        3    23   6    4.4281   432.8    9.742      48.575
2015   11        3    23  13    4.4157   433.2    9.688      48.544
2015   11        3    23  20    4.4032   433.6    9.634      48.510
2015   11        3    23  27    4.3894   434.1    9.578      48.472
2015   11        3    23  34    4.3775   434.5    9.522      48.430
2015   11        3    23  41    4.3643   434.9    9.464      48.381
2015   11        3    23  48    4.3510   435.3    9.405      48.328
2015   11        3    23  55    4.3375   435.8    9.345      48.271
2015   11        4     0   2    4.3229   436.2    9.284      48.208
2015   11        4     0  10    4.3100   436.6    9.222      48.135
2015   11        4     0  17    4.2961   437.0    9.159      48.053
2015   11        4     0  24    4.2821   437.4    9.096      47.961
2015   11        4     0  31    4.2672   437.7    9.034      47.862
2015   11        4     0  38    4.2531   438.1    8.971      47.755
2015   11        4     0  45    4.2392   438.5    8.909      47.642
2015   11        4     0  52    4.2251   438.8    8.847      47.523
2015   11        4     0  59    4.2121   439.1    8.786      47.400
2015   11        4     1   7    4.1981   439.5    8.726      47.273
2015   11        4     1  14    4.1835   439.8    8.667      47.145
2015   11        4     1  21    4.1706   440.1    8.609      47.012
2015   11        4     1  28    4.1570   440.4    8.553      46.878
2015   11        4     1  35    4.1434   440.7    8.498      46.742
2015   11        4     1  42    4.1300   441.0    8.445      46.608
2015   11        4     1  49    4.1165   441.3    8.392      46.476
2015   11        4     1  56    4.1025   441.6    8.341      46.345
2015   11        4     2   4    4.0899   441.9    8.290      46.215
2015   11        4     2  11    4.0759   442.1    8.241      46.086
2015   11        4     2  18    4.0634   442.4    8.192      45.958
2015   11        4     2  25    4.0495   442.7    8.144      45.830
2015   11        4     2  32    4.0370   443.0    8.096      45.702
2015   11        4     2  39    4.0232   443.2    8.050      45.575
2015   11        4     2  46    4.0106   443.5    8.004      45.448
2015   11        4     2  53    3.9975   443.8    7.958      45.321
2015   11        4     3   1    3.9842   444.0    7.913      45.193
2015   11        4     3   8    3.9706   444.3    7.869      45.066
2015   11        4     3  15    3.9579   444.5    7.825      44.937
2015   11        4     3  22    3.9443   444.8    7.782      44.809
2015   11        4     3  29    3.9316   445.0    7.739      44.680
2015   11        4     3  36    3.9184   445.2    7.696      44.552
2015   11        4     3  43    3.9053   445.5    7.654      44.422
2015   11        4     3  50    3.8921   445.7    7.613      44.292
2015   11        4     3  58    3.8790   445.9    7.571      44.160
2015   11        4     4   5    3.8659   446.1    7.530      44.029
2015   11        4     4  12    3.8524   446.3    7.490      43.898
2015   11        4     4  19    3.8396   446.5    7.449      43.766
2015   11        4     4  26    3.8265   446.7    7.409      43.633
2015   11        4     4  33    3.8134   446.9    7.370      43.500
2015   11        4     4  40    3.8003   447.1    7.331      43.366
2015   11        4     4  47    3.7873   447.2    7.292      43.233
2015   11        4     4  54    3.7742   447.4    7.254      43.098
2015   11        4     5   1    3.7611   447.6    7.216      42.963
2015   11        4     5   9    3.7480   447.7    7.179      42.828
2015   11        4     5  16    3.7350   447.9    7.142      42.693
2015   11        4     5  23    3.7220   448.0    7.105      42.557
2015   11        4     5  30    3.7090   448.1    7.070      42.422
2015   11        4     5  37    3.6961   448.3    7.034      42.286
2015   11        4     5  44    3.6831   448.4    6.999      42.150
2015   11        4     5  51    3.6702   448.5    6.965      42.014
2015   11        4     5  58    3.6574   448.6    6.931      41.878
2015   11        4     6   5    3.6448   448.7    6.898      41.742
2015   11        4     6  12    3.6320   448.8    6.866      41.607
2015   11        4     6  20    3.6195   448.9    6.834      41.471
2015   11        4     6  27    3.6070   449.0    6.802      41.337
2015   11        4     6  34    3.5944   449.0    6.771      41.202
2015   11        4     6  41    3.5823   449.1    6.741      41.069
2015   11        4     6  48    3.5699   449.2    6.712      40.936
2015   11        4     6  55    3.5580   449.2    6.683      40.804
2015   11        4     7   2    3.5458   449.3    6.655      40.673
2015   11        4     7   9    3.5340   449.3    6.627      40.544
2015   11        4     7  16    3.5223   449.3    6.600      40.415
2015   11        4     7  24    3.5111   449.4    6.574      40.288
2015   11        4     7  31    3.4994   449.4    6.549      40.161
2015   11        4     7  38    3.4882   449.4    6.524      40.037
2015   11        4     7  45    3.4771   449.4    6.500      39.914
2015   11        4     7  52    3.4662   449.4    6.476      39.792
2015   11        4     7  59    3.4554   449.4    6.453      39.672
2015   11        4     8   6    3.4452   449.4    6.431      39.554
2015   11        4     8  13    3.4343   449.4    6.409      39.438
2015   11        4     8  21    3.4244   449.4    6.388      39.323
2015   11        4     8  28    3.4142   449.4    6.368      39.210
2015   11        4     8  35    3.4036   449.3    6.348      39.099
2015   11        4     8  42    3.3942   449.3    6.329      38.989
2015   11        4     8  49    3.3838   449.3    6.310      38.882
2015   11        4     8  56    3.3741   449.2    6.291      38.776
2015   11        4     9   3    3.3645   449.2    6.273      38.672
2015   11        4     9  11    3.3550   449.2    6.255      38.569
2015   11        4     9  18    3.3456   449.1    6.238      38.468
2015   11        4     9  25    3.3363   449.1    6.221      38.369
2015   11        4     9  32    3.3271   449.1    6.204      38.272
2015   11        4     9  39    3.3180   449.0    6.188      38.175
2015   11        4     9  46    3.3089   449.0    6.171      38.080
2015   11        4     9  53    3.3000   448.9    6.155      37.985
2015   11        4    10   0    3.2910   448.9    6.139      37.891
2015   11        4    10   7    3.2822   448.9    6.123      37.798
2015   11        4    10  15    3.2734   448.8    6.108      37.706
2015   11        4    10  22    3.2653   448.8    6.092      37.614
2015   11        4    10  29    3.2560   448.7    6.077      37.523
2015   11        4    10  36    3.2474   448.7    6.062      37.431
2015   11        4    10  43    3.2388   448.6    6.047      37.340
2015   11        4    10  50    3.2304   448.6    6.032      37.248
2015   11        4    10  57    3.2219   448.5    6.017      37.157
2015   11        4    11   4    3.2135   448.5    6.002      37.065
2015   11        4    11  12    3.2051   448.4    5.987      36.973
2015   11        4    11  19    3.1968   448.4    5.972      36.880
2015   11        4    11  26    3.1885   448.3    5.958      36.789
2015   11        4    11  33    3.1808   448.3    5.943      36.697
2015   11        4    11  40    3.1722   448.2    5.929      36.605
2015   11        4    11  47    3.1641   448.1    5.915      36.514
2015   11        4    11  54    3.1565   448.0    5.900      36.424
2015   11        4    12   1    3.1480   448.0    5.887      36.333
2015   11        4    12   8    3.1405   447.9    5.873      36.244
2015   11        4    12  15    3.1321   447.8    5.859      36.155
2015   11        4    12  23    3.1243   447.7    5.846      36.068
2015   11        4    12  30    3.1165   447.6    5.832      35.981
2015   11        4    12  37    3.1087   447.6    5.819      35.896
2015   11        4    12  44    3.1010   447.5    5.806      35.811
2015   11        4    12  51    3.0934   447.4    5.793      35.728
2015   11        4    12  58    3.0858   447.3    5.780      35.645
2015   11        4    13   5    3.0782   447.2    5.768      35.564
2015   11        4    13  12    3.0707   447.2    5.755      35.483
2015   11        4    13  19    3.0633   447.1    5.742      35.403
2015   11        4    13  26    3.0559   447.0    5.730      35.324
2015   11        4    13  34    3.0486   446.9    5.717      35.245
2015   11        4    13  41    3.0412   446.8    5.705      35.166
2015   11        4    13  48    3.0340   446.7    5.693      35.088
2015   11        4    13  55    3.0268   446.6    5.680      35.010
2015   11        4    14   2    3.0196   446.5    5.668      34.934
2015   11        4    14   9    3.0125   446.5    5.656      34.856
2015   11        4    14  16    3.0055   446.4    5.644      34.780
2015   11        4    14  23    2.9984   446.3    5.632      34.704
2015   11        4    14  30    2.9914   446.2    5.620      34.628
2015   11        4    14  38    2.9850   446.1    5.608      34.552
2015   11        4    14  45    2.9776   446.0    5.596      34.476
2015   11        4    14  52    2.9713   445.9    5.584      34.400
2015   11        4    14  59    2.9640   445.8    5.573      34.325
2015   11        4    15   6    2.9573   445.7    5.561      34.249
2015   11        4    15  13    2.9505   445.6    5.550      34.175
2015   11        4    15  20    2.9439   445.5    5.538      34.099
2015   11        4    15  27    2.9373   445.4    5.527      34.025
2015   11        4    15  35    2.9307   445.3    5.516      33.950
2015   11        4    15  42    2.9246   445.2    5.505      33.876
2015   11        4    15  49    2.9177   445.0    5.494      33.801
2015   11        4    15  56    2.9117   444.9    5.483      33.727
2015   11        4    16   3    2.9048   444.8    5.473      33.653
2015   11        4    16  10    2.8989   444.7    5.462      33.580
2015   11        4    16  17    2.8922   444.6    5.452      33.507
2015   11        4    16  24    2.8859   444.5    5.442      33.434
2015   11        4    16  32    2.8801   444.3    5.432      33.361
2015   11        4    16  39    2.8735   444.2    5.422      33.289
2015   11        4    16  46    2.8674   444.1    5.412      33.218
2015   11        4    16  53    2.8613   444.0    5.402      33.147
2015   11        4    17   0    2.8556   443.8    5.393      33.075
2015   11        4    17   7    2.8492   443.7    5.383      33.005
2015   11        4    17  14    2.8432   443.6    5.374      32.935
2015   11        4    17  21    2.8372   443.4    5.365      32.865
2015   11        4    17  29    2.8317   443.3    5.356      32.796
2015   11        4    17  36    2.8258   443.2    5.348      32.727
2015   11        4    17  43    2.8200   443.0    5.339      32.658
2015   11        4    17  50    2.8142   442.9    5.331      32.589
2015   11        4    17  57    2.8081   442.7    5.323      32.521
2015   11        4    18   4    2.8024   442.6    5.315      32.453
2015   11        4    18  11    2.7968   442.4    5.307      32.385
2015   11        4    18  18    2.7912   442.2    5.300      32.317
2015   11        4    18  25    2.7860   442.1    5.293      32.249
2015   11        4    18  33    2.7801   441.9    5.286      32.182
2015   11        4    18  40    2.7750   441.7    5.279      32.115
2015   11        4    18  47    2.7696   441.5    5.272      32.048
2015   11        4    18  54    2.7639   441.4    5.265      31.982
2015   11        4    19   1    2.7586   441.2    5.259      31.916
2015   11        4    19   8    2.7536   441.0    5.253      31.850
2015   11        4    19  15    2.7484   440.8    5.247      31.785
2015   11        4    19  22    2.7429   440.6    5.241      31.721
2015   11        4    19  29    2.7378   440.5    5.235      31.657
2015   11        4    19  36    2.7327   440.3    5.230      31.595
2015   11        4    19  44    2.7277   440.1    5.224      31.533
2015   11        4    19  51    2.7230   439.9    5.219      31.473
2015   11        4    19  58    2.7177   439.7    5.213      31.413
2015   11        4    20   5    2.7128   439.5    5.208      31.354
2015   11        4    20  12    2.7079   439.4    5.203      31.297
2015   11        4    20  19    2.7031   439.2    5.197      31.239
2015   11        4    20  26    2.6982   439.0    5.192      31.183
2015   11        4    20  33    2.6938   438.8    5.187      31.127
2015   11        4    20  40    2.6890   438.6    5.181      31.072
2015   11        4    20  47    2.6843   438.4    5.176      31.017
2015   11        4    20  54    2.6794   438.3    5.170      30.962
2015   11        4    21   2    2.6747   438.1    5.165      30.907
2015   11        4    21   9    2.6701   437.9    5.159      30.853
2015   11        4    21  16    2.6658   437.7    5.154      30.798
2015   11        4    21  23    2.6610   437.5    5.148      30.744
2015   11        4    21  30    2.6567   437.4    5.143      30.690
2015   11        4    21  37    2.6519   437.2    5.137      30.636
2015   11        4    21  44    2.6474   437.0    5.131      30.582
2015   11        4    21  51    2.6430   436.8    5.126      30.528
2015   11        4    21  58    2.6385   436.6    5.120      30.473
2015   11        4    22   6    2.6341   436.4    5.115      30.419
2015   11        4    22  13    2.6297   436.2    5.109      30.364
2015   11        4    22  20    2.6253   436.1    5.104      30.310
2015   11        4    22  27    2.6212   435.9    5.098      30.255
2015   11        4    22  34    2.6166   435.7    5.093      30.201
2015   11        4    22  41    2.6126   435.5    5.087      30.146
2015   11        4    22  48    2.6080   435.3    5.082      30.091
2015   11        4    22  55    2.6040   435.1    5.076      30.036
2015   11        4    23   3    2.5997   434.9    5.071      29.982
2015   11        4    23  10    2.5953   434.7    5.066      29.927
2015   11        4    23  17    2.5911   434.5    5.061      29.872
2015   11        4    23  24    2.5869   434.3    5.056      29.817
2015   11        4    23  31    2.5830   434.1    5.050      29.763
2015   11        4    23  38    2.5787   433.9    5.045      29.708
2015   11        4    23  45    2.5748   433.7    5.041      29.654
2015   11        4    23  52    2.5705   433.5    5.036      29.600
2015   11        5     0   0    2.5665   433.3    5.031      29.546
2015   11        5     0   7    2.5628   433.1    5.026      29.492
2015   11        5     0  14    2.5586   432.9    5.022      29.438
2015   11        5     0  21    2.5546   432.7    5.017      29.385
2015   11        5     0  28    2.5507   432.5    5.013      29.332
2015   11        5     0  35    2.5471   432.3    5.009      29.279
2015   11        5     0  42    2.5431   432.1    5.005      29.226
2015   11        5     0  49    2.5393   431.9    5.001      29.174
2015   11        5     0  57    2.5355   431.7    4.997      29.122
2015   11        5     1   4    2.5318   431.4    4.993      29.070
2015   11        5     1  11    2.5280   431.2    4.989      29.018
2015   11        5     1  18    2.5244   431.0    4.985      28.967
2015   11        5     1  25    2.5207   430.8    4.982      28.916
2015   11        5     1  32    2.5174   430.6    4.978      28.865
2015   11        5     1  39    2.5136   430.4    4.975      28.814
2015   11        5     1  46    2.5100   430.2    4.971      28.764
2015   11        5     1  53    2.5065   429.9    4.968      28.714
2015   11        5     2   1    2.5031   429.7    4.965      28.664
2015   11        5     2   8    2.4999   429.5    4.962      28.614
2015   11        5     2  15    2.4962   429.3    4.959      28.564
2015   11        5     2  22    2.4929   429.0    4.956      28.514
2015   11        5     2  29    2.4895   428.8    4.953      28.465
2015   11        5     2  36    2.4863   428.6    4.950      28.416
2015   11        5     2  43    2.4830   428.4    4.947      28.366
2015   11        5     2  50    2.4800   428.1    4.944      28.317
2015   11        5     2  57    2.4766   427.9    4.942      28.269
2015   11        5     3   4    2.4736   427.7    4.939      28.220
2015   11        5     3  11    2.4705   427.5    4.936      28.172
2015   11        5     3  19    2.4674   427.2    4.934      28.123
2015   11        5     3  26    2.4641   427.0    4.931      28.075
2015   11        5     3  33    2.4612   426.8    4.929      28.027
2015   11        5     3  40    2.4580   426.5    4.926      27.979
2015   11        5     3  47    2.4552   426.3    4.924      27.932
2015   11        5     3  54    2.4521   426.1    4.922      27.884
2015   11        5     4   1    2.4491   425.9    4.919      27.837
2015   11        5     4   8    2.4462   425.6    4.917      27.789
2015   11        5     4  15    2.4436   425.4    4.915      27.742
2015   11        5     4  22    2.4407   425.2    4.913      27.695
2015   11        5     4  30    2.4379   424.9    4.911      27.648
2015   11        5     4  37    2.4348   424.7    4.908      27.602
2015   11        5     4  44    2.4320   424.4    4.906      27.555
2015   11        5     4  51    2.4293   424.2    4.904      27.509
2015   11        5     4  58    2.4265   424.0    4.902      27.463
2015   11        5     5   5    2.4238   423.7    4.900      27.417
2015   11        5     5  12    2.4210   423.5    4.898      27.371
2015   11        5     5  19    2.4183   423.3    4.897      27.325
2015   11        5     5  26    2.4158   423.0    4.895      27.280
2015   11        5     5  34    2.4129   422.8    4.893      27.234
2015   11        5     5  41    2.4103   422.5    4.891      27.189
2015   11        5     5  48    2.4076   422.3    4.889      27.143
2015   11        5     5  55    2.4051   422.1    4.887      27.099
2015   11        5     6   2    2.4025   421.8    4.886      27.054
2015   11        5     6   9    2.3999   421.6    4.884      27.009
2015   11        5     6  16    2.3972   421.3    4.882      26.965
2015   11        5     6  23    2.3946   421.1    4.881      26.921
2015   11        5     6  31    2.3921   420.8    4.879      26.876
2015   11        5     6  38    2.3897   420.6    4.878      26.833
2015   11        5     6  45    2.3871   420.4    4.876      26.789
2015   11        5     6  52    2.3846   420.1    4.875      26.745
2015   11        5     6  59    2.3822   419.9    4.873      26.702
2015   11        5     7   6    2.3799   419.6    4.872      26.659
2015   11        5     7  13    2.3773   419.4    4.870      26.616
2015   11        5     7  20    2.3750   419.1    4.869      26.574
2015   11        5     7  28    2.3726   418.9    4.868      26.532
2015   11        5     7  35    2.3703   418.6    4.866      26.490
2015   11        5     7  42    2.3680   418.4    4.865      26.448
2015   11        5     7  49    2.3657   418.1    4.864      26.406
2015   11        5     7  56    2.3635   417.9    4.863      26.364
2015   11        5     8   3    2.3614   417.6    4.862      26.323
2015   11        5     8  10    2.3590   417.4    4.861      26.282
2015   11        5     8  17    2.3569   417.2    4.860      26.240
2015   11        5     8  24    2.3548   416.9    4.859      26.199
2015   11        5     8  32    2.3526   416.7    4.858      26.158
2015   11        5     8  39    2.3505   416.4    4.857      26.117
2015   11        5     8  46    2.3484   416.2    4.856      26.076
2015   11        5     8  53    2.3465   415.9    4.855      26.035
2015   11        5     9   0    2.3443   415.7    4.854      25.994
2015   11        5     9   7    2.3423   415.4    4.853      25.954
2015   11        5     9  14    2.3403   415.2    4.852      25.913
2015   11        5     9  21    2.3383   414.9    4.851      25.872
2015   11        5     9  28    2.3363   414.7    4.850      25.832
2015   11        5     9  36    2.3345   414.4    4.850      25.791
2015   11        5     9  43    2.3324   414.2    4.849      25.750
2015   11        5     9  50    2.3307   414.0    4.848      25.710
2015   11        5     9  57    2.3286   413.7    4.847      25.670
2015   11        5    10   4    2.3268   413.5    4.847      25.629
2015   11        5    10  11    2.3249   413.2    4.846      25.589
2015   11        5    10  18    2.3230   413.0    4.845      25.549
2015   11        5    10  25    2.3212   412.7    4.845      25.509
2015   11        5    10  32    2.3194   412.5    4.844      25.468
2015   11        5    10  39    2.3177   412.2    4.844      25.429
2015   11        5    10  46    2.3159   412.0    4.843      25.389
2015   11        5    10  54    2.3140   411.7    4.843      25.349
2015   11        5    11   1    2.3122   411.5    4.842      25.309
2015   11        5    11   8    2.3105   411.3    4.842      25.269
2015   11        5    11  15    2.3088   411.0    4.842      25.230
2015   11        5    11  22    2.3070   410.8    4.841      25.190
2015   11        5    11  29    2.3052   410.5    4.841      25.151
2015   11        5    11  36    2.3034   410.3    4.841      25.111
2015   11        5    11  43    2.3018   410.0    4.840      25.072
2015   11        5    11  50    2.3000   409.8    4.840      25.033
2015   11        5    11  57    2.2983   409.5    4.840      24.994
2015   11        5    12   4    2.2967   409.3    4.840      24.955
2015   11        5    12  12    2.2950   409.0    4.840      24.916
2015   11        5    12  19    2.2934   408.8    4.840      24.877
2015   11        5    12  26    2.2917   408.5    4.840      24.839
2015   11        5    12  33    2.2900   408.3    4.840      24.800
2015   11        5    12  40    2.2884   408.0    4.840      24.762
2015   11        5    12  47    2.2868   407.8    4.840      24.724
2015   11        5    12  54    2.2852   407.6    4.840      24.686
2015   11        5    13   1    2.2836   407.3    4.840      24.648
2015   11        5    13   9    2.2820   407.1    4.840      24.610
2015   11        5    13  16    2.2806   406.8    4.840      24.573
2015   11        5    13  23    2.2789   406.6    4.841      24.535
2015   11        5    13  30    2.2775   406.3    4.841      24.498
2015   11        5    13  37    2.2759   406.1    4.841      24.461
2015   11        5    13  44    2.2743   405.8    4.841      24.424
2015   11        5    13  51    2.2729   405.6    4.842      24.388
2015   11        5    13  58    2.2714   405.3    4.842      24.351
2015   11        5    14   6    2.2700   405.1    4.842      24.315
2015   11        5    14  13    2.2684   404.8    4.843      24.279
2015   11        5    14  20    2.2670   404.6    4.843      24.243
2015   11        5    14  27    2.2655   404.3    4.844      24.207
2015   11        5    14  34    2.2642   404.1    4.844      24.171
2015   11        5    14  41    2.2627   403.8    4.845      24.135
2015   11        5    14  48    2.2613   403.6    4.845      24.100
2015   11        5    14  55    2.2600   403.3    4.846      24.064
2015   11        5    15   2    2.2585   403.1    4.846      24.029
2015   11        5    15  10    2.2571   402.8    4.847      23.993
2015   11        5    15  17    2.2559   402.6    4.847      23.958
2015   11        5    15  24    2.2545   402.3    4.848      23.922
2015   11        5    15  31    2.2531   402.1    4.848      23.887
2015   11        5    15  38    2.2517   401.8    4.849      23.852
2015   11        5    15  45    2.2504   401.6    4.849      23.817
2015   11        5    15  52    2.2491   401.3    4.850      23.782
2015   11        5    15  59    2.2478   401.1    4.850      23.747
2015   11        5    16   6    2.2465   400.8    4.851      23.712
2015   11        5    16  14    2.2452   400.6    4.851      23.677
2015   11        5    16  21    2.2439   400.3    4.852      23.642
2015   11        5    16  28    2.2426   400.1    4.853      23.607
2015   11        5    16  35    2.2414   399.8    4.854      23.573
2015   11        5    16  42    2.2401   399.6    4.854      23.538
2015   11        5    16  49    2.2388   399.3    4.855      23.504
2015   11        5    16  56    2.2377   399.1    4.856      23.470
2015   11        5    17   3    2.2364   398.8    4.857      23.436
2015   11        5    17  10    2.2351   398.6    4.858      23.402
2015   11        5    17  17    2.2339   398.3    4.859      23.368
2015   11        5    17  25    2.2327   398.1    4.860      23.335
2015   11        5    17  32    2.2316   397.8    4.861      23.301
2015   11        5    17  39    2.2303   397.6    4.862      23.268
2015   11        5    17  46    2.2292   397.3    4.863      23.235
2015   11        5    17  53    2.2280   397.1    4.864      23.202
2015   11        5    18   0    2.2268   396.8    4.865      23.169
2015   11        5    18   7    2.2257   396.6    4.867      23.136
2015   11        5    18  14    2.2246   396.3    4.868      23.104
2015   11        5    18  21    2.2235   396.1    4.869      23.071
2015   11        5    18  28    2.2223   395.8    4.870      23.039
2015   11        5    18  35    2.2212   395.6    4.872      23.007
2015   11        5    18  43    2.2201   395.3    4.873      22.974
2015   11        5    18  50    2.2190   395.0    4.875      22.942
2015   11        5    18  57    2.2179   394.8    4.876      22.910
2015   11        5    19   4    2.2168   394.5    4.877      22.878
2015   11        5    19  11    2.2158   394.3    4.879      22.847
2015   11        5    19  18    2.2147   394.0    4.880      22.815
2015   11        5    19  25    2.2136   393.8    4.882      22.783
2015   11        5    19  32    2.2126   393.5    4.883      22.751
2015   11        5    19  39    2.2116   393.2    4.885      22.720
2015   11        5    19  46    2.2105   393.0    4.886      22.688
2015   11        5    19  54    2.2095   392.7    4.888      22.656
2015   11        5    20   1    2.2085   392.5    4.889      22.625
2015   11        5    20   8    2.2075   392.2    4.891      22.593
2015   11        5    20  15    2.2065   391.9    4.892      22.561
2015   11        5    20  22    2.2055   391.7    4.893      22.530
2015   11        5    20  29    2.2045   391.4    4.895      22.498
2015   11        5    20  36    2.2035   391.2    4.896      22.466
2015   11        5    20  43    2.2026   390.9    4.898      22.434
2015   11        5    20  50    2.2017   390.6    4.899      22.402
2015   11        5    20  58    2.2007   390.4    4.900      22.370
2015   11        5    21   5    2.1998   390.1    4.902      22.338
2015   11        5    21  12    2.1989   389.9    4.903      22.306
2015   11        5    21  19    2.1980   389.6    4.904      22.274
2015   11        5    21  26    2.1970   389.3    4.905      22.242
2015   11        5    21  33    2.1962   389.1    4.907      22.210
2015   11        5    21  40    2.1953   388.8    4.908      22.178
2015   11        5    21  47    2.1945   388.5    4.909      22.146
2015   11        5    21  55    2.1936   388.3    4.910      22.114
2015   11        5    22   2    2.1928   388.0    4.912      22.082
2015   11        5    22   9    2.1919   387.8    4.913      22.049
2015   11        5    22  16    2.1911   387.5    4.914      22.017
2015   11        5    22  23    2.1903   387.2    4.915      21.985
2015   11        5    22  30    2.1894   387.0    4.917      21.953
2015   11        5    22  37    2.1887   386.7    4.918      21.921
2015   11        5    22  44    2.1879   386.4    4.919      21.889
2015   11        5    22  52    2.1871   386.2    4.920      21.857
2015   11        5    22  59    2.1863   385.9    4.922      21.825
2015   11        5    23   6    2.1856   385.6    4.923      21.793
2015   11        5    23  13    2.1848   385.4    4.924      21.761
2015   11        5    23  20    2.1842   385.1    4.926      21.729
2015   11        5    23  27    2.1834   384.8    4.927      21.697
2015   11        5    23  34    2.1827   384.6    4.929      21.665
2015   11        5    23  41    2.1820   384.3    4.930      21.634
2015   11        5    23  48    2.1814   384.0    4.932      21.602
2015   11        5    23  55    2.1807   383.8    4.934      21.571
2015   11        6     0   3    2.1800   383.5    4.936      21.540
2015   11        6     0  10    2.1795   383.2    4.938      21.510
2015   11        6     0  17    2.1788   383.0    4.940      21.479
2015   11        6     0  24    2.1783   382.7    4.942      21.449
2015   11        6     0  31    2.1777   382.4    4.944      21.419
2015   11        6     0  38    2.1772   382.1    4.947      21.389
2015   11        6     0  45    2.1767   381.9    4.949      21.360
2015   11        6     0  52    2.1763   381.6    4.952      21.331
2015   11        6     0  59    2.1759   381.3    4.955      21.302
2015   11        6     1   6    2.1755   381.0    4.958      21.274
2015   11        6     1  13    2.1751   380.8    4.962      21.246
2015   11        6     1  21    2.1748   380.5    4.965      21.219
2015   11        6     1  28    2.1745   380.2    4.969      21.192
2015   11        6     1  35    2.1742   380.0    4.973      21.166
2015   11        6     1  42    2.1740   379.7    4.977      21.139
2015   11        6     1  49    2.1738   379.4    4.981      21.114
2015   11        6     1  56    2.1737   379.1    4.986      21.088
2015   11        6     2   3    2.1735   378.9    4.990      21.064
2015   11        6     2  10    2.1735   378.6    4.995      21.039
2015   11        6     2  17    2.1735   378.3    5.000      21.015
2015   11        6     2  24    2.1734   378.0    5.006      20.991
2015   11        6     2  31    2.1734   377.8    5.011      20.968
2015   11        6     2  39    2.1734   377.5    5.017      20.945
2015   11        6     2  46    2.1735   377.2    5.022      20.923
2015   11        6     2  53    2.1736   376.9    5.028      20.900
2015   11        6     3   0    2.1738   376.7    5.034      20.878
2015   11        6     3   7    2.1740   376.4    5.041      20.856
2015   11        6     3  14    2.1742   376.1    5.047      20.835
2015   11        6     3  21    2.1744   375.8    5.054      20.814
2015   11        6     3  28    2.1747   375.6    5.061      20.793
2015   11        6     3  35    2.1749   375.3    5.068      20.772
2015   11        6     3  42    2.1753   375.0    5.075      20.752
2015   11        6     3  50    2.1756   374.7    5.082      20.731
2015   11        6     3  57    2.1760   374.4    5.089      20.712
2015   11        6     4   4    2.1764   374.2    5.097      20.692
2015   11        6     4  11    2.1769   373.9    5.104      20.672
2015   11        6     4  18    2.1775   373.6    5.112      20.653
2015   11        6     4  25    2.1779   373.3    5.120      20.635
2015   11        6     4  32    2.1784   373.0    5.128      20.616
2015   11        6     4  39    2.1790   372.8    5.136      20.598
2015   11        6     4  47    2.1796   372.5    5.144      20.580
2015   11        6     4  54    2.1802   372.2    5.153      20.562
2015   11        6     5   1    2.1809   371.9    5.161      20.544
2015   11        6     5   8    2.1816   371.6    5.170      20.527
2015   11        6     5  15    2.1824   371.4    5.178      20.510
2015   11        6     5  22    2.1831   371.1    5.187      20.493
2015   11        6     5  29    2.1839   370.8    5.196      20.477
2015   11        6     5  36    2.1848   370.5    5.205      20.460
2015   11        6     5  44    2.1857   370.2    5.215      20.444
2015   11        6     5  51    2.1866   370.0    5.224      20.428
2015   11        6     5  58    2.1875   369.7    5.233      20.412
2015   11        6     6   5    2.1886   369.4    5.243      20.397
2015   11        6     6  12    2.1895   369.1    5.253      20.381
2015   11        6     6  19    2.1905   368.9    5.262      20.366
2015   11        6     6  26    2.1916   368.6    5.272      20.352
2015   11        6     6  33    2.1927   368.3    5.282      20.337
2015   11        6     6  40    2.1939   368.0    5.292      20.322
2015   11        6     6  48    2.1950   367.8    5.303      20.308
2015   11        6     6  55    2.1964   367.5    5.313      20.294
2015   11        6     7   2    2.1975   367.2    5.324      20.281
2015   11        6     7   9    2.1988   366.9    5.334      20.267
2015   11        6     7  16    2.2001   366.7    5.345      20.254
2015   11        6     7  23    2.2015   366.4    5.356      20.241
2015   11        6     7  30    2.2029   366.1    5.367      20.229
2015   11        6     7  37    2.2044   365.9    5.378      20.217
2015   11        6     7  44    2.2059   365.6    5.390      20.205
2015   11        6     7  51    2.2077   365.3    5.401      20.194
2015   11        6     7  58    2.2090   365.1    5.413      20.183
2015   11        6     8   6    2.2107   364.8    5.425      20.172
2015   11        6     8  13    2.2123   364.5    5.437      20.162
2015   11        6     8  20    2.2141   364.3    5.449      20.152
2015   11        6     8  27    2.2158   364.0    5.461      20.143
2015   11        6     8  34    2.2177   363.8    5.474      20.134
2015   11        6     8  41    2.2197   363.5    5.486      20.125
2015   11        6     8  48    2.2214   363.3    5.499      20.117
2015   11        6     8  55    2.2234   363.0    5.512      20.110
2015   11        6     9   2    2.2254   362.7    5.526      20.102
2015   11        6     9   9    2.2277   362.5    5.539      20.096
2015   11        6     9  16    2.2296   362.2    5.553      20.090
2015   11        6     9  23    2.2317   362.0    5.566      20.084
2015   11        6     9  31    2.2339   361.7    5.580      20.079
2015   11        6     9  38    2.2361   361.5    5.595      20.074
2015   11        6     9  45    2.2385   361.3    5.609      20.070
2015   11        6     9  52    2.2408   361.0    5.624      20.066
2015   11        6     9  59    2.2432   360.8    5.638      20.063
2015   11        6    10   6    2.2459   360.5    5.653      20.061
2015   11        6    10  13    2.2482   360.3    5.668      20.058
2015   11        6    10  20    2.2507   360.1    5.684      20.057
2015   11        6    10  27    2.2534   359.8    5.699      20.055
2015   11        6    10  34    2.2560   359.6    5.715      20.055
2015   11        6    10  42    2.2587   359.4    5.731      20.055
2015   11        6    10  49    2.2615   359.1    5.747      20.055
2015   11        6    10  56    2.2643   358.9    5.763      20.056
2015   11        6    11   3    2.2671   358.7    5.779      20.057
2015   11        6    11  10    2.2703   358.5    5.796      20.059
2015   11        6    11  17    2.2730   358.2    5.812      20.061
2015   11        6    11  24    2.2760   358.0    5.829      20.063
2015   11        6    11  31    2.2790   357.8    5.846      20.066
2015   11        6    11  39    2.2821   357.6    5.863      20.070
2015   11        6    11  46    2.2853   357.4    5.881      20.074
2015   11        6    11  53    2.2885   357.2    5.898      20.078
2015   11        6    12   0    2.2919   356.9    5.915      20.083
2015   11        6    12   7    2.2950   356.7    5.933      20.088
2015   11        6    12  14    2.2983   356.5    5.951      20.093
2015   11        6    12  21    2.3016   356.3    5.969      20.099
2015   11        6    12  28    2.3050   356.1    5.987      20.105
2015   11        6    12  36    2.3085   355.9    6.005      20.112
2015   11        6    12  43    2.3119   355.7    6.023      20.119
2015   11        6    12  50    2.3155   355.5    6.042      20.127
2015   11        6    12  57    2.3190   355.3    6.060      20.134
2015   11        6    13   4    2.3227   355.1    6.079      20.143
2015   11        6    13  11    2.3263   354.9    6.097      20.151
2015   11        6    13  18    2.3300   354.7    6.116      20.160
2015   11        6    13  25    2.3337   354.5    6.135      20.169
2015   11        6    13  32    2.3375   354.3    6.154      20.179
2015   11        6    13  40    2.3412   354.2    6.173      20.188
2015   11        6    13  47    2.3451   354.0    6.192      20.199
2015   11        6    13  54    2.3489   353.8    6.212      20.209
2015   11        6    14   1    2.3528   353.6    6.231      20.220
2015   11        6    14   8    2.3569   353.4    6.250      20.231
2015   11        6    14  15    2.3606   353.2    6.270      20.242
2015   11        6    14  22    2.3645   353.1    6.289      20.254
2015   11        6    14  29    2.3685   352.9    6.309      20.266
2015   11        6    14  36    2.3725   352.7    6.329      20.278
2015   11        6    14  43    2.3766   352.5    6.349      20.291
2015   11        6    14  51    2.3806   352.4    6.369      20.303
2015   11        6    14  58    2.3847   352.2    6.389      20.317
2015   11        6    15   5    2.3887   352.0    6.408      20.330
2015   11        6    15  12    2.3931   351.9    6.429      20.343
2015   11        6    15  19    2.3969   351.7    6.449      20.357
2015   11        6    15  26    2.4010   351.6    6.469      20.371
2015   11        6    15  33    2.4054   351.4    6.489      20.385
2015   11        6    15  40    2.4093   351.2    6.509      20.399
2015   11        6    15  47    2.4137   351.1    6.530      20.414
2015   11        6    15  54    2.4176   350.9    6.550      20.428
2015   11        6    16   1    2.4218   350.8    6.570      20.443
2015   11        6    16   8    2.4260   350.6    6.591      20.458
2015   11        6    16  15    2.4302   350.5    6.611      20.473
2015   11        6    16  23    2.4344   350.3    6.632      20.488
2015   11        6    16  30    2.4387   350.2    6.652      20.504
2015   11        6    16  37    2.4429   350.0    6.673      20.519
2015   11        6    16  44    2.4472   349.9    6.693      20.535
2015   11        6    16  51    2.4514   349.7    6.714      20.550
2015   11        6    16  58    2.4557   349.6    6.735      20.566
2015   11        6    17   5    2.4602   349.4    6.755      20.582
2015   11        6    17  12    2.4645   349.3    6.776      20.598
2015   11        6    17  19    2.4688   349.2    6.797      20.614
2015   11        6    17  26    2.4729   349.0    6.818      20.630
2015   11        6    17  33    2.4773   348.9    6.838      20.646
2015   11        6    17  41    2.4818   348.8    6.859      20.662
2015   11        6    17  48    2.4860   348.6    6.880      20.678
2015   11        6    17  55    2.4903   348.5    6.901      20.695
2015   11        6    18   2    2.4949   348.4    6.922      20.711
2015   11        6    18   9    2.4993   348.2    6.943      20.728
2015   11        6    18  16    2.5036   348.1    6.963      20.745
2015   11        6    18  23    2.5080   348.0    6.984      20.762
2015   11        6    18  30    2.5124   347.8    7.005      20.779
2015   11        6    18  37    2.5169   347.7    7.026      20.796
2015   11        6    18  45    2.5214   347.6    7.048      20.813
2015   11        6    18  52    2.5259   347.5    7.069      20.830
2015   11        6    18  59    2.5304   347.3    7.090      20.848
2015   11        6    19   6    2.5349   347.2    7.111      20.865
2015   11        6    19  13    2.5394   347.1    7.132      20.883
2015   11        6    19  20    2.5440   347.0    7.154      20.901
2015   11        6    19  27    2.5486   346.9    7.175      20.919
2015   11        6    19  34    2.5531   346.8    7.196      20.938
2015   11        6    19  42    2.5577   346.7    7.218      20.956
2015   11        6    19  49    2.5624   346.5    7.239      20.975
2015   11        6    19  56    2.5671   346.4    7.261      20.994
2015   11        6    20   3    2.5716   346.3    7.282      21.014
2015   11        6    20  10    2.5763   346.2    7.304      21.033
2015   11        6    20  17    2.5811   346.1    7.326      21.053
2015   11        6    20  24    2.5857   346.0    7.347      21.074
2015   11        6    20  31    2.5903   345.9    7.369      21.094
2015   11        6    20  38    2.5951   345.8    7.390      21.116
2015   11        6    20  46    2.5998   345.7    7.412      21.137
2015   11        6    20  53    2.6044   345.6    7.434      21.158
2015   11        6    21   0    2.6090   345.5    7.455      21.180
2015   11        6    21   7    2.6137   345.4    7.477      21.202
2015   11        6    21  14    2.6185   345.3    7.498      21.225
2015   11        6    21  21    2.6232   345.2    7.520      21.248
2015   11        6    21  28    2.6279   345.2    7.542      21.270
2015   11        6    21  35    2.6326   345.1    7.563      21.294
2015   11        6    21  42    2.6373   345.0    7.585      21.317
2015   11        6    21  50    2.6420   344.9    7.606      21.340
2015   11        6    21  57    2.6468   344.8    7.628      21.364
2015   11        6    22   4    2.6515   344.7    7.649      21.388
2015   11        6    22  11    2.6562   344.6    7.670      21.412
2015   11        6    22  18    2.6609   344.6    7.692      21.436
2015   11        6    22  25    2.6657   344.5    7.713      21.460
2015   11        6    22  32    2.6704   344.4    7.734      21.485
2015   11        6    22  39    2.6751   344.3    7.755      21.509
2015   11        6    22  46    2.6799   344.2    7.776      21.534
2015   11        6    22  53    2.6845   344.2    7.797      21.559
2015   11        6    23   0    2.6892   344.1    7.818      21.584
2015   11        6    23   7    2.6938   344.0    7.839      21.608
2015   11        6    23  15    2.6985   343.9    7.859      21.634
2015   11        6    23  22    2.7033   343.9    7.880      21.658
2015   11        6    23  29    2.7079   343.8    7.900      21.683
2015   11        6    23  36    2.7125   343.7    7.921      21.709
2015   11        6    23  43    2.7172   343.6    7.941      21.733
2015   11        6    23  50    2.7218   343.6    7.961      21.759
2015   11        6    23  57    2.7265   343.5    7.981      21.784
2015   11        7     0   4    2.7312   343.4    8.001      21.808
2015   11        7     0  11    2.7358   343.4    8.021      21.833
2015   11        7     0  18    2.7404   343.3    8.040      21.858
2015   11        7     0  25    2.7451   343.2    8.060      21.883
2015   11        7     0  32    2.7497   343.2    8.080      21.908
2015   11        7     0  40    2.7544   343.1    8.099      21.932
2015   11        7     0  47    2.7590   343.0    8.118      21.957
2015   11        7     0  54    2.7637   343.0    8.138      21.982
2015   11        7     1   1    2.7683   342.9    8.157      22.006
2015   11        7     1   8    2.7730   342.8    8.176      22.031
2015   11        7     1  15    2.7777   342.8    8.195      22.055
2015   11        7     1  22    2.7824   342.7    8.214      22.079
2015   11        7     1  29    2.7870   342.6    8.233      22.104
2015   11        7     1  36    2.7917   342.6    8.252      22.128
2015   11        7     1  43    2.7964   342.5    8.271      22.153
2015   11        7     1  51    2.8011   342.5    8.290      22.177
2015   11        7     1  58    2.8058   342.4    8.309      22.202
2015   11        7     2   5    2.8106   342.3    8.328      22.227
2015   11        7     2  12    2.8153   342.3    8.347      22.251
2015   11        7     2  19    2.8200   342.2    8.366      22.276
2015   11        7     2  26    2.8248   342.2    8.385      22.301
2015   11        7     2  33    2.8295   342.1    8.403      22.326
2015   11        7     2  40    2.8343   342.1    8.422      22.351
2015   11        7     2  48    2.8390   342.0    8.441      22.376
2015   11        7     2  55    2.8438   341.9    8.460      22.401
2015   11        7     3   2    2.8486   341.9    8.479      22.426
2015   11        7     3   9    2.8533   341.8    8.498      22.452
2015   11        7     3  16    2.8581   341.8    8.517      22.478
2015   11        7     3  23    2.8629   341.7    8.536      22.504
2015   11        7     3  30    2.8676   341.7    8.554      22.530
2015   11        7     3  37    2.8724   341.7    8.573      22.557
2015   11        7     3  45    2.8772   341.6    8.592      22.584
2015   11        7     3  52    2.8819   341.6    8.610      22.610
2015   11        7     3  59    2.8866   341.5    8.629      22.638
2015   11        7     4   6    2.8914   341.5    8.647      22.665
2015   11        7     4  13    2.8961   341.4    8.666      22.693
2015   11        7     4  20    2.9008   341.4    8.684      22.721
2015   11        7     4  27    2.9055   341.4    8.702      22.749
2015   11        7     4  34    2.9101   341.3    8.720      22.777
2015   11        7     4  41    2.9148   341.3    8.738      22.806
2015   11        7     4  49    2.9195   341.2    8.756      22.834
2015   11        7     4  56    2.9242   341.2    8.774      22.863
2015   11        7     5   3    2.9288   341.2    8.791      22.892
2015   11        7     5  10    2.9334   341.1    8.809      22.921
2015   11        7     5  17    2.9380   341.1    8.826      22.949
2015   11        7     5  24    2.9427   341.1    8.844      22.978
2015   11        7     5  31    2.9472   341.0    8.861      23.007
2015   11        7     5  38    2.9519   341.0    8.878      23.036
2015   11        7     5  45    2.9564   341.0    8.895      23.064
2015   11        7     5  52    2.9610   340.9    8.912      23.093
2015   11        7     5  59    2.9656   340.9    8.929      23.122
2015   11        7     6   7    2.9701   340.9    8.945      23.150
2015   11        7     6  14    2.9746   340.8    8.962      23.179
2015   11        7     6  21    2.9792   340.8    8.978      23.207
2015   11        7     6  28    2.9837   340.8    8.994      23.236
2015   11        7     6  35    2.9882   340.7    9.011      23.264
2015   11        7     6  42    2.9927   340.7    9.027      23.293
2015   11        7     6  49    2.9972   340.7    9.043      23.321
2015   11        7     6  56    3.0017   340.6    9.059      23.349
2015   11        7     7   3    3.0062   340.6    9.075      23.377
2015   11        7     7  10    3.0107   340.6    9.091      23.405
2015   11        7     7  17    3.0152   340.6    9.106      23.433
2015   11        7     7  24    3.0197   340.5    9.122      23.460
2015   11        7     7  31    3.0242   340.5    9.138      23.488
2015   11        7     7  39    3.0287   340.5    9.153      23.515
2015   11        7     7  46    3.0332   340.4    9.169      23.543
2015   11        7     7  53    3.0377   340.4    9.184      23.570
2015   11        7     8   0    3.0422   340.4    9.200      23.598
2015   11        7     8   7    3.0467   340.4    9.216      23.625
2015   11        7     8  14    3.0513   340.3    9.231      23.652
2015   11        7     8  21    3.0558   340.3    9.247      23.679
2015   11        7     8  28    3.0604   340.3    9.262      23.706
2015   11        7     8  35    3.0648   340.3    9.278      23.734
2015   11        7     8  42    3.0694   340.3    9.293      23.761
2015   11        7     8  50    3.0739   340.2    9.309      23.788
2015   11        7     8  57    3.0785   340.2    9.324      23.816
2015   11        7     9   4    3.0830   340.2    9.340      23.843
2015   11        7     9  11    3.0875   340.2    9.355      23.871
2015   11        7     9  18    3.0921   340.2    9.371      23.898
2015   11        7     9  25    3.0966   340.1    9.386      23.927
2015   11        7     9  32    3.1011   340.1    9.402      23.955
2015   11        7     9  39    3.1056   340.1    9.417      23.983
2015   11        7     9  47    3.1101   340.1    9.432      24.012
2015   11        7     9  54    3.1147   340.1    9.448      24.040
2015   11        7    10   1    3.1191   340.1    9.463      24.069
2015   11        7    10   8    3.1236   340.1    9.478      24.098
2015   11        7    10  15    3.1281   340.1    9.493      24.126
2015   11        7    10  22    3.1325   340.0    9.508      24.155
2015   11        7    10  29    3.1370   340.0    9.523      24.184
2015   11        7    10  36    3.1414   340.0    9.538      24.213
2015   11        7    10  44    3.1458   340.0    9.553      24.242
2015   11        7    10  51    3.1503   340.0    9.567      24.270
2015   11        7    10  58    3.1546   340.0    9.582      24.299
2015   11        7    11   5    3.1590   340.0    9.596      24.328
2015   11        7    11  12    3.1633   340.0    9.611      24.356
2015   11        7    11  19    3.1677   340.0    9.625      24.384
2015   11        7    11  26    3.1720   340.0    9.640      24.413
2015   11        7    11  33    3.1763   340.0    9.654      24.441
2015   11        7    11  40    3.1806   340.0    9.668      24.469
2015   11        7    11  48    3.1849   340.0    9.682      24.497
2015   11        7    11  55    3.1892   340.0    9.696      24.525
2015   11        7    12   2    3.1935   340.0    9.710      24.553
2015   11        7    12   9    3.1978   340.0    9.723      24.581
2015   11        7    12  16    3.2021   340.0    9.737      24.609
2015   11        7    12  23    3.2063   340.0    9.751      24.637
2015   11        7    12  30    3.2105   340.0    9.764      24.664
2015   11        7    12  37    3.2148   340.0    9.778      24.692
2015   11        7    12  44    3.2191   340.0    9.791      24.719
2015   11        7    12  51    3.2234   340.0    9.805      24.746
2015   11        7    12  58    3.2276   340.0    9.818      24.773
2015   11        7    13   6    3.2319   340.0    9.832      24.800
2015   11        7    13  13    3.2361   340.0    9.845      24.826
2015   11        7    13  20    3.2404   340.0    9.858      24.853
2015   11        7    13  27    3.2447   340.0    9.872      24.879
2015   11        7    13  34    3.2490   340.0    9.885      24.905
2015   11        7    13  41    3.2532   340.0    9.898      24.932
2015   11        7    13  48    3.2575   340.0    9.911      24.958
2015   11        7    13  55    3.2619   340.0    9.925      24.984
2015   11        7    14   2    3.2662   340.0    9.938      25.011
2015   11        7    14   9    3.2705   340.0    9.951      25.037
2015   11        7    14  16    3.2748   340.0    9.964      25.064
2015   11        7    14  23    3.2792   340.0    9.977      25.091
2015   11        7    14  30    3.2835   340.0    9.990      25.118
2015   11        7    14  38    3.2879   340.0   10.003      25.145
2015   11        7    14  45    3.2922   340.0   10.016      25.172
2015   11        7    14  52    3.2966   340.0   10.029      25.199
2015   11        7    14  59    3.3009   340.0   10.042      25.227
2015   11        7    15   6    3.3052   340.1   10.055      25.254
2015   11        7    15  13    3.3096   340.1   10.068      25.281
2015   11        7    15  20    3.3139   340.1   10.081      25.309
2015   11        7    15  27    3.3182   340.1   10.094      25.337
2015   11        7    15  34    3.3226   340.1   10.106      25.365
2015   11        7    15  41    3.3269   340.1   10.119      25.393
2015   11        7    15  49    3.3312   340.1   10.132      25.421
2015   11        7    15  56    3.3354   340.1   10.144      25.450
2015   11        7    16   3    3.3398   340.2   10.157      25.478
2015   11        7    16  10    3.3440   340.2   10.169      25.506
2015   11        7    16  17    3.3482   340.2   10.182      25.535
2015   11        7    16  24    3.3524   340.2   10.194      25.564
2015   11        7    16  31    3.3566   340.2   10.206      25.592
2015   11        7    16  38    3.3607   340.2   10.218      25.621
2015   11        7    16  46    3.3649   340.3   10.230      25.650
2015   11        7    16  53    3.3690   340.3   10.241      25.679
2015   11        7    17   0    3.3731   340.3   10.253      25.708
2015   11        7    17   7    3.3771   340.3   10.264      25.737
2015   11        7    17  14    3.3811   340.4   10.275      25.766
2015   11        7    17  21    3.3851   340.4   10.286      25.794
2015   11        7    17  28    3.3891   340.4   10.297      25.823
2015   11        7    17  35    3.3930   340.4   10.308      25.851
2015   11        7    17  43    3.3969   340.5   10.318      25.879
2015   11        7    17  50    3.4008   340.5   10.329      25.907
2015   11        7    17  57    3.4047   340.5   10.339      25.934
2015   11        7    18   4    3.4085   340.5   10.349      25.962
2015   11        7    18  11    3.4123   340.6   10.359      25.989
2015   11        7    18  18    3.4162   340.6   10.369      26.015
2015   11        7    18  25    3.4199   340.6   10.378      26.042
2015   11        7    18  32    3.4237   340.6   10.388      26.068
2015   11        7    18  39    3.4274   340.6   10.397      26.094
2015   11        7    18  47    3.4311   340.7   10.406      26.119
2015   11        7    18  54    3.4348   340.7   10.416      26.145
2015   11        7    19   1    3.4386   340.7   10.425      26.170
2015   11        7    19   8    3.4423   340.8   10.434      26.194
2015   11        7    19  15    3.4461   340.8   10.443      26.219
2015   11        7    19  22    3.4497   340.8   10.452      26.243
2015   11        7    19  29    3.4535   340.8   10.461      26.267
2015   11        7    19  36    3.4571   340.9   10.470      26.291
2015   11        7    19  43    3.4608   340.9   10.479      26.315
2015   11        7    19  50    3.4645   340.9   10.488      26.339
2015   11        7    19  58    3.4682   340.9   10.497      26.362
2015   11        7    20   5    3.4719   341.0   10.506      26.386
2015   11        7    20  12    3.4756   341.0   10.515      26.409
2015   11        7    20  19    3.4793   341.0   10.524      26.432
2015   11        7    20  26    3.4830   341.0   10.533      26.455
2015   11        7    20  33    3.4869   341.1   10.542      26.478
2015   11        7    20  40    3.4906   341.1   10.551      26.500
2015   11        7    20  47    3.4944   341.1   10.561      26.523
2015   11        7    20  54    3.4982   341.2   10.570      26.546
2015   11        7    21   1    3.5020   341.2   10.580      26.569
2015   11        7    21   8    3.5058   341.2   10.589      26.592
2015   11        7    21  15    3.5098   341.3   10.599      26.615
2015   11        7    21  22    3.5136   341.3   10.609      26.638
2015   11        7    21  30    3.5175   341.3   10.619      26.661
2015   11        7    21  37    3.5214   341.4   10.629      26.685
2015   11        7    21  44    3.5254   341.4   10.639      26.709
2015   11        7    21  51    3.5294   341.4   10.649      26.733
2015   11        7    21  58    3.5333   341.5   10.660      26.758
2015   11        7    22   5    3.5372   341.5   10.670      26.784
2015   11        7    22  12    3.5412   341.5   10.681      26.810
2015   11        7    22  19    3.5452   341.6   10.691      26.836
2015   11        7    22  26    3.5492   341.6   10.702      26.863
2015   11        7    22  33    3.5531   341.7   10.712      26.890
2015   11        7    22  40    3.5570   341.7   10.723      26.917
2015   11        7    22  48    3.5609   341.8   10.733      26.945
2015   11        7    22  55    3.5648   341.8   10.744      26.973
2015   11        7    23   2    3.5687   341.9   10.754      27.001
2015   11        7    23   9    3.5724   341.9   10.764      27.030
2015   11        7    23  16    3.5762   342.0   10.773      27.060
2015   11        7    23  23    3.5799   342.0   10.783      27.089
2015   11        7    23  30    3.5836   342.1   10.792      27.119
2015   11        7    23  37    3.5872   342.1   10.801      27.148
2015   11        7    23  44    3.5908   342.2   10.810      27.178
2015   11        7    23  52    3.5944   342.2   10.818      27.207
2015   11        7    23  59    3.5978   342.3   10.826      27.236
2015   11        8     0   6    3.6013   342.3   10.834      27.265
2015   11        8     0  13    3.6048   342.4   10.842      27.293
2015   11        8     0  20    3.6081   342.4   10.849      27.321
2015   11        8     0  27    3.6114   342.5   10.856      27.349
2015   11        8     0  34    3.6147   342.5   10.863      27.377
2015   11        8     0  41    3.6180   342.6   10.869      27.403
2015   11        8     0  49    3.6211   342.6   10.875      27.430
2015   11        8     0  56    3.6243   342.7   10.881      27.455
2015   11        8     1   3    3.6275   342.7   10.887      27.481
2015   11        8     1  10    3.6306   342.8   10.892      27.506
2015   11        8     1  17    3.6337   342.8   10.898      27.530
2015   11        8     1  24    3.6368   342.9   10.903      27.554
2015   11        8     1  31    3.6398   343.0   10.908      27.577
2015   11        8     1  38    3.6428   343.0   10.913      27.601
2015   11        8     1  46    3.6458   343.1   10.917      27.623
2015   11        8     1  53    3.6488   343.1   10.922      27.646
2015   11        8     2   0    3.6518   343.2   10.927      27.668
2015   11        8     2   7    3.6548   343.2   10.931      27.689
2015   11        8     2  14    3.6577   343.3   10.935      27.710
2015   11        8     2  21    3.6606   343.3   10.939      27.732
2015   11        8     2  28    3.6636   343.4   10.943      27.752
2015   11        8     2  35    3.6665   343.4   10.947      27.773
2015   11        8     2  42    3.6695   343.5   10.951      27.793
2015   11        8     2  49    3.6723   343.5   10.955      27.813
2015   11        8     2  57    3.6752   343.6   10.959      27.832
2015   11        8     3   4    3.6781   343.6   10.963      27.852
2015   11        8     3  11    3.6810   343.7   10.967      27.871
2015   11        8     3  18    3.6839   343.7   10.970      27.890
2015   11        8     3  25    3.6869   343.8   10.974      27.909
2015   11        8     3  32    3.6897   343.8   10.978      27.928
2015   11        8     3  39    3.6926   343.9   10.982      27.946
2015   11        8     3  46    3.6955   343.9   10.986      27.965
2015   11        8     3  53    3.6984   344.0   10.989      27.983
2015   11        8     4   0    3.7013   344.0   10.993      28.001
2015   11        8     4   7    3.7042   344.1   10.997      28.019
2015   11        8     4  14    3.7072   344.1   11.001      28.038
2015   11        8     4  22    3.7101   344.2   11.005      28.056
2015   11        8     4  29    3.7131   344.2   11.010      28.074
2015   11        8     4  36    3.7160   344.3   11.014      28.092
2015   11        8     4  43    3.7190   344.3   11.018      28.110
2015   11        8     4  50    3.7221   344.4   11.023      28.128
2015   11        8     4  57    3.7251   344.4   11.028      28.146
2015   11        8     5   4    3.7282   344.5   11.033      28.164
2015   11        8     5  11    3.7312   344.6   11.038      28.183
2015   11        8     5  18    3.7344   344.6   11.043      28.201
2015   11        8     5  25    3.7374   344.7   11.049      28.221
2015   11        8     5  32    3.7405   344.7   11.055      28.240
2015   11        8     5  39    3.7436   344.8   11.060      28.260
2015   11        8     5  47    3.7467   344.8   11.066      28.280
2015   11        8     5  54    3.7499   344.9   11.073      28.301
2015   11        8     6   1    3.7530   344.9   11.079      28.322
2015   11        8     6   8    3.7563   345.0   11.085      28.343
2015   11        8     6  15    3.7593   345.1   11.092      28.365
2015   11        8     6  22    3.7625   345.1   11.099      28.387
2015   11        8     6  29    3.7656   345.2   11.105      28.410
2015   11        8     6  36    3.7686   345.2   11.112      28.434
2015   11        8     6  43    3.7718   345.3   11.118      28.458
2015   11        8     6  51    3.7748   345.4   11.125      28.483
2015   11        8     6  58    3.7777   345.4   11.131      28.508
2015   11        8     7   5    3.7807   345.5   11.137      28.532
2015   11        8     7  12    3.7837   345.6   11.143      28.558
2015   11        8     7  19    3.7865   345.6   11.149      28.582
2015   11        8     7  26    3.7893   345.7   11.155      28.607
2015   11        8     7  33    3.7922   345.8   11.160      28.632
2015   11        8     7  40    3.7948   345.9   11.165      28.657
2015   11        8     7  48    3.7976   345.9   11.170      28.682
2015   11        8     7  55    3.8003   346.0   11.175      28.706
2015   11        8     8   2    3.8029   346.1   11.179      28.730
2015   11        8     8   9    3.8054   346.1   11.183      28.754
2015   11        8     8  16    3.8079   346.2   11.187      28.778
2015   11        8     8  23    3.8105   346.3   11.191      28.801
2015   11        8     8  30    3.8130   346.3   11.195      28.824
2015   11        8     8  37    3.8154   346.4   11.198      28.846
2015   11        8     8  44    3.8178   346.5   11.201      28.868
2015   11        8     8  52    3.8202   346.6   11.204      28.890
2015   11        8     8  59    3.8226   346.6   11.207      28.912
2015   11        8     9   6    3.8249   346.7   11.209      28.933
2015   11        8     9  13    3.8272   346.8   11.212      28.954
2015   11        8     9  20    3.8295   346.8   11.214      28.974
2015   11        8     9  27    3.8317   346.9   11.216      28.995
2015   11        8     9  34    3.8340   347.0   11.218      29.015
2015   11        8     9  41    3.8362   347.0   11.220      29.035
2015   11        8     9  48    3.8384   347.1   11.221      29.054
2015   11        8     9  56    3.8406   347.2   11.223      29.073
2015   11        8    10   3    3.8428   347.2   11.224      29.092
2015   11        8    10  10    3.8450   347.3   11.226      29.110
2015   11        8    10  17    3.8472   347.4   11.227      29.128
2015   11        8    10  24    3.8493   347.4   11.228      29.146
2015   11        8    10  31    3.8515   347.5   11.230      29.164
2015   11        8    10  38    3.8537   347.6   11.231      29.181
2015   11        8    10  45    3.8559   347.6   11.232      29.198
2015   11        8    10  52    3.8580   347.7   11.233      29.215
2015   11        8    10  59    3.8601   347.8   11.234      29.232
2015   11        8    11   6    3.8622   347.8   11.235      29.248
2015   11        8    11  14    3.8644   347.9   11.235      29.264
2015   11        8    11  21    3.8666   348.0   11.236      29.280
2015   11        8    11  28    3.8686   348.0   11.237      29.296
2015   11        8    11  35    3.8708   348.1   11.238      29.312
2015   11        8    11  42    3.8730   348.2   11.239      29.328
2015   11        8    11  49    3.8750   348.2   11.240      29.344
2015   11        8    11  56    3.8772   348.3   11.241      29.359
2015   11        8    12   3    3.8794   348.3   11.242      29.375
2015   11        8    12  10    3.8816   348.4   11.243      29.390
2015   11        8    12  17    3.8838   348.5   11.245      29.406
2015   11        8    12  24    3.8859   348.5   11.246      29.422
2015   11        8    12  31    3.8881   348.6   11.247      29.437
2015   11        8    12  38    3.8902   348.7   11.249      29.453
2015   11        8    12  46    3.8925   348.7   11.250      29.468
2015   11        8    12  53    3.8947   348.8   11.252      29.484
2015   11        8    13   0    3.8970   348.9   11.254      29.499
2015   11        8    13   7    3.8992   348.9   11.256      29.515
2015   11        8    13  14    3.9014   349.0   11.258      29.531
2015   11        8    13  21    3.9038   349.0   11.260      29.547
2015   11        8    13  28    3.9060   349.1   11.262      29.563
2015   11        8    13  35    3.9082   349.2   11.265      29.579
2015   11        8    13  42    3.9106   349.2   11.267      29.595
2015   11        8    13  50    3.9129   349.3   11.270      29.612
2015   11        8    13  57    3.9151   349.4   11.273      29.629
2015   11        8    14   4    3.9175   349.4   11.276      29.647
2015   11        8    14  11    3.9198   349.5   11.279      29.664
2015   11        8    14  18    3.9221   349.6   11.282      29.682
2015   11        8    14  25    3.9244   349.6   11.285      29.701
2015   11        8    14  32    3.9266   349.7   11.289      29.719
2015   11        8    14  39    3.9289   349.8   11.292      29.738
2015   11        8    14  46    3.9312   349.8   11.295      29.757
2015   11        8    14  54    3.9334   349.9   11.298      29.776
2015   11        8    15   1    3.9356   350.0   11.301      29.795
2015   11        8    15   8    3.9378   350.0   11.304      29.814
2015   11        8    15  15    3.9400   350.1   11.307      29.834
2015   11        8    15  22    3.9422   350.2   11.310      29.853
2015   11        8    15  29    3.9443   350.3   11.313      29.872
2015   11        8    15  36    3.9464   350.3   11.315      29.892
2015   11        8    15  43    3.9485   350.4   11.318      29.910
2015   11        8    15  51    3.9505   350.5   11.320      29.929
2015   11        8    15  58    3.9525   350.6   11.322      29.948
2015   11        8    16   5    3.9545   350.6   11.324      29.966
2015   11        8    16  12    3.9565   350.7   11.325      29.984
2015   11        8    16  19    3.9584   350.8   11.326      30.002
2015   11        8    16  26    3.9603   350.9   11.328      30.019
2015   11        8    16  33    3.9621   350.9   11.329      30.037
2015   11        8    16  40    3.9641   351.0   11.329      30.053
2015   11        8    16  47    3.9659   351.1   11.330      30.070
2015   11        8    16  55    3.9677   351.2   11.330      30.087
2015   11        8    17   2    3.9695   351.2   11.331      30.102
2015   11        8    17   9    3.9713   351.3   11.331      30.118
2015   11        8    17  16    3.9731   351.4   11.331      30.134
2015   11        8    17  23    3.9748   351.5   11.331      30.149
2015   11        8    17  30    3.9766   351.5   11.330      30.164
2015   11        8    17  37    3.9783   351.6   11.330      30.178
2015   11        8    17  44    3.9800   351.7   11.330      30.193
2015   11        8    17  51    3.9817   351.8   11.329      30.207
2015   11        8    17  58    3.9834   351.8   11.328      30.221
2015   11        8    18   5    3.9851   351.9   11.328      30.234
2015   11        8    18  13    3.9868   352.0   11.327      30.247
2015   11        8    18  20    3.9884   352.0   11.326      30.261
2015   11        8    18  27    3.9901   352.1   11.325      30.273
2015   11        8    18  34    3.9918   352.2   11.324      30.286
2015   11        8    18  41    3.9934   352.3   11.323      30.299
2015   11        8    18  48    3.9951   352.3   11.322      30.311
2015   11        8    18  55    3.9968   352.4   11.321      30.323
2015   11        8    19   2    3.9985   352.5   11.320      30.335
2015   11        8    19   9    4.0001   352.5   11.319      30.348
2015   11        8    19  16    4.0018   352.6   11.318      30.360
2015   11        8    19  23    4.0035   352.7   11.317      30.371
2015   11        8    19  30    4.0051   352.7   11.316      30.383
2015   11        8    19  38    4.0068   352.8   11.315      30.395
2015   11        8    19  45    4.0085   352.9   11.314      30.406
2015   11        8    19  52    4.0102   353.0   11.313      30.418
2015   11        8    19  59    4.0118   353.0   11.312      30.429
2015   11        8    20   6    4.0135   353.1   11.310      30.440
2015   11        8    20  13    4.0152   353.2   11.309      30.452
2015   11        8    20  20    4.0169   353.2   11.308      30.463
2015   11        8    20  27    4.0186   353.3   11.307      30.474
2015   11        8    20  34    4.0203   353.4   11.306      30.485
2015   11        8    20  41    4.0220   353.4   11.305      30.495
2015   11        8    20  48    4.0237   353.5   11.304      30.506
2015   11        8    20  56    4.0254   353.6   11.303      30.517
2015   11        8    21   3    4.0271   353.6   11.302      30.528
2015   11        8    21  10    4.0289   353.7   11.302      30.538
2015   11        8    21  17    4.0306   353.8   11.301      30.549
2015   11        8    21  24    4.0324   353.8   11.300      30.560
2015   11        8    21  31    4.0341   353.9   11.300      30.570
2015   11        8    21  38    4.0359   354.0   11.299      30.581
2015   11        8    21  45    4.0377   354.0   11.298      30.592
2015   11        8    21  53    4.0395   354.1   11.298      30.604
2015   11        8    22   0    4.0413   354.2   11.297      30.615
2015   11        8    22   7    4.0431   354.2   11.297      30.627
2015   11        8    22  14    4.0449   354.3   11.296      30.639
2015   11        8    22  21    4.0466   354.4   11.296      30.651
2015   11        8    22  28    4.0484   354.4   11.295      30.663
2015   11        8    22  35    4.0502   354.5   11.294      30.674
2015   11        8    22  42    4.0520   354.6   11.293      30.686
2015   11        8    22  50    4.0537   354.7   11.292      30.698
2015   11        8    22  57    4.0555   354.7   11.291      30.710
2015   11        8    23   4    4.0573   354.8   11.290      30.721
2015   11        8    23  11    4.0590   354.9   11.289      30.732
2015   11        8    23  18    4.0607   354.9   11.287      30.744
2015   11        8    23  25    4.0624   355.0   11.286      30.755
2015   11        8    23  32    4.0641   355.1   11.284      30.765
2015   11        8    23  39    4.0658   355.1   11.282      30.776
2015   11        8    23  46    4.0675   355.2   11.280      30.785
2015   11        8    23  54    4.0691   355.3   11.278      30.795
2015   11        9     0   1    4.0708   355.4   11.276      30.805
2015   11        9     0   8    4.0724   355.4   11.274      30.814
2015   11        9     0  15    4.0740   355.5   11.271      30.823
2015   11        9     0  22    4.0757   355.6   11.269      30.832
2015   11        9     0  29    4.0773   355.6   11.266      30.840
2015   11        9     0  36    4.0789   355.7   11.263      30.848
2015   11        9     0  43    4.0805   355.8   11.260      30.856
2015   11        9     0  50    4.0820   355.8   11.258      30.864
2015   11        9     0  57    4.0837   355.9   11.255      30.872
2015   11        9     1   5    4.0852   356.0   11.252      30.879
2015   11        9     1  12    4.0868   356.0   11.249      30.887
2015   11        9     1  19    4.0884   356.1   11.246      30.894
2015   11        9     1  26    4.0900   356.2   11.243      30.901
2015   11        9     1  33    4.0916   356.3   11.239      30.908
2015   11        9     1  40    4.0931   356.3   11.236      30.915
2015   11        9     1  47    4.0947   356.4   11.233      30.921
2015   11        9     1  54    4.0963   356.5   11.230      30.928
2015   11        9     2   1    4.0979   356.5   11.227      30.934
2015   11        9     2   8    4.0995   356.6   11.224      30.941
2015   11        9     2  15    4.1011   356.7   11.221      30.947
2015   11        9     2  22    4.1027   356.7   11.218      30.954
2015   11        9     2  29    4.1043   356.8   11.215      30.960
2015   11        9     2  37    4.1060   356.9   11.211      30.966
2015   11        9     2  44    4.1076   356.9   11.208      30.972
2015   11        9     2  51    4.1093   357.0   11.205      30.979
2015   11        9     2  58    4.1109   357.1   11.202      30.985
2015   11        9     3   5    4.1125   357.1   11.199      30.991
2015   11        9     3  12    4.1143   357.2   11.197      30.997
2015   11        9     3  19    4.1159   357.3   11.194      31.003
2015   11        9     3  26    4.1177   357.3   11.191      31.009
2015   11        9     3  33    4.1194   357.4   11.188      31.015
2015   11        9     3  40    4.1211   357.5   11.186      31.021
2015   11        9     3  47    4.1229   357.5   11.183      31.027
2015   11        9     3  55    4.1246   357.6   11.181      31.034
2015   11        9     4   2    4.1264   357.7   11.178      31.040
2015   11        9     4   9    4.1283   357.7   11.176      31.047
2015   11        9     4  16    4.1301   357.8   11.174      31.053
2015   11        9     4  23    4.1319   357.9   11.172      31.059
2015   11        9     4  30    4.1338   357.9   11.170      31.066
2015   11        9     4  37    4.1357   358.0   11.168      31.073
2015   11        9     4  44    4.1376   358.1   11.166      31.080
2015   11        9     4  51    4.1396   358.1   11.165      31.087
2015   11        9     4  59    4.1415   358.2   11.163      31.095
2015   11        9     5   6    4.1435   358.3   11.162      31.103
2015   11        9     5  13    4.1455   358.3   11.161      31.111
2015   11        9     5  20    4.1475   358.4   11.159      31.119
2015   11        9     5  27    4.1495   358.4   11.158      31.127
2015   11        9     5  34    4.1515   358.5   11.157      31.136
2015   11        9     5  41    4.1535   358.6   11.156      31.144
2015   11        9     5  48    4.1556   358.6   11.155      31.153
2015   11        9     5  56    4.1577   358.7   11.154      31.162
2015   11        9     6   3    4.1597   358.8   11.154      31.171
2015   11        9     6  10    4.1618   358.8   11.153      31.180
2015   11        9     6  17    4.1640   358.9   11.152      31.190
2015   11        9     6  24    4.1661   359.0   11.152      31.199
2015   11        9     6  31    4.1682   359.0   11.151      31.209
2015   11        9     6  38    4.1704   359.1   11.151      31.218
2015   11        9     6  45    4.1726   359.2   11.150      31.228
2015   11        9     6  53    4.1748   359.2   11.150      31.237
2015   11        9     7   0    4.1770   359.3   11.149      31.247
2015   11        9     7   7    4.1792   359.4   11.149      31.257
2015   11        9     7  14    4.1815   359.4   11.149      31.266
2015   11        9     7  21    4.1838   359.5   11.149      31.276
2015   11        9     7  28    4.1861   359.5   11.148      31.286
2015   11        9     7  35    4.1884   359.6   11.148      31.296
2015   11        9     7  42    4.1907   359.7   11.148      31.306
2015   11        9     7  49    4.1931   359.7   11.148      31.316
2015   11        9     7  56    4.1955   359.8   11.148      31.326
2015   11        9     8   4    4.1978   359.8   11.148      31.336
2015   11        9     8  11    4.2002   359.9   11.148      31.346
2015   11        9     8  18    4.2027   360.0   11.148      31.356
2015   11        9     8  25    4.2051   360.0   11.149      31.366
2015   11        9     8  32    4.2076   360.1   11.149      31.376
2015   11        9     8  39    4.2100   360.1   11.149      31.387
2015   11        9     8  46    4.2125   360.2   11.149      31.397
2015   11        9     8  53    4.2151   360.3   11.150      31.408
2015   11        9     9   0    4.2176   360.3   11.150      31.418
2015   11        9     9   7    4.2202   360.4   11.151      31.429
2015   11        9     9  14    4.2228   360.4   11.151      31.440
2015   11        9     9  21    4.2254   360.5   11.152      31.451
2015   11        9     9  29    4.2280   360.6   11.153      31.462
2015   11        9     9  36    4.2306   360.6   11.153      31.474
2015   11        9     9  43    4.2333   360.7   11.154      31.485
2015   11        9     9  50    4.2360   360.7   11.155      31.497
2015   11        9     9  57    4.2389   360.8   11.157      31.508
2015   11        9    10   4    4.2416   360.9   11.158      31.520
2015   11        9    10  11    4.2445   360.9   11.159      31.532
2015   11        9    10  18    4.2473   361.0   11.161      31.545
2015   11        9    10  25    4.2502   361.1   11.162      31.557
2015   11        9    10  32    4.2532   361.1   11.164      31.570
2015   11        9    10  39    4.2562   361.2   11.166      31.583
2015   11        9    10  46    4.2592   361.2   11.168      31.596
2015   11        9    10  54    4.2624   361.3   11.171      31.610
2015   11        9    11   1    4.2656   361.4   11.173      31.624
2015   11        9    11   8    4.2688   361.4   11.176      31.638
2015   11        9    11  15    4.2722   361.5   11.179      31.652
2015   11        9    11  22    4.2755   361.6   11.182      31.667
2015   11        9    11  29    4.2790   361.6   11.186      31.682
2015   11        9    11  36    4.2826   361.7   11.190      31.698
2015   11        9    11  43    4.2862   361.7   11.194      31.714
2015   11        9    11  50    4.2900   361.8   11.198      31.730
2015   11        9    11  57    4.2938   361.9   11.203      31.747
2015   11        9    12   5    4.2978   361.9   11.208      31.764
2015   11        9    12  12    4.3019   362.0   11.213      31.782
2015   11        9    12  19    4.3060   362.1   11.219      31.800
2015   11        9    12  26    4.3103   362.1   11.225      31.819
2015   11        9    12  33    4.3147   362.2   11.232      31.838
2015   11        9    12  40    4.3192   362.3   11.238      31.858
2015   11        9    12  47    4.3239   362.4   11.246      31.878
2015   11        9    12  54    4.3286   362.4   11.253      31.899
2015   11        9    13   2    4.3334   362.5   11.261      31.921
2015   11        9    13   9    4.3383   362.6   11.269      31.943
2015   11        9    13  16    4.3433   362.6   11.278      31.966
2015   11        9    13  23    4.3484   362.7   11.286      31.990
2015   11        9    13  30    4.3536   362.8   11.295      32.014
2015   11        9    13  37    4.3587   362.9   11.304      32.039
2015   11        9    13  44    4.3640   363.0   11.314      32.065
2015   11        9    13  51    4.3692   363.0   11.323      32.091
2015   11        9    13  59    4.3745   363.1   11.332      32.118
2015   11        9    14   6    4.3798   363.2   11.341      32.145
2015   11        9    14  13    4.3851   363.3   11.351      32.174
2015   11        9    14  20    4.3904   363.3   11.360      32.202
2015   11        9    14  27    4.3957   363.4   11.369      32.231
2015   11        9    14  34    4.4010   363.5   11.378      32.259
2015   11        9    14  41    4.4063   363.6   11.387      32.288
2015   11        9    14  48    4.4118   363.7   11.395      32.317
2015   11        9    14  55    4.4169   363.7   11.404      32.346
2015   11        9    15   3    4.4221   363.8   11.412      32.375
2015   11        9    15  10    4.4277   363.9   11.420      32.404
2015   11        9    15  17    4.4327   363.9   11.429      32.432
2015   11        9    15  24    4.4380   364.0   11.437      32.461
2015   11        9    15  31    4.4433   364.1   11.444      32.489
2015   11        9    15  38    4.4486   364.1   11.452      32.516
2015   11        9    15  45    4.4540   364.2   11.460      32.544
2015   11        9    15  52    4.4594   364.3   11.468      32.571
2015   11        9    15  59    4.4648   364.3   11.475      32.597
2015   11        9    16   6    4.4703   364.4   11.483      32.624
2015   11        9    16  13    4.4759   364.5   11.491      32.650
2015   11        9    16  21    4.4815   364.5   11.499      32.676
2015   11        9    16  28    4.4871   364.6   11.507      32.702
2015   11        9    16  35    4.4929   364.6   11.515      32.728
2015   11        9    16  42    4.4987   364.7   11.523      32.754
2015   11        9    16  49    4.5047   364.8   11.531      32.780
2015   11        9    16  56    4.5107   364.8   11.540      32.806
2015   11        9    17   3    4.5169   364.9   11.549      32.831
2015   11        9    17  10    4.5236   364.9   11.558      32.857
2015   11        9    17  17    4.5301   365.0   11.568      32.883
2015   11        9    17  24    4.5363   365.0   11.577      32.909
2015   11        9    17  31    4.5432   365.1   11.588      32.936
2015   11        9    17  38    4.5503   365.1   11.599      32.963
2015   11        9    17  45    4.5576   365.2   11.610      32.990
2015   11        9    17  53    4.5650   365.2   11.622      33.017
2015   11        9    18   0    4.5728   365.3   11.634      33.046
2015   11        9    18   7    4.5813   365.4   11.648      33.075
2015   11        9    18  14    4.5897   365.4   11.662      33.104
2015   11        9    18  21    4.5977   365.5   11.677      33.135
2015   11        9    18  28    4.6067   365.5   11.692      33.166
2015   11        9    18  35    4.6159   365.6   11.709      33.198
2015   11        9    18  42    4.6255   365.7   11.727      33.232
2015   11        9    18  49    4.6353   365.7   11.745      33.266
2015   11        9    18  56    4.6457   365.8   11.765      33.302
2015   11        9    19   4    4.6562   365.9   11.786      33.338
2015   11        9    19  11    4.6671   366.0   11.808      33.376
2015   11        9    19  18    4.6783   366.1   11.831      33.416
2015   11        9    19  25    4.6898   366.1   11.855      33.457
2015   11        9    19  32    4.7015   366.2   11.880      33.501
2015   11        9    19  39    4.7136   366.3   11.907      33.547
2015   11        9    19  46    4.7259   366.4   11.934      33.596
2015   11        9    19  53    4.7385   366.5   11.962      33.648
2015   11        9    20   1    4.7511   366.6   11.991      33.702
2015   11        9    20   8    4.7641   366.7   12.020      33.759
2015   11        9    20  15    4.7770   366.9   12.050      33.818
2015   11        9    20  22    4.7901   367.0   12.081      33.878
2015   11        9    20  29    4.8032   367.1   12.113      33.941
2015   11        9    20  36    4.8164   367.2   12.144      34.005
2015   11        9    20  43    4.8294   367.4   12.176      34.072
2015   11        9    20  50    4.8426   367.5   12.208      34.142
2015   11        9    20  58    4.8556   367.6   12.240      34.214
2015   11        9    21   5    4.8687   367.8   12.271      34.289
2015   11        9    21  12    4.8815   367.9   12.302      34.367
2015   11        9    21  19    4.8943   368.1   12.333      34.448
2015   11        9    21  26    4.9070   368.2   12.363      34.531
2015   11        9    21  33    4.9196   368.4   12.393      34.617
2015   11        9    21  40    4.9320   368.5   12.422      34.705
2015   11        9    21  47    4.9444   368.7   12.450      34.794
2015   11        9    21  54    4.9572   368.9   12.477      34.885
2015   11        9    22   2    4.9688   369.1   12.504      34.978
2015   11        9    22   9    4.9808   369.2   12.530      35.073
2015   11        9    22  16    4.9928   369.4   12.555      35.168
2015   11        9    22  23    5.0047   369.6   12.579      35.264
2015   11        9    22  30    5.0172   369.8   12.603      35.362
2015   11        9    22  37    5.0284   370.0   12.626      35.459
2015   11        9    22  44    5.0403   370.1   12.649      35.557
2015   11        9    22  51    5.0521   370.3   12.671      35.654
2015   11        9    22  58    5.0646   370.5   12.693      35.751
2015   11        9    23   5    5.0759   370.7   12.714      35.847
2015   11        9    23  12    5.0879   370.9   12.736      35.944
2015   11        9    23  20    5.0999   371.1   12.757      36.041
2015   11        9    23  27    5.1120   371.3   12.779      36.138
2015   11        9    23  34    5.1242   371.5   12.800      36.234
2015   11        9    23  41    5.1365   371.7   12.822      36.332
2015   11        9    23  48    5.1490   371.9   12.844      36.429
2015   11        9    23  55    5.1623   372.1   12.866      36.528
2015   11       10     0   2    5.1745   372.3   12.888      36.627
2015   11       10     0   9    5.1877   372.5   12.912      36.728
2015   11       10     0  16    5.2010   372.7   12.935      36.829
2015   11       10     0  23    5.2153   373.0   12.960      36.933
2015   11       10     0  30    5.2287   373.2   12.986      37.038
2015   11       10     0  37    5.2437   373.4   13.013      37.146
2015   11       10     0  44    5.2578   373.7   13.041      37.257
2015   11       10     0  52    5.2731   373.9   13.070      37.370
2015   11       10     0  59    5.2888   374.2   13.102      37.487
2015   11       10     1   6    5.3050   374.4   13.135      37.607
2015   11       10     1  13    5.3217   374.7   13.170      37.730
2015   11       10     1  20    5.3389   375.0   13.208      37.858
2015   11       10     1  27    5.3566   375.3   13.247      37.992
2015   11       10     1  34    5.3749   375.6   13.288      38.133
2015   11       10     1  41    5.3936   375.9   13.332      38.279
2015   11       10     1  48    5.4136   376.2   13.377      38.431
2015   11       10     1  55    5.4326   376.5   13.425      38.587
2015   11       10     2   3    5.4529   376.9   13.475      38.748
2015   11       10     2  10    5.4733   377.2   13.526      38.914
2015   11       10     2  17    5.4942   377.6   13.579      39.088
2015   11       10     2  24    5.5149   377.9   13.633      39.268
2015   11       10     2  31    5.5361   378.3   13.687      39.455
2015   11       10     2  38    5.5570   378.7   13.741      39.646
2015   11       10     2  45    5.5782   379.1   13.795      39.842
2015   11       10     2  52    5.5990   379.4   13.848      40.039
2015   11       10     2  59    5.6199   379.8   13.900      40.238
2015   11       10     3   7    5.6404   380.2   13.951      40.437
2015   11       10     3  14    5.6608   380.6   14.000      40.639
2015   11       10     3  21    5.6808   381.0   14.047      40.840
2015   11       10     3  28    5.7007   381.4   14.093      41.043
2015   11       10     3  35    5.7201   381.8   14.136      41.243
2015   11       10     3  42    5.7393   382.1   14.178      41.440
2015   11       10     3  49    5.7581   382.5   14.217      41.633
2015   11       10     3  56    5.7773   382.9   14.255      41.825
2015   11       10     4   4    5.7954   383.2   14.291      42.015
2015   11       10     4  11    5.8133   383.6   14.324      42.203
2015   11       10     4  18    5.8304   384.0   14.356      42.390
2015   11       10     4  25    5.8478   384.3   14.386      42.576
2015   11       10     4  32    5.8649   384.7   14.414      42.761
2015   11       10     4  39    5.8818   385.1   14.441      42.947
2015   11       10     4  46    5.8984   385.5   14.466      43.131
2015   11       10     4  53    5.9149   385.8   14.489      43.316
2015   11       10     5   0    5.9315   386.2   14.510      43.499
2015   11       10     5   8    5.9472   386.6   14.530      43.683
2015   11       10     5  15    5.9630   387.0   14.548      43.867
2015   11       10     5  22    5.9789   387.4   14.565      44.051
2015   11       10     5  29    5.9945   387.7   14.581      44.235
2015   11       10     5  36    6.0100   388.1   14.595      44.418
2015   11       10     5  43    6.0254   388.5   14.609      44.601
2015   11       10     5  50    6.0408   388.9   14.621      44.783
2015   11       10     5  57    6.0560   389.3   14.632      44.964
2015   11       10     6   4    6.0712   389.7   14.643      45.145
2015   11       10     6  11    6.0866   390.1   14.653      45.324
2015   11       10     6  19    6.1017   390.6   14.663      45.503
2015   11       10     6  26    6.1166   391.0   14.672      45.680
2015   11       10     6  33    6.1316   391.4   14.681      45.857
2015   11       10     6  40    6.1461   391.8   14.690      46.032
2015   11       10     6  47    6.1613   392.2   14.698      46.208
2015   11       10     6  54    6.1759   392.7   14.707      46.382
2015   11       10     7   1    6.1909   393.1   14.716      46.557
2015   11       10     7   8    6.2055   393.5   14.725      46.731
2015   11       10     7  15    6.2204   393.9   14.734      46.906
2015   11       10     7  22    6.2352   394.4   14.745      47.080
2015   11       10     7  29    6.2500   394.8   14.755      47.256
2015   11       10     7  36    6.2649   395.3   14.767      47.432
2015   11       10     7  43    6.2799   395.7   14.780      47.610
2015   11       10     7  51    6.2947   396.2   14.794      47.789
2015   11       10     7  58    6.3101   396.6   14.811      47.970
2015   11       10     8   5    6.3254   397.1   14.829      48.153
2015   11       10     8  12    6.3406   397.6   14.849      48.341
2015   11       10     8  19    6.3564   398.0   14.872      48.531
2015   11       10     8  26    6.3730   398.5   14.898      48.727
2015   11       10     8  33    6.3896   399.0   14.929      48.925
2015   11       10     8  40    6.4065   399.5   14.963      49.131
2015   11       10     8  47    6.4241   400.0   15.001      49.346
2015   11       10     8  54    6.4421   400.5   15.043      49.575
2015   11       10     9   2    6.4608   401.1   15.088      49.816
2015   11       10     9   9    6.4801   401.7   15.137      50.070
2015   11       10     9  16    6.4999   402.2   15.191      50.332
2015   11       10     9  23    6.5202   402.8   15.248      50.605
2015   11       10     9  30    6.5410   403.4   15.308      50.888
2015   11       10     9  37    6.5616   404.1   15.370      51.192
2015   11       10     9  44    6.5837   404.7   15.433      51.512
2015   11       10     9  51    6.6046   405.4   15.495      51.850
2015   11       10     9  58    6.6268   406.2   15.555      52.202
2015   11       10    10   6    6.6482   406.9   15.612      52.566
2015   11       10    10  13    6.6691   407.6   15.666      52.934
2015   11       10    10  20    6.6889   408.4   15.717      53.306
2015   11       10    10  27    6.7092   409.2   15.763      53.677
2015   11       10    10  34    6.7283   409.9   15.804      54.051
2015   11       10    10  41    6.7466   410.7   15.839      54.425
2015   11       10    10  48    6.7644   411.5   15.868      54.804
2015   11       10    10  55    6.7813   412.3   15.891      55.177
2015   11       10    11   3    6.7975   413.0   15.910      55.545
2015   11       10    11  10    6.8130   413.8   15.923      55.905
2015   11       10    11  17    6.8280   414.6   15.933      56.261
2015   11       10    11  24    6.8424   415.3   15.938      56.612
2015   11       10    11  31    6.8565   416.0   15.939      56.960
2015   11       10    11  38    6.8702   416.8   15.938      57.304
2015   11       10    11  45    6.8836   417.5   15.933      57.646
2015   11       10    11  52    6.8971   418.2   15.927      57.986
2015   11       10    11  59    6.9103   418.9   15.918      58.325
2015   11       10    12   7    6.9234   419.7   15.907      58.663
2015   11       10    12  14    6.9366   420.4   15.894      59.000
2015   11       10    12  21    6.9497   421.1   15.879      59.336
2015   11       10    12  28    6.9628   421.9   15.863      59.672
2015   11       10    12  35    6.9757   422.6   15.845      60.005
2015   11       10    12  42    6.9887   423.3   15.826      60.337
2015   11       10    12  49    7.0018   424.1   15.805      60.667
2015   11       10    12  56    7.0145   424.9   15.783      60.995
2015   11       10    13   3    7.0271   425.6   15.760      61.319
2015   11       10    13  10    7.0398   426.4   15.735      61.641
2015   11       10    13  18    7.0526   427.2   15.709      61.957
2015   11       10    13  25    7.0650   428.0   15.682      62.270
2015   11       10    13  32    7.0771   428.8   15.653      62.576
2015   11       10    13  39    7.0889   429.6   15.623      62.880
2015   11       10    13  46    7.1005   430.5   15.592      63.178
2015   11       10    13  53    7.1118   431.3   15.559      63.475
2015   11       10    14   0    7.1227   432.2   15.524      63.765
2015   11       10    14   7    7.1331   433.1   15.487      64.052
2015   11       10    14  14    7.1428   434.0   15.446      64.334
2015   11       10    14  21    7.1517   435.0   15.403      64.606
2015   11       10    14  28    7.1596   435.9   15.357      64.866
2015   11       10    14  35    7.1672   436.8   15.309      65.119
2015   11       10    14  43    7.1734   437.8   15.259      65.365
2015   11       10    14  50    7.1793   438.8   15.207      65.605
2015   11       10    14  57    7.1837   439.7   15.152      65.842
2015   11       10    15   4    7.1882   440.8   15.094      66.082
2015   11       10    15  11    7.1911   441.8   15.033      66.311
2015   11       10    15  18    7.1927   442.7   14.970      66.523
2015   11       10    15  25    7.1927   443.6   14.906      66.720
2015   11       10    15  32    7.1925   444.5   14.843      66.903
2015   11       10    15  39    7.1930   445.4   14.783      67.073
2015   11       10    15  46    7.1924   446.2   14.726      67.234
2015   11       10    15  53    7.1920   446.9   14.673      67.394
2015   11       10    16   0    7.1919   447.7   14.625      67.559
2015   11       10    16   8    7.1911   448.4   14.583      67.729
2015   11       10    16  15    7.1918   449.1   14.545      67.909
2015   11       10    16  22    7.1936   449.8   14.514      68.099
2015   11       10    16  29    7.1960   450.5   14.491      68.304
2015   11       10    16  36    7.2013   451.1   14.476      68.522
2015   11       10    16  43    7.2049   451.8   14.468      68.762
2015   11       10    16  50    7.2115   452.5   14.466      69.027
2015   11       10    16  57    7.2190   453.2   14.469      69.326
2015   11       10    17   4    7.2274   454.0   14.476      69.654
2015   11       10    17  12    7.2363   454.7   14.484      70.014
2015   11       10    17  19    7.2459   455.6   14.494      70.404
2015   11       10    17  26    7.2558   456.5   14.504      70.831
2015   11       10    17  33    7.2678   457.4   14.513      71.283
2015   11       10    17  40    7.2783   458.4   14.522      71.757
2015   11       10    17  47    7.2890   459.4   14.528      72.243
2015   11       10    17  54    7.2981   460.4   14.532      72.740
2015   11       10    18   1    7.3103   461.5   14.532      73.249
2015   11       10    18   9    7.3206   462.5   14.527      73.763
2015   11       10    18  16    7.3305   463.6   14.519      74.272
2015   11       10    18  23    7.3384   464.7   14.507      74.778
2015   11       10    18  30    7.3475   465.8   14.493      75.277
2015   11       10    18  37    7.3578   466.9   14.474      75.774
2015   11       10    18  44    7.3647   468.0   14.452      76.257
2015   11       10    18  51    7.3726   469.2   14.426      76.729
2015   11       10    18  58    7.3816   470.3   14.397      77.192
2015   11       10    19   6    7.3887   471.4   14.365      77.647
2015   11       10    19  13    7.3936   472.5   14.329      78.091
2015   11       10    19  20    7.4008   473.7   14.289      78.525
2015   11       10    19  27    7.4057   474.9   14.246      78.946
2015   11       10    19  34    7.4080   476.1   14.197      79.359
2015   11       10    19  41    7.4109   477.3   14.142      79.764
2015   11       10    19  48    7.4124   478.6   14.080      80.146
2015   11       10    19  55    7.4125   479.9   14.013      80.507
2015   11       10    20   2    7.4132   481.1   13.940      80.853
2015   11       10    20   9    7.4110   482.4   13.862      81.184
2015   11       10    20  17    7.4071   483.7   13.777      81.493
2015   11       10    20  24    7.4018   485.0   13.686      81.774
2015   11       10    20  31    7.3923   486.3   13.589      82.031
2015   11       10    20  38    7.3860   487.6   13.483      82.276
2015   11       10    20  45    7.3749   489.0   13.368      82.480
2015   11       10    20  52    7.3619   490.3   13.246      82.630
2015   11       10    20  59    7.3441   491.5   13.120      82.733
2015   11       10    21   6    7.3278   492.7   12.991      82.805
2015   11       10    21  13    7.3125   493.9   12.859      82.853
2015   11       10    21  20    7.2938   495.1   12.726      82.874
2015   11       10    21  27    7.2737   496.4   12.590      82.883
2015   11       10    21  34    7.2532   497.6   12.453      82.879
2015   11       10    21  42    7.2312   498.9   12.316      82.860
2015   11       10    21  49    7.2064   500.1   12.179      82.836
2015   11       10    21  56    7.1860   501.4   12.044      82.802
2015   11       10    22   3    7.1630   502.6   11.913      82.763
2015   11       10    22  10    7.1396   503.9   11.784      82.749
2015   11       10    22  17    7.1139   505.3   11.656      82.766
2015   11       10    22  24    7.0929   506.7   11.528      82.811
2015   11       10    22  31    7.0689   508.2   11.401      82.851
2015   11       10    22  38    7.0414   509.6   11.273      82.888
2015   11       10    22  45    7.0190   511.0   11.149      82.920
2015   11       10    22  52    6.9935   512.4   11.027      82.943
2015   11       10    22  59    6.9685   513.7   10.909      82.959
2015   11       10    23   7    6.9434   514.9   10.794      82.973
2015   11       10    23  14    6.9167   516.1   10.685      82.993
2015   11       10    23  21    6.8925   517.3   10.579      83.017
2015   11       10    23  28    6.8714   518.4   10.479      83.044
2015   11       10    23  35    6.8484   519.5   10.383      83.074
2015   11       10    23  42    6.8265   520.4   10.294      83.109
2015   11       10    23  49    6.8051   521.3   10.212      83.147
2015   11       10    23  56    6.7830   522.2   10.137      83.205
2015   11       11     0   3    6.7639   523.1   10.067      83.285
