year    month   day   hour  minute  B_enl V_enl   n_enl       T_enl
[year] [month] [day] [hour][minute] [nT]  [km/s]  [cm-3]      [kK]
2015   11       29     0   1    2.6999   455.3    4.505      31.309
2015   11       29     0   8    2.6993   455.0    4.508      31.283
2015   11       29     0  14    2.6988   454.8    4.511      31.258
2015   11       29     0  21    2.6983   454.6    4.515      31.233
2015   11       29     0  28    2.6978   454.4    4.518      31.208
2015   11       29     0  35    2.6972   454.2    4.521      31.183
2015   11       29     0  42    2.6967   453.9    4.524      31.158
2015   11       29     0  48    2.6963   453.7    4.528      31.134
2015   11       29     0  55    2.6957   453.5    4.531      31.109
2015   11       29     1   2    2.6953   453.3    4.535      31.085
2015   11       29     1   9    2.6948   453.0    4.538      31.061
2015   11       29     1  15    2.6944   452.8    4.542      31.037
2015   11       29     1  22    2.6939   452.6    4.545      31.013
2015   11       29     1  29    2.6934   452.4    4.549      30.989
2015   11       29     1  36    2.6930   452.2    4.553      30.965
2015   11       29     1  43    2.6926   451.9    4.556      30.941
2015   11       29     1  49    2.6921   451.7    4.560      30.917
2015   11       29     1  56    2.6917   451.5    4.563      30.893
2015   11       29     2   3    2.6913   451.3    4.567      30.870
2015   11       29     2  10    2.6909   451.1    4.571      30.846
2015   11       29     2  17    2.6905   450.8    4.574      30.823
2015   11       29     2  23    2.6901   450.6    4.578      30.799
2015   11       29     2  30    2.6898   450.4    4.582      30.776
2015   11       29     2  37    2.6894   450.2    4.585      30.752
2015   11       29     2  44    2.6890   449.9    4.589      30.729
2015   11       29     2  50    2.6887   449.7    4.593      30.706
2015   11       29     2  57    2.6883   449.5    4.597      30.683
2015   11       29     3   4    2.6880   449.3    4.600      30.660
2015   11       29     3  11    2.6877   449.0    4.604      30.637
2015   11       29     3  18    2.6874   448.8    4.608      30.614
2015   11       29     3  24    2.6871   448.6    4.612      30.592
2015   11       29     3  31    2.6868   448.4    4.616      30.569
2015   11       29     3  38    2.6866   448.1    4.620      30.547
2015   11       29     3  45    2.6863   447.9    4.624      30.524
2015   11       29     3  52    2.6861   447.7    4.627      30.502
2015   11       29     3  58    2.6858   447.5    4.631      30.480
2015   11       29     4   5    2.6856   447.3    4.635      30.458
2015   11       29     4  12    2.6854   447.0    4.639      30.436
2015   11       29     4  19    2.6852   446.8    4.643      30.414
2015   11       29     4  25    2.6851   446.6    4.647      30.392
2015   11       29     4  32    2.6849   446.4    4.651      30.370
2015   11       29     4  39    2.6848   446.2    4.655      30.348
2015   11       29     4  46    2.6846   445.9    4.659      30.326
2015   11       29     4  53    2.6845   445.7    4.664      30.304
2015   11       29     4  59    2.6844   445.5    4.668      30.282
2015   11       29     5   6    2.6843   445.3    4.672      30.261
2015   11       29     5  13    2.6842   445.0    4.676      30.239
2015   11       29     5  20    2.6841   444.8    4.680      30.217
2015   11       29     5  27    2.6841   444.6    4.684      30.195
2015   11       29     5  33    2.6841   444.4    4.689      30.173
2015   11       29     5  40    2.6840   444.2    4.693      30.151
2015   11       29     5  47    2.6840   443.9    4.697      30.129
2015   11       29     5  54    2.6840   443.7    4.701      30.107
2015   11       29     6   1    2.6840   443.5    4.706      30.085
2015   11       29     6   7    2.6841   443.3    4.710      30.063
2015   11       29     6  14    2.6842   443.1    4.714      30.040
2015   11       29     6  21    2.6841   442.8    4.718      30.018
2015   11       29     6  28    2.6843   442.6    4.723      29.996
2015   11       29     6  34    2.6843   442.4    4.727      29.973
2015   11       29     6  41    2.6844   442.2    4.732      29.951
2015   11       29     6  48    2.6845   442.0    4.736      29.928
2015   11       29     6  55    2.6846   441.7    4.740      29.906
2015   11       29     7   2    2.6848   441.5    4.745      29.884
2015   11       29     7   8    2.6849   441.3    4.749      29.861
2015   11       29     7  15    2.6851   441.1    4.754      29.839
2015   11       29     7  22    2.6852   440.8    4.758      29.816
2015   11       29     7  29    2.6854   440.6    4.763      29.794
2015   11       29     7  36    2.6856   440.4    4.768      29.772
2015   11       29     7  42    2.6859   440.2    4.772      29.750
2015   11       29     7  49    2.6861   440.0    4.777      29.727
2015   11       29     7  56    2.6864   439.7    4.782      29.705
2015   11       29     8   3    2.6866   439.5    4.786      29.683
2015   11       29     8  10    2.6869   439.3    4.791      29.662
2015   11       29     8  16    2.6872   439.1    4.796      29.640
2015   11       29     8  23    2.6875   438.8    4.801      29.618
2015   11       29     8  30    2.6879   438.6    4.806      29.597
2015   11       29     8  37    2.6882   438.4    4.811      29.575
2015   11       29     8  43    2.6886   438.2    4.816      29.554
2015   11       29     8  50    2.6890   437.9    4.821      29.533
2015   11       29     8  57    2.6894   437.7    4.826      29.512
2015   11       29     9   4    2.6898   437.5    4.831      29.492
2015   11       29     9  11    2.6903   437.3    4.837      29.471
2015   11       29     9  17    2.6907   437.1    4.842      29.451
2015   11       29     9  24    2.6912   436.8    4.847      29.431
2015   11       29     9  31    2.6917   436.6    4.853      29.411
2015   11       29     9  38    2.6922   436.4    4.858      29.391
2015   11       29     9  45    2.6927   436.2    4.864      29.371
2015   11       29     9  51    2.6933   435.9    4.870      29.352
2015   11       29     9  58    2.6938   435.7    4.875      29.332
2015   11       29    10   5    2.6944   435.5    4.881      29.313
2015   11       29    10  12    2.6950   435.3    4.887      29.294
2015   11       29    10  18    2.6956   435.1    4.892      29.276
2015   11       29    10  25    2.6962   434.8    4.898      29.257
2015   11       29    10  32    2.6969   434.6    4.904      29.238
2015   11       29    10  39    2.6975   434.4    4.910      29.220
2015   11       29    10  46    2.6982   434.2    4.916      29.202
2015   11       29    10  52    2.6989   434.0    4.922      29.184
2015   11       29    10  59    2.6996   433.7    4.929      29.166
2015   11       29    11   6    2.7003   433.5    4.935      29.148
2015   11       29    11  13    2.7011   433.3    4.941      29.131
2015   11       29    11  20    2.7019   433.1    4.947      29.113
2015   11       29    11  26    2.7026   432.9    4.954      29.096
2015   11       29    11  33    2.7035   432.6    4.960      29.079
2015   11       29    11  40    2.7043   432.4    4.967      29.062
2015   11       29    11  47    2.7051   432.2    4.973      29.045
2015   11       29    11  53    2.7060   432.0    4.980      29.028
2015   11       29    12   0    2.7069   431.8    4.987      29.012
2015   11       29    12   7    2.7078   431.6    4.994      28.995
2015   11       29    12  14    2.7087   431.3    5.001      28.979
2015   11       29    12  21    2.7097   431.1    5.008      28.963
2015   11       29    12  27    2.7106   430.9    5.015      28.948
2015   11       29    12  34    2.7116   430.7    5.022      28.932
2015   11       29    12  41    2.7127   430.5    5.030      28.917
2015   11       29    12  48    2.7137   430.3    5.037      28.902
2015   11       29    12  55    2.7148   430.0    5.044      28.887
2015   11       29    13   1    2.7159   429.8    5.052      28.872
2015   11       29    13   8    2.7170   429.6    5.060      28.858
2015   11       29    13  15    2.7181   429.4    5.068      28.844
2015   11       29    13  22    2.7193   429.2    5.076      28.830
2015   11       29    13  29    2.7205   429.0    5.084      28.816
2015   11       29    13  35    2.7217   428.8    5.092      28.803
2015   11       29    13  42    2.7230   428.6    5.100      28.790
2015   11       29    13  49    2.7243   428.4    5.108      28.777
2015   11       29    13  56    2.7256   428.1    5.116      28.764
2015   11       29    14   2    2.7269   427.9    5.125      28.752
2015   11       29    14   9    2.7282   427.7    5.133      28.740
2015   11       29    14  16    2.7296   427.5    5.142      28.729
2015   11       29    14  23    2.7310   427.3    5.151      28.717
2015   11       29    14  30    2.7324   427.1    5.160      28.706
2015   11       29    14  36    2.7338   426.9    5.168      28.695
2015   11       29    14  43    2.7353   426.7    5.177      28.685
2015   11       29    14  50    2.7367   426.5    5.186      28.675
2015   11       29    14  57    2.7382   426.3    5.195      28.665
2015   11       29    15   4    2.7397   426.1    5.204      28.655
2015   11       29    15  10    2.7413   425.9    5.213      28.646
2015   11       29    15  17    2.7428   425.7    5.222      28.637
2015   11       29    15  24    2.7444   425.5    5.232      28.628
2015   11       29    15  31    2.7460   425.3    5.241      28.620
2015   11       29    15  37    2.7475   425.1    5.250      28.612
2015   11       29    15  44    2.7492   424.9    5.259      28.604
2015   11       29    15  51    2.7508   424.7    5.269      28.597
2015   11       29    15  58    2.7524   424.5    5.278      28.589
2015   11       29    16   5    2.7541   424.3    5.287      28.582
2015   11       29    16  11    2.7558   424.1    5.297      28.576
2015   11       29    16  18    2.7575   423.9    5.306      28.569
2015   11       29    16  25    2.7592   423.8    5.315      28.563
2015   11       29    16  32    2.7609   423.6    5.325      28.557
2015   11       29    16  39    2.7627   423.4    5.334      28.551
2015   11       29    16  45    2.7644   423.2    5.344      28.546
2015   11       29    16  52    2.7662   423.0    5.353      28.540
2015   11       29    16  59    2.7680   422.8    5.362      28.535
2015   11       29    17   6    2.7698   422.6    5.372      28.531
2015   11       29    17  13    2.7716   422.4    5.381      28.526
2015   11       29    17  19    2.7734   422.2    5.391      28.522
2015   11       29    17  26    2.7752   422.1    5.400      28.518
2015   11       29    17  33    2.7771   421.9    5.410      28.514
2015   11       29    17  40    2.7790   421.7    5.419      28.511
2015   11       29    17  46    2.7808   421.5    5.429      28.507
2015   11       29    17  53    2.7827   421.3    5.438      28.504
2015   11       29    18   0    2.7846   421.1    5.448      28.502
2015   11       29    18   7    2.7865   421.0    5.458      28.499
2015   11       29    18  14    2.7886   420.8    5.467      28.497
2015   11       29    18  20    2.7904   420.6    5.477      28.495
2015   11       29    18  27    2.7923   420.4    5.487      28.493
2015   11       29    18  34    2.7943   420.3    5.496      28.491
2015   11       29    18  41    2.7963   420.1    5.506      28.490
2015   11       29    18  48    2.7983   419.9    5.516      28.489
2015   11       29    18  54    2.8003   419.7    5.526      28.489
2015   11       29    19   1    2.8023   419.6    5.536      28.488
2015   11       29    19   8    2.8043   419.4    5.546      28.488
2015   11       29    19  15    2.8063   419.2    5.556      28.488
2015   11       29    19  21    2.8084   419.0    5.566      28.488
2015   11       29    19  28    2.8105   418.9    5.576      28.489
2015   11       29    19  35    2.8125   418.7    5.586      28.490
2015   11       29    19  42    2.8146   418.5    5.597      28.491
2015   11       29    19  49    2.8167   418.4    5.607      28.492
2015   11       29    19  55    2.8189   418.2    5.618      28.494
2015   11       29    20   2    2.8210   418.1    5.628      28.496
2015   11       29    20   9    2.8232   417.9    5.639      28.498
2015   11       29    20  16    2.8253   417.7    5.650      28.501
2015   11       29    20  23    2.8276   417.6    5.660      28.504
2015   11       29    20  29    2.8298   417.4    5.671      28.507
2015   11       29    20  36    2.8321   417.3    5.682      28.510
2015   11       29    20  43    2.8343   417.1    5.693      28.514
2015   11       29    20  50    2.8366   416.9    5.705      28.518
2015   11       29    20  57    2.8389   416.8    5.716      28.522
2015   11       29    21   3    2.8411   416.6    5.727      28.527
2015   11       29    21  10    2.8433   416.5    5.738      28.531
2015   11       29    21  17    2.8457   416.3    5.750      28.536
2015   11       29    21  24    2.8481   416.2    5.761      28.541
2015   11       29    21  30    2.8504   416.0    5.773      28.547
2015   11       29    21  37    2.8526   415.9    5.785      28.552
2015   11       29    21  44    2.8550   415.7    5.796      28.558
2015   11       29    21  51    2.8574   415.6    5.808      28.564
2015   11       29    21  58    2.8598   415.5    5.820      28.570
2015   11       29    22   4    2.8622   415.3    5.832      28.576
2015   11       29    22  11    2.8645   415.2    5.843      28.583
2015   11       29    22  18    2.8670   415.0    5.855      28.590
2015   11       29    22  25    2.8694   414.9    5.867      28.596
2015   11       29    22  32    2.8718   414.8    5.879      28.603
2015   11       29    22  38    2.8743   414.6    5.891      28.610
2015   11       29    22  45    2.8767   414.5    5.903      28.617
2015   11       29    22  52    2.8791   414.4    5.915      28.624
2015   11       29    22  59    2.8816   414.2    5.927      28.632
2015   11       29    23   5    2.8840   414.1    5.939      28.639
2015   11       29    23  12    2.8865   413.9    5.951      28.647
2015   11       29    23  19    2.8890   413.8    5.963      28.654
2015   11       29    23  26    2.8915   413.7    5.975      28.662
2015   11       29    23  33    2.8940   413.6    5.987      28.670
2015   11       29    23  39    2.8965   413.4    5.999      28.677
2015   11       29    23  46    2.8990   413.3    6.011      28.686
2015   11       29    23  53    2.9016   413.2    6.023      28.694
2015   11       30     0   0    2.9042   413.0    6.035      28.703
2015   11       30     0   7    2.9067   412.9    6.046      28.712
2015   11       30     0  13    2.9092   412.8    6.058      28.721
2015   11       30     0  20    2.9118   412.7    6.070      28.731
2015   11       30     0  27    2.9144   412.6    6.082      28.741
2015   11       30     0  34    2.9169   412.4    6.093      28.752
2015   11       30     0  41    2.9195   412.3    6.105      28.763
2015   11       30     0  47    2.9221   412.2    6.116      28.775
2015   11       30     0  54    2.9247   412.1    6.127      28.787
2015   11       30     1   1    2.9273   412.0    6.138      28.799
2015   11       30     1   8    2.9298   411.9    6.149      28.812
2015   11       30     1  14    2.9324   411.8    6.160      28.826
2015   11       30     1  21    2.9350   411.7    6.171      28.839
2015   11       30     1  28    2.9376   411.5    6.182      28.853
2015   11       30     1  35    2.9401   411.4    6.192      28.867
2015   11       30     1  42    2.9426   411.3    6.203      28.881
2015   11       30     1  48    2.9451   411.2    6.213      28.896
2015   11       30     1  55    2.9477   411.1    6.224      28.910
2015   11       30     2   2    2.9501   411.0    6.234      28.924
2015   11       30     2   9    2.9527   410.9    6.244      28.939
2015   11       30     2  16    2.9552   410.8    6.254      28.953
2015   11       30     2  22    2.9576   410.7    6.264      28.968
2015   11       30     2  29    2.9601   410.6    6.274      28.982
2015   11       30     2  36    2.9626   410.5    6.284      28.997
2015   11       30     2  43    2.9650   410.4    6.294      29.011
2015   11       30     2  49    2.9675   410.3    6.303      29.025
2015   11       30     2  56    2.9699   410.2    6.313      29.039
2015   11       30     3   3    2.9723   410.1    6.323      29.053
2015   11       30     3  10    2.9747   410.0    6.332      29.067
2015   11       30     3  17    2.9771   409.9    6.342      29.081
2015   11       30     3  23    2.9796   409.8    6.351      29.094
2015   11       30     3  30    2.9820   409.7    6.361      29.108
2015   11       30     3  37    2.9843   409.7    6.370      29.121
2015   11       30     3  44    2.9867   409.6    6.379      29.134
2015   11       30     3  51    2.9891   409.5    6.388      29.147
2015   11       30     3  57    2.9915   409.4    6.398      29.160
2015   11       30     4   4    2.9938   409.3    6.407      29.173
2015   11       30     4  11    2.9962   409.2    6.416      29.185
2015   11       30     4  18    2.9985   409.1    6.425      29.198
2015   11       30     4  25    3.0009   409.0    6.434      29.210
2015   11       30     4  31    3.0032   408.9    6.443      29.222
2015   11       30     4  38    3.0055   408.9    6.452      29.234
2015   11       30     4  45    3.0079   408.8    6.461      29.246
2015   11       30     4  52    3.0102   408.7    6.470      29.257
2015   11       30     4  58    3.0125   408.6    6.479      29.268
2015   11       30     5   5    3.0148   408.5    6.487      29.280
2015   11       30     5  12    3.0171   408.4    6.496      29.291
2015   11       30     5  19    3.0194   408.4    6.505      29.302
2015   11       30     5  26    3.0217   408.3    6.514      29.312
2015   11       30     5  32    3.0240   408.2    6.522      29.323
2015   11       30     5  39    3.0263   408.1    6.531      29.333
2015   11       30     5  46    3.0285   408.0    6.540      29.343
2015   11       30     5  53    3.0308   408.0    6.548      29.353
2015   11       30     6   0    3.0331   407.9    6.557      29.363
2015   11       30     6   6    3.0354   407.8    6.565      29.373
2015   11       30     6  13    3.0377   407.7    6.574      29.383
2015   11       30     6  20    3.0399   407.6    6.582      29.392
2015   11       30     6  27    3.0422   407.6    6.591      29.402
2015   11       30     6  33    3.0444   407.5    6.599      29.411
2015   11       30     6  40    3.0467   407.4    6.608      29.420
2015   11       30     6  47    3.0489   407.3    6.616      29.429
2015   11       30     6  54    3.0512   407.3    6.625      29.438
2015   11       30     7   1    3.0534   407.2    6.633      29.447
2015   11       30     7   7    3.0557   407.1    6.641      29.457
2015   11       30     7  14    3.0580   407.1    6.650      29.466
2015   11       30     7  21    3.0602   407.0    6.658      29.476
2015   11       30     7  28    3.0624   406.9    6.666      29.485
2015   11       30     7  35    3.0647   406.8    6.674      29.495
2015   11       30     7  41    3.0669   406.8    6.683      29.506
2015   11       30     7  48    3.0692   406.7    6.691      29.516
2015   11       30     7  55    3.0714   406.6    6.698      29.527
2015   11       30     8   2    3.0735   406.6    6.706      29.538
2015   11       30     8   9    3.0757   406.5    6.714      29.549
2015   11       30     8  15    3.0780   406.4    6.721      29.561
2015   11       30     8  22    3.0801   406.4    6.729      29.573
2015   11       30     8  29    3.0823   406.3    6.736      29.585
2015   11       30     8  36    3.0843   406.3    6.743      29.597
2015   11       30     8  42    3.0865   406.2    6.750      29.609
2015   11       30     8  49    3.0886   406.1    6.757      29.621
2015   11       30     8  56    3.0906   406.1    6.764      29.634
2015   11       30     9   3    3.0927   406.0    6.771      29.646
2015   11       30     9  10    3.0947   405.9    6.778      29.658
2015   11       30     9  16    3.0967   405.9    6.784      29.670
2015   11       30     9  23    3.0987   405.8    6.791      29.682
2015   11       30     9  30    3.1007   405.8    6.797      29.694
2015   11       30     9  37    3.1026   405.7    6.803      29.706
2015   11       30     9  44    3.1046   405.6    6.810      29.717
2015   11       30     9  50    3.1066   405.6    6.816      29.728
2015   11       30     9  57    3.1084   405.5    6.822      29.739
2015   11       30    10   4    3.1103   405.5    6.828      29.750
2015   11       30    10  11    3.1123   405.4    6.833      29.760
2015   11       30    10  17    3.1141   405.3    6.839      29.771
2015   11       30    10  24    3.1159   405.3    6.845      29.780
2015   11       30    10  31    3.1178   405.2    6.850      29.790
2015   11       30    10  38    3.1197   405.2    6.856      29.799
2015   11       30    10  45    3.1215   405.1    6.861      29.809
2015   11       30    10  51    3.1233   405.1    6.866      29.817
2015   11       30    10  58    3.1250   405.0    6.872      29.826
2015   11       30    11   5    3.1268   404.9    6.877      29.834
2015   11       30    11  12    3.1287   404.9    6.882      29.842
2015   11       30    11  19    3.1304   404.8    6.887      29.850
2015   11       30    11  25    3.1322   404.8    6.892      29.858
2015   11       30    11  32    3.1339   404.7    6.897      29.865
2015   11       30    11  39    3.1357   404.6    6.902      29.872
2015   11       30    11  46    3.1375   404.6    6.906      29.879
2015   11       30    11  53    3.1392   404.5    6.911      29.885
2015   11       30    11  59    3.1408   404.5    6.916      29.892
2015   11       30    12   6    3.1427   404.4    6.920      29.898
2015   11       30    12  13    3.1443   404.4    6.925      29.904
2015   11       30    12  20    3.1461   404.3    6.930      29.910
2015   11       30    12  26    3.1478   404.2    6.934      29.916
2015   11       30    12  33    3.1494   404.2    6.938      29.922
2015   11       30    12  40    3.1512   404.1    6.943      29.927
2015   11       30    12  47    3.1528   404.1    6.947      29.933
2015   11       30    12  54    3.1545   404.0    6.952      29.938
2015   11       30    13   0    3.1562   404.0    6.956      29.944
2015   11       30    13   7    3.1579   403.9    6.960      29.949
2015   11       30    13  14    3.1595   403.8    6.964      29.954
2015   11       30    13  21    3.1612   403.8    6.969      29.959
2015   11       30    13  28    3.1629   403.7    6.973      29.964
2015   11       30    13  34    3.1645   403.7    6.977      29.969
2015   11       30    13  41    3.1661   403.6    6.981      29.974
2015   11       30    13  48    3.1677   403.6    6.985      29.979
2015   11       30    13  55    3.1694   403.5    6.989      29.983
2015   11       30    14   1    3.1710   403.5    6.993      29.988
2015   11       30    14   8    3.1727   403.4    6.997      29.992
2015   11       30    14  15    3.1743   403.4    7.001      29.997
2015   11       30    14  22    3.1758   403.3    7.005      30.002
2015   11       30    14  29    3.1775   403.3    7.009      30.006
2015   11       30    14  35    3.1791   403.2    7.013      30.010
2015   11       30    14  42    3.1806   403.2    7.017      30.015
2015   11       30    14  49    3.1822   403.1    7.021      30.019
2015   11       30    14  56    3.1837   403.1    7.025      30.024
2015   11       30    15   3    3.1852   403.0    7.028      30.028
2015   11       30    15   9    3.1867   403.0    7.032      30.032
2015   11       30    15  16    3.1883   402.9    7.036      30.037
2015   11       30    15  23    3.1897   402.9    7.040      30.041
2015   11       30    15  30    3.1912   402.8    7.044      30.045
2015   11       30    15  36    3.1927   402.7    7.047      30.049
2015   11       30    15  43    3.1942   402.7    7.051      30.054
2015   11       30    15  50    3.1956   402.6    7.055      30.058
2015   11       30    15  57    3.1971   402.6    7.058      30.062
2015   11       30    16   4    3.1984   402.5    7.062      30.066
2015   11       30    16  10    3.1999   402.5    7.066      30.070
2015   11       30    16  17    3.2012   402.5    7.069      30.074
2015   11       30    16  24    3.2026   402.4    7.073      30.078
2015   11       30    16  31    3.2040   402.4    7.076      30.082
2015   11       30    16  38    3.2053   402.3    7.080      30.086
2015   11       30    16  44    3.2066   402.3    7.083      30.090
2015   11       30    16  51    3.2080   402.2    7.087      30.094
2015   11       30    16  58    3.2093   402.2    7.090      30.098
2015   11       30    17   5    3.2106   402.1    7.093      30.101
2015   11       30    17  11    3.2118   402.1    7.097      30.105
2015   11       30    17  18    3.2131   402.0    7.100      30.108
2015   11       30    17  25    3.2144   402.0    7.103      30.111
2015   11       30    17  32    3.2155   401.9    7.106      30.115
2015   11       30    17  39    3.2168   401.9    7.109      30.118
2015   11       30    17  45    3.2180   401.8    7.113      30.121
2015   11       30    17  52    3.2193   401.8    7.116      30.124
2015   11       30    17  59    3.2204   401.7    7.119      30.127
2015   11       30    18   6    3.2217   401.7    7.121      30.129
2015   11       30    18  13    3.2228   401.6    7.124      30.132
2015   11       30    18  19    3.2240   401.6    7.127      30.134
2015   11       30    18  26    3.2251   401.5    7.130      30.137
2015   11       30    18  33    3.2264   401.5    7.133      30.139
2015   11       30    18  40    3.2275   401.4    7.136      30.141
2015   11       30    18  47    3.2286   401.4    7.138      30.143
2015   11       30    18  53    3.2298   401.3    7.141      30.145
2015   11       30    19   0    3.2309   401.3    7.144      30.147
2015   11       30    19   7    3.2319   401.2    7.146      30.149
2015   11       30    19  14    3.2331   401.2    7.149      30.151
2015   11       30    19  20    3.2342   401.1    7.151      30.153
2015   11       30    19  27    3.2353   401.1    7.154      30.154
2015   11       30    19  34    3.2363   401.0    7.156      30.156
2015   11       30    19  41    3.2374   401.0    7.159      30.157
2015   11       30    19  48    3.2386   400.9    7.161      30.159
2015   11       30    19  54    3.2396   400.9    7.163      30.160
2015   11       30    20   1    3.2407   400.8    7.166      30.162
2015   11       30    20   8    3.2418   400.8    7.168      30.163
2015   11       30    20  15    3.2427   400.7    7.170      30.164
2015   11       30    20  22    3.2437   400.7    7.172      30.165
2015   11       30    20  28    3.2449   400.6    7.175      30.166
2015   11       30    20  35    3.2459   400.6    7.177      30.166
2015   11       30    20  42    3.2469   400.5    7.179      30.167
2015   11       30    20  49    3.2478   400.5    7.181      30.167
2015   11       30    20  55    3.2489   400.4    7.183      30.168
2015   11       30    21   2    3.2498   400.4    7.185      30.168
2015   11       30    21   9    3.2508   400.3    7.187      30.168
2015   11       30    21  16    3.2518   400.3    7.189      30.168
2015   11       30    21  23    3.2527   400.2    7.191      30.167
2015   11       30    21  29    3.2536   400.1    7.193      30.167
2015   11       30    21  36    3.2547   400.1    7.194      30.166
2015   11       30    21  43    3.2556   400.0    7.196      30.166
2015   11       30    21  50    3.2565   400.0    7.198      30.165
2015   11       30    21  57    3.2574   399.9    7.200      30.164
2015   11       30    22   3    3.2584   399.9    7.201      30.163
2015   11       30    22  10    3.2593   399.8    7.203      30.162
2015   11       30    22  17    3.2602   399.8    7.205      30.161
2015   11       30    22  24    3.2610   399.7    7.206      30.160
2015   11       30    22  30    3.2619   399.7    7.208      30.158
2015   11       30    22  37    3.2628   399.6    7.210      30.157
2015   11       30    22  44    3.2635   399.6    7.211      30.155
2015   11       30    22  51    3.2645   399.5    7.212      30.153
2015   11       30    22  58    3.2653   399.5    7.214      30.151
2015   11       30    23   4    3.2660   399.4    7.215      30.149
2015   11       30    23  11    3.2669   399.4    7.217      30.147
2015   11       30    23  18    3.2676   399.3    7.218      30.145
2015   11       30    23  25    3.2684   399.3    7.219      30.142
2015   11       30    23  32    3.2692   399.2    7.221      30.140
2015   11       30    23  38    3.2700   399.2    7.222      30.137
2015   11       30    23  45    3.2707   399.1    7.223      30.135
2015   11       30    23  52    3.2715   399.1    7.224      30.132
2015   11       30    23  59    3.2722   399.0    7.225      30.129
2015   12        1     0   5    3.2730   399.0    7.227      30.127
2015   12        1     0  12    3.2737   398.9    7.228      30.124
2015   12        1     0  19    3.2743   398.9    7.229      30.121
2015   12        1     0  26    3.2750   398.8    7.230      30.117
2015   12        1     0  33    3.2758   398.7    7.231      30.114
2015   12        1     0  39    3.2764   398.7    7.232      30.111
2015   12        1     0  46    3.2770   398.6    7.233      30.108
2015   12        1     0  53    3.2776   398.6    7.234      30.105
2015   12        1     1   0    3.2784   398.5    7.235      30.101
2015   12        1     1   6    3.2790   398.5    7.236      30.098
2015   12        1     1  13    3.2796   398.4    7.236      30.094
2015   12        1     1  20    3.2802   398.4    7.237      30.090
2015   12        1     1  27    3.2808   398.3    7.238      30.087
2015   12        1     1  34    3.2813   398.3    7.239      30.083
2015   12        1     1  40    3.2819   398.2    7.239      30.079
2015   12        1     1  47    3.2825   398.2    7.240      30.075
2015   12        1     1  54    3.2830   398.1    7.241      30.070
2015   12        1     2   1    3.2836   398.1    7.242      30.066
2015   12        1     2   8    3.2841   398.0    7.242      30.062
2015   12        1     2  14    3.2847   398.0    7.243      30.058
2015   12        1     2  21    3.2852   397.9    7.243      30.053
2015   12        1     2  28    3.2857   397.8    7.244      30.049
2015   12        1     2  35    3.2862   397.8    7.245      30.044
2015   12        1     2  41    3.2868   397.7    7.245      30.039
2015   12        1     2  48    3.2872   397.7    7.246      30.034
2015   12        1     2  55    3.2877   397.6    7.246      30.029
2015   12        1     3   2    3.2882   397.6    7.247      30.024
2015   12        1     3   9    3.2886   397.5    7.247      30.019
2015   12        1     3  15    3.2892   397.5    7.248      30.014
2015   12        1     3  22    3.2896   397.4    7.248      30.008
2015   12        1     3  29    3.2901   397.3    7.249      30.003
2015   12        1     3  36    3.2905   397.3    7.249      29.997
2015   12        1     3  42    3.2910   397.2    7.249      29.991
2015   12        1     3  49    3.2913   397.2    7.250      29.985
2015   12        1     3  56    3.2918   397.1    7.250      29.979
2015   12        1     4   3    3.2922   397.1    7.250      29.972
2015   12        1     4  10    3.2927   397.0    7.251      29.966
2015   12        1     4  16    3.2930   396.9    7.251      29.959
2015   12        1     4  23    3.2934   396.9    7.251      29.952
2015   12        1     4  30    3.2938   396.8    7.251      29.945
2015   12        1     4  37    3.2941   396.8    7.251      29.937
2015   12        1     4  44    3.2945   396.7    7.251      29.930
2015   12        1     4  50    3.2948   396.6    7.251      29.922
2015   12        1     4  57    3.2952   396.6    7.251      29.914
2015   12        1     5   4    3.2955   396.5    7.251      29.906
2015   12        1     5  11    3.2959   396.4    7.251      29.898
2015   12        1     5  17    3.2961   396.4    7.251      29.889
2015   12        1     5  24    3.2965   396.3    7.250      29.880
2015   12        1     5  31    3.2968   396.2    7.250      29.871
2015   12        1     5  38    3.2971   396.2    7.250      29.862
2015   12        1     5  45    3.2974   396.1    7.249      29.853
2015   12        1     5  51    3.2977   396.0    7.249      29.843
2015   12        1     5  58    3.2979   396.0    7.248      29.834
2015   12        1     6   5    3.2982   395.9    7.248      29.824
2015   12        1     6  12    3.2985   395.8    7.247      29.814
2015   12        1     6  18    3.2987   395.8    7.247      29.804
2015   12        1     6  25    3.2990   395.7    7.246      29.793
2015   12        1     6  32    3.2993   395.6    7.246      29.783
2015   12        1     6  39    3.2995   395.6    7.245      29.772
2015   12        1     6  46    3.2997   395.5    7.244      29.761
2015   12        1     6  52    3.2999   395.4    7.243      29.750
2015   12        1     6  59    3.3002   395.3    7.243      29.739
2015   12        1     7   6    3.3004   395.3    7.242      29.728
2015   12        1     7  13    3.3007   395.2    7.241      29.716
2015   12        1     7  19    3.3009   395.1    7.240      29.705
2015   12        1     7  26    3.3011   395.0    7.239      29.693
2015   12        1     7  33    3.3013   395.0    7.238      29.681
2015   12        1     7  40    3.3015   394.9    7.237      29.669
2015   12        1     7  47    3.3017   394.8    7.236      29.657
2015   12        1     7  53    3.3019   394.7    7.235      29.644
2015   12        1     8   0    3.3020   394.7    7.234      29.632
2015   12        1     8   7    3.3022   394.6    7.233      29.619
2015   12        1     8  14    3.3024   394.5    7.232      29.606
2015   12        1     8  21    3.3026   394.4    7.231      29.593
2015   12        1     8  27    3.3028   394.4    7.230      29.580
2015   12        1     8  34    3.3029   394.3    7.228      29.567
2015   12        1     8  41    3.3031   394.2    7.227      29.554
2015   12        1     8  48    3.3032   394.1    7.226      29.540
2015   12        1     8  54    3.3034   394.0    7.225      29.526
2015   12        1     9   1    3.3036   394.0    7.224      29.513
2015   12        1     9   8    3.3037   393.9    7.222      29.499
2015   12        1     9  15    3.3039   393.8    7.221      29.485
2015   12        1     9  22    3.3040   393.7    7.220      29.471
2015   12        1     9  28    3.3042   393.6    7.219      29.456
2015   12        1     9  35    3.3043   393.5    7.217      29.442
2015   12        1     9  42    3.3045   393.5    7.216      29.427
2015   12        1     9  49    3.3046   393.4    7.215      29.413
2015   12        1     9  55    3.3048   393.3    7.214      29.398
2015   12        1    10   2    3.3049   393.2    7.213      29.384
2015   12        1    10   9    3.3050   393.1    7.212      29.369
2015   12        1    10  16    3.3052   393.0    7.211      29.354
2015   12        1    10  23    3.3054   393.0    7.210      29.339
2015   12        1    10  29    3.3055   392.9    7.209      29.325
2015   12        1    10  36    3.3057   392.8    7.208      29.310
2015   12        1    10  43    3.3058   392.7    7.207      29.295
2015   12        1    10  50    3.3060   392.6    7.206      29.280
2015   12        1    10  56    3.3062   392.5    7.205      29.265
2015   12        1    11   3    3.3064   392.4    7.204      29.250
2015   12        1    11  10    3.3066   392.3    7.203      29.235
2015   12        1    11  17    3.3067   392.3    7.203      29.220
2015   12        1    11  24    3.3069   392.2    7.202      29.204
2015   12        1    11  30    3.3071   392.1    7.201      29.189
2015   12        1    11  37    3.3072   392.0    7.201      29.174
2015   12        1    11  44    3.3074   391.9    7.200      29.159
2015   12        1    11  51    3.3076   391.8    7.199      29.144
2015   12        1    11  58    3.3078   391.7    7.199      29.129
2015   12        1    12   4    3.3080   391.6    7.198      29.114
2015   12        1    12  11    3.3082   391.5    7.198      29.099
2015   12        1    12  18    3.3084   391.4    7.197      29.083
2015   12        1    12  25    3.3086   391.3    7.197      29.068
2015   12        1    12  31    3.3088   391.2    7.197      29.053
2015   12        1    12  38    3.3090   391.2    7.196      29.038
2015   12        1    12  45    3.3092   391.1    7.196      29.023
2015   12        1    12  52    3.3094   391.0    7.196      29.007
2015   12        1    12  59    3.3096   390.9    7.196      28.992
2015   12        1    13   5    3.3099   390.8    7.195      28.977
2015   12        1    13  12    3.3101   390.7    7.195      28.962
2015   12        1    13  19    3.3104   390.6    7.195      28.947
2015   12        1    13  26    3.3106   390.5    7.195      28.932
2015   12        1    13  32    3.3109   390.4    7.195      28.916
2015   12        1    13  39    3.3112   390.3    7.195      28.901
2015   12        1    13  46    3.3114   390.2    7.195      28.886
2015   12        1    13  53    3.3117   390.1    7.195      28.871
2015   12        1    14   0    3.3120   390.0    7.195      28.855
2015   12        1    14   6    3.3123   389.9    7.195      28.840
2015   12        1    14  13    3.3126   389.8    7.195      28.825
2015   12        1    14  20    3.3129   389.7    7.195      28.809
2015   12        1    14  27    3.3132   389.6    7.195      28.794
2015   12        1    14  33    3.3135   389.5    7.196      28.779
2015   12        1    14  40    3.3138   389.4    7.196      28.763
2015   12        1    14  47    3.3141   389.3    7.196      28.747
2015   12        1    14  54    3.3144   389.2    7.196      28.732
2015   12        1    15   1    3.3148   389.1    7.196      28.716
2015   12        1    15   7    3.3151   388.9    7.196      28.701
2015   12        1    15  14    3.3155   388.8    7.197      28.685
2015   12        1    15  21    3.3158   388.7    7.197      28.669
2015   12        1    15  28    3.3162   388.6    7.197      28.653
2015   12        1    15  35    3.3165   388.5    7.197      28.637
2015   12        1    15  41    3.3169   388.4    7.197      28.621
2015   12        1    15  48    3.3173   388.3    7.197      28.605
2015   12        1    15  55    3.3176   388.2    7.197      28.589
2015   12        1    16   2    3.3180   388.1    7.197      28.573
2015   12        1    16   8    3.3184   388.0    7.197      28.557
2015   12        1    16  15    3.3188   387.9    7.197      28.540
2015   12        1    16  22    3.3192   387.8    7.197      28.524
2015   12        1    16  29    3.3196   387.6    7.197      28.507
2015   12        1    16  36    3.3200   387.5    7.197      28.491
2015   12        1    16  42    3.3204   387.4    7.197      28.474
2015   12        1    16  49    3.3208   387.3    7.197      28.457
2015   12        1    16  56    3.3212   387.2    7.197      28.440
2015   12        1    17   3    3.3216   387.1    7.197      28.423
2015   12        1    17   9    3.3220   387.0    7.196      28.406
2015   12        1    17  16    3.3224   386.9    7.196      28.389
2015   12        1    17  23    3.3229   386.7    7.196      28.372
2015   12        1    17  30    3.3233   386.6    7.196      28.354
2015   12        1    17  37    3.3237   386.5    7.196      28.337
2015   12        1    17  43    3.3242   386.4    7.195      28.319
2015   12        1    17  50    3.3246   386.3    7.195      28.302
2015   12        1    17  57    3.3251   386.2    7.195      28.284
2015   12        1    18   4    3.3255   386.1    7.195      28.266
2015   12        1    18  11    3.3260   385.9    7.195      28.249
2015   12        1    18  17    3.3264   385.8    7.195      28.231
2015   12        1    18  24    3.3269   385.7    7.194      28.213
2015   12        1    18  31    3.3274   385.6    7.194      28.195
2015   12        1    18  38    3.3279   385.5    7.194      28.178
2015   12        1    18  44    3.3284   385.4    7.194      28.160
2015   12        1    18  51    3.3289   385.3    7.194      28.142
2015   12        1    18  58    3.3294   385.1    7.194      28.124
2015   12        1    19   5    3.3300   385.0    7.194      28.106
2015   12        1    19  12    3.3305   384.9    7.195      28.088
2015   12        1    19  18    3.3310   384.8    7.195      28.071
2015   12        1    19  25    3.3316   384.7    7.195      28.053
2015   12        1    19  32    3.3321   384.5    7.195      28.035
2015   12        1    19  39    3.3327   384.4    7.196      28.017
2015   12        1    19  45    3.3333   384.3    7.196      28.000
2015   12        1    19  52    3.3339   384.2    7.197      27.982
2015   12        1    19  59    3.3345   384.1    7.197      27.964
2015   12        1    20   6    3.3352   384.0    7.198      27.947
2015   12        1    20  13    3.3358   383.8    7.199      27.929
2015   12        1    20  19    3.3364   383.7    7.199      27.912
2015   12        1    20  26    3.3371   383.6    7.200      27.895
2015   12        1    20  33    3.3378   383.5    7.201      27.877
2015   12        1    20  40    3.3385   383.4    7.202      27.860
2015   12        1    20  47    3.3392   383.2    7.203      27.843
2015   12        1    20  53    3.3399   383.1    7.204      27.826
2015   12        1    21   0    3.3406   383.0    7.206      27.809
2015   12        1    21   7    3.3414   382.9    7.207      27.793
2015   12        1    21  14    3.3422   382.7    7.208      27.776
2015   12        1    21  20    3.3430   382.6    7.210      27.759
2015   12        1    21  27    3.3437   382.5    7.212      27.743
2015   12        1    21  34    3.3445   382.4    7.213      27.727
2015   12        1    21  41    3.3454   382.2    7.215      27.711
2015   12        1    21  48    3.3462   382.1    7.217      27.695
2015   12        1    21  54    3.3471   382.0    7.219      27.679
2015   12        1    22   1    3.3480   381.9    7.221      27.663
2015   12        1    22   8    3.3489   381.7    7.223      27.648
2015   12        1    22  15    3.3499   381.6    7.225      27.632
2015   12        1    22  21    3.3508   381.5    7.228      27.617
2015   12        1    22  28    3.3517   381.4    7.230      27.602
2015   12        1    22  35    3.3527   381.2    7.233      27.587
2015   12        1    22  42    3.3537   381.1    7.236      27.573
2015   12        1    22  49    3.3547   381.0    7.238      27.558
2015   12        1    22  55    3.3558   380.9    7.241      27.544
2015   12        1    23   2    3.3569   380.7    7.244      27.529
2015   12        1    23   9    3.3579   380.6    7.247      27.515
2015   12        1    23  16    3.3590   380.5    7.250      27.502
2015   12        1    23  23    3.3601   380.4    7.253      27.488
2015   12        1    23  29    3.3612   380.2    7.256      27.474
2015   12        1    23  36    3.3624   380.1    7.259      27.460
2015   12        1    23  43    3.3636   380.0    7.263      27.447
2015   12        1    23  50    3.3647   379.8    7.266      27.434
2015   12        1    23  56    3.3659   379.7    7.269      27.421
2015   12        2     0   3    3.3672   379.6    7.273      27.407
2015   12        2     0  10    3.3684   379.4    7.276      27.394
2015   12        2     0  17    3.3696   379.3    7.280      27.381
2015   12        2     0  24    3.3709   379.2    7.284      27.369
2015   12        2     0  30    3.3722   379.0    7.287      27.356
2015   12        2     0  37    3.3735   378.9    7.291      27.343
2015   12        2     0  44    3.3748   378.8    7.295      27.330
2015   12        2     0  51    3.3762   378.6    7.299      27.317
2015   12        2     0  58    3.3775   378.5    7.302      27.305
2015   12        2     1   4    3.3790   378.4    7.306      27.292
2015   12        2     1  11    3.3803   378.2    7.310      27.279
2015   12        2     1  18    3.3817   378.1    7.314      27.267
2015   12        2     1  25    3.3832   378.0    7.318      27.254
2015   12        2     1  31    3.3846   377.8    7.322      27.242
2015   12        2     1  38    3.3862   377.7    7.327      27.229
2015   12        2     1  45    3.3877   377.5    7.331      27.217
2015   12        2     1  52    3.3891   377.4    7.335      27.204
2015   12        2     1  59    3.3907   377.3    7.339      27.192
2015   12        2     2   5    3.3923   377.1    7.344      27.180
2015   12        2     2  12    3.3938   377.0    7.348      27.167
2015   12        2     2  19    3.3955   376.8    7.353      27.155
2015   12        2     2  26    3.3971   376.7    7.357      27.143
2015   12        2     2  33    3.3989   376.6    7.362      27.130
2015   12        2     2  39    3.4006   376.4    7.366      27.118
2015   12        2     2  46    3.4022   376.3    7.371      27.106
2015   12        2     2  53    3.4040   376.1    7.376      27.094
2015   12        2     3   0    3.4058   376.0    7.381      27.082
2015   12        2     3   6    3.4076   375.8    7.385      27.071
2015   12        2     3  13    3.4095   375.7    7.390      27.059
2015   12        2     3  20    3.4113   375.5    7.395      27.047
2015   12        2     3  27    3.4132   375.4    7.400      27.036
2015   12        2     3  34    3.4153   375.3    7.406      27.025
2015   12        2     3  40    3.4171   375.1    7.411      27.014
2015   12        2     3  47    3.4191   375.0    7.416      27.003
2015   12        2     3  54    3.4212   374.8    7.422      26.992
2015   12        2     4   1    3.4233   374.7    7.427      26.981
2015   12        2     4   8    3.4255   374.5    7.433      26.970
2015   12        2     4  14    3.4275   374.4    7.438      26.959
2015   12        2     4  21    3.4297   374.3    7.444      26.949
2015   12        2     4  28    3.4320   374.1    7.450      26.939
2015   12        2     4  35    3.4342   374.0    7.455      26.928
2015   12        2     4  41    3.4364   373.8    7.461      26.918
2015   12        2     4  48    3.4386   373.7    7.467      26.908
2015   12        2     4  55    3.4409   373.6    7.473      26.898
2015   12        2     5   2    3.4434   373.4    7.479      26.888
2015   12        2     5   9    3.4458   373.3    7.486      26.878
2015   12        2     5  15    3.4480   373.1    7.492      26.869
2015   12        2     5  22    3.4506   373.0    7.498      26.859
2015   12        2     5  29    3.4529   372.8    7.505      26.849
2015   12        2     5  36    3.4554   372.7    7.511      26.840
2015   12        2     5  42    3.4579   372.6    7.518      26.831
2015   12        2     5  49    3.4604   372.4    7.524      26.822
2015   12        2     5  56    3.4631   372.3    7.531      26.813
2015   12        2     6   3    3.4657   372.1    7.538      26.804
2015   12        2     6  10    3.4681   372.0    7.545      26.795
2015   12        2     6  16    3.4708   371.9    7.553      26.787
2015   12        2     6  23    3.4736   371.7    7.560      26.779
2015   12        2     6  30    3.4764   371.6    7.567      26.771
2015   12        2     6  37    3.4791   371.4    7.575      26.763
2015   12        2     6  44    3.4818   371.3    7.583      26.756
2015   12        2     6  50    3.4846   371.2    7.591      26.749
2015   12        2     6  57    3.4877   371.0    7.599      26.742
2015   12        2     7   4    3.4906   370.9    7.608      26.736
2015   12        2     7  11    3.4934   370.7    7.617      26.730
2015   12        2     7  17    3.4965   370.6    7.626      26.725
2015   12        2     7  24    3.4996   370.5    7.635      26.721
2015   12        2     7  31    3.5029   370.3    7.644      26.716
2015   12        2     7  38    3.5059   370.2    7.654      26.712
2015   12        2     7  45    3.5093   370.1    7.664      26.709
2015   12        2     7  51    3.5127   369.9    7.674      26.706
2015   12        2     7  58    3.5158   369.8    7.684      26.704
2015   12        2     8   5    3.5192   369.7    7.695      26.702
2015   12        2     8  12    3.5229   369.5    7.706      26.701
2015   12        2     8  19    3.5264   369.4    7.717      26.700
2015   12        2     8  25    3.5298   369.3    7.728      26.700
2015   12        2     8  32    3.5334   369.1    7.740      26.700
2015   12        2     8  39    3.5371   369.0    7.751      26.701
2015   12        2     8  46    3.5411   368.9    7.763      26.702
2015   12        2     8  53    3.5448   368.7    7.776      26.703
2015   12        2     8  59    3.5485   368.6    7.788      26.706
2015   12        2     9   6    3.5526   368.5    7.801      26.709
2015   12        2     9  13    3.5563   368.4    7.814      26.712
2015   12        2     9  20    3.5602   368.2    7.827      26.715
2015   12        2     9  26    3.5643   368.1    7.840      26.720
2015   12        2     9  33    3.5686   368.0    7.854      26.724
2015   12        2     9  40    3.5727   367.8    7.867      26.729
2015   12        2     9  47    3.5768   367.7    7.881      26.735
2015   12        2     9  54    3.5810   367.6    7.896      26.741
2015   12        2    10   0    3.5853   367.5    7.910      26.747
2015   12        2    10   7    3.5896   367.3    7.925      26.754
2015   12        2    10  14    3.5939   367.2    7.940      26.762
2015   12        2    10  21    3.5983   367.1    7.955      26.770
2015   12        2    10  28    3.6027   367.0    7.970      26.779
2015   12        2    10  34    3.6069   366.9    7.985      26.788
2015   12        2    10  41    3.6114   366.7    8.001      26.798
2015   12        2    10  48    3.6162   366.6    8.017      26.809
2015   12        2    10  55    3.6207   366.5    8.033      26.821
2015   12        2    11   1    3.6254   366.4    8.049      26.834
2015   12        2    11   8    3.6300   366.3    8.065      26.847
2015   12        2    11  15    3.6347   366.2    8.082      26.861
2015   12        2    11  22    3.6392   366.1    8.098      26.876
2015   12        2    11  29    3.6440   366.0    8.115      26.892
2015   12        2    11  35    3.6491   365.9    8.132      26.908
2015   12        2    11  42    3.6540   365.8    8.149      26.926
2015   12        2    11  49    3.6587   365.7    8.166      26.944
2015   12        2    11  56    3.6639   365.6    8.183      26.962
2015   12        2    12   2    3.6689   365.5    8.200      26.981
2015   12        2    12   9    3.6737   365.4    8.217      27.001
2015   12        2    12  16    3.6788   365.3    8.234      27.021
2015   12        2    12  23    3.6839   365.2    8.252      27.043
2015   12        2    12  30    3.6890   365.1    8.269      27.064
2015   12        2    12  36    3.6942   365.0    8.286      27.087
2015   12        2    12  43    3.6997   364.9    8.303      27.109
2015   12        2    12  50    3.7049   364.8    8.321      27.132
2015   12        2    12  57    3.7098   364.8    8.338      27.155
2015   12        2    13   4    3.7150   364.7    8.355      27.179
2015   12        2    13  10    3.7205   364.6    8.372      27.203
2015   12        2    13  17    3.7255   364.5    8.389      27.226
2015   12        2    13  24    3.7310   364.5    8.406      27.250
2015   12        2    13  31    3.7363   364.4    8.423      27.273
2015   12        2    13  37    3.7415   364.3    8.440      27.297
2015   12        2    13  44    3.7466   364.2    8.457      27.321
2015   12        2    13  51    3.7521   364.2    8.473      27.345
2015   12        2    13  58    3.7572   364.1    8.490      27.369
2015   12        2    14   5    3.7628   364.0    8.507      27.393
2015   12        2    14  11    3.7679   363.9    8.524      27.417
2015   12        2    14  18    3.7736   363.9    8.541      27.441
2015   12        2    14  25    3.7788   363.8    8.557      27.464
2015   12        2    14  32    3.7843   363.7    8.574      27.488
2015   12        2    14  39    3.7899   363.7    8.592      27.512
2015   12        2    14  45    3.7955   363.6    8.609      27.536
2015   12        2    14  52    3.8012   363.6    8.626      27.561
2015   12        2    14  59    3.8069   363.5    8.644      27.585
2015   12        2    15   6    3.8130   363.4    8.662      27.610
2015   12        2    15  13    3.8189   363.4    8.680      27.636
2015   12        2    15  19    3.8248   363.3    8.699      27.661
2015   12        2    15  26    3.8306   363.3    8.717      27.687
2015   12        2    15  33    3.8367   363.2    8.737      27.714
2015   12        2    15  40    3.8429   363.2    8.756      27.741
2015   12        2    15  46    3.8495   363.1    8.776      27.769
2015   12        2    15  53    3.8557   363.1    8.797      27.797
2015   12        2    16   0    3.8625   363.0    8.818      27.826
2015   12        2    16   7    3.8691   363.0    8.839      27.855
2015   12        2    16  14    3.8756   362.9    8.861      27.886
2015   12        2    16  20    3.8824   362.9    8.883      27.919
2015   12        2    16  27    3.8893   362.9    8.906      27.953
2015   12        2    16  34    3.8965   362.8    8.929      27.989
2015   12        2    16  41    3.9032   362.8    8.952      28.026
2015   12        2    16  48    3.9105   362.8    8.975      28.064
2015   12        2    16  54    3.9173   362.8    8.998      28.104
2015   12        2    17   1    3.9247   362.7    9.021      28.144
2015   12        2    17   8    3.9315   362.7    9.044      28.185
2015   12        2    17  15    3.9386   362.7    9.067      28.226
2015   12        2    17  21    3.9456   362.7    9.090      28.267
2015   12        2    17  28    3.9529   362.7    9.113      28.310
2015   12        2    17  35    3.9599   362.7    9.136      28.352
2015   12        2    17  42    3.9668   362.7    9.158      28.395
2015   12        2    17  49    3.9735   362.7    9.180      28.438
2015   12        2    17  55    3.9803   362.7    9.202      28.480
2015   12        2    18   2    3.9872   362.7    9.224      28.522
2015   12        2    18   9    3.9940   362.7    9.246      28.564
2015   12        2    18  16    4.0008   362.7    9.268      28.607
2015   12        2    18  23    4.0076   362.7    9.289      28.649
2015   12        2    18  29    4.0146   362.7    9.310      28.691
2015   12        2    18  36    4.0211   362.7    9.332      28.733
2015   12        2    18  43    4.0279   362.7    9.353      28.776
2015   12        2    18  50    4.0346   362.7    9.374      28.819
2015   12        2    18  56    4.0416   362.8    9.395      28.862
2015   12        2    19   3    4.0483   362.8    9.416      28.906
2015   12        2    19  10    4.0549   362.8    9.436      28.951
2015   12        2    19  17    4.0618   362.8    9.457      28.996
2015   12        2    19  24    4.0684   362.8    9.477      29.041
2015   12        2    19  30    4.0754   362.9    9.498      29.088
2015   12        2    19  37    4.0819   362.9    9.518      29.135
2015   12        2    19  44    4.0887   362.9    9.538      29.183
2015   12        2    19  51    4.0956   363.0    9.558      29.230
2015   12        2    19  58    4.1021   363.0    9.577      29.279
2015   12        2    20   4    4.1088   363.0    9.596      29.328
2015   12        2    20  11    4.1155   363.1    9.615      29.376
2015   12        2    20  18    4.1223   363.1    9.634      29.425
2015   12        2    20  25    4.1288   363.1    9.653      29.474
2015   12        2    20  31    4.1354   363.2    9.671      29.523
2015   12        2    20  38    4.1421   363.2    9.689      29.571
2015   12        2    20  45    4.1486   363.2    9.707      29.619
2015   12        2    20  52    4.1553   363.3    9.725      29.667
2015   12        2    20  59    4.1617   363.3    9.742      29.715
2015   12        2    21   5    4.1683   363.4    9.760      29.762
2015   12        2    21  12    4.1749   363.4    9.777      29.809
2015   12        2    21  19    4.1815   363.4    9.794      29.856
2015   12        2    21  26    4.1880   363.5    9.811      29.902
2015   12        2    21  33    4.1946   363.5    9.828      29.948
2015   12        2    21  39    4.2013   363.5    9.846      29.993
2015   12        2    21  46    4.2080   363.6    9.863      30.038
2015   12        2    21  53    4.2148   363.6    9.880      30.083
2015   12        2    22   0    4.2216   363.7    9.898      30.128
2015   12        2    22   6    4.2286   363.7    9.916      30.173
2015   12        2    22  13    4.2357   363.7    9.934      30.218
2015   12        2    22  20    4.2427   363.8    9.952      30.264
2015   12        2    22  27    4.2500   363.8    9.971      30.311
2015   12        2    22  34    4.2573   363.9    9.990      30.358
2015   12        2    22  40    4.2648   363.9   10.009      30.405
2015   12        2    22  47    4.2725   364.0   10.029      30.454
2015   12        2    22  54    4.2803   364.0   10.050      30.503
2015   12        2    23   1    4.2883   364.1   10.071      30.554
2015   12        2    23   8    4.2965   364.2   10.092      30.605
2015   12        2    23  14    4.3048   364.2   10.115      30.657
2015   12        2    23  21    4.3134   364.3   10.139      30.710
2015   12        2    23  28    4.3221   364.3   10.163      30.765
2015   12        2    23  35    4.3309   364.4   10.187      30.823
2015   12        2    23  42    4.3397   364.5   10.213      30.884
2015   12        2    23  48    4.3489   364.6   10.238      30.948
2015   12        2    23  55    4.3578   364.7   10.264      31.014
2015   12        3     0   2    4.3670   364.8   10.290      31.082
2015   12        3     0   9    4.3760   364.9   10.316      31.151
2015   12        3     0  15    4.3850   365.0   10.341      31.222
2015   12        3     0  22    4.3940   365.2   10.366      31.293
2015   12        3     0  29    4.4029   365.3   10.391      31.365
2015   12        3     0  36    4.4117   365.4   10.414      31.436
2015   12        3     0  43    4.4203   365.5   10.437      31.508
2015   12        3     0  49    4.4287   365.7   10.459      31.580
2015   12        3     0  56    4.4369   365.8   10.480      31.651
2015   12        3     1   3    4.4450   365.9   10.500      31.721
2015   12        3     1  10    4.4529   366.1   10.519      31.789
2015   12        3     1  17    4.4607   366.2   10.537      31.855
2015   12        3     1  23    4.4683   366.3   10.554      31.919
2015   12        3     1  30    4.4757   366.5   10.570      31.981
2015   12        3     1  37    4.4830   366.6   10.586      32.042
2015   12        3     1  44    4.4902   366.7   10.601      32.101
2015   12        3     1  50    4.4973   366.8   10.615      32.159
2015   12        3     1  57    4.5042   366.9   10.628      32.215
2015   12        3     2   4    4.5111   367.1   10.641      32.271
2015   12        3     2  11    4.5179   367.2   10.654      32.325
2015   12        3     2  18    4.5246   367.3   10.665      32.378
2015   12        3     2  24    4.5313   367.4   10.677      32.431
2015   12        3     2  31    4.5379   367.5   10.688      32.483
2015   12        3     2  38    4.5444   367.7   10.698      32.535
2015   12        3     2  45    4.5509   367.8   10.709      32.587
2015   12        3     2  52    4.5574   367.9   10.718      32.637
2015   12        3     2  58    4.5638   368.0   10.728      32.688
2015   12        3     3   5    4.5701   368.1   10.737      32.738
2015   12        3     3  12    4.5765   368.2   10.746      32.788
2015   12        3     3  19    4.5828   368.4   10.754      32.837
2015   12        3     3  25    4.5891   368.5   10.763      32.886
2015   12        3     3  32    4.5954   368.6   10.771      32.935
2015   12        3     3  39    4.6016   368.7   10.779      32.984
2015   12        3     3  46    4.6079   368.8   10.786      33.032
2015   12        3     3  53    4.6141   368.9   10.794      33.081
2015   12        3     3  59    4.6204   369.1   10.802      33.128
2015   12        3     4   6    4.6266   369.2   10.809      33.176
2015   12        3     4  13    4.6329   369.3   10.817      33.223
2015   12        3     4  20    4.6391   369.4   10.824      33.270
2015   12        3     4  27    4.6454   369.5   10.832      33.317
2015   12        3     4  33    4.6518   369.6   10.840      33.364
2015   12        3     4  40    4.6582   369.7   10.847      33.410
2015   12        3     4  47    4.6646   369.9   10.856      33.457
2015   12        3     4  54    4.6711   370.0   10.864      33.504
2015   12        3     5   0    4.6777   370.1   10.873      33.551
2015   12        3     5   7    4.6844   370.2   10.882      33.599
2015   12        3     5  14    4.6912   370.3   10.891      33.646
2015   12        3     5  21    4.6982   370.4   10.901      33.695
2015   12        3     5  28    4.7053   370.6   10.912      33.744
2015   12        3     5  34    4.7125   370.7   10.923      33.794
2015   12        3     5  41    4.7199   370.8   10.935      33.845
2015   12        3     5  48    4.7275   370.9   10.948      33.898
2015   12        3     5  55    4.7352   371.1   10.961      33.952
2015   12        3     6   2    4.7431   371.2   10.976      34.009
2015   12        3     6   8    4.7511   371.3   10.991      34.068
2015   12        3     6  15    4.7594   371.5   11.007      34.129
2015   12        3     6  22    4.7678   371.6   11.023      34.192
2015   12        3     6  29    4.7764   371.8   11.041      34.258
2015   12        3     6  36    4.7851   371.9   11.059      34.325
2015   12        3     6  42    4.7942   372.1   11.079      34.394
2015   12        3     6  49    4.8031   372.3   11.099      34.465
2015   12        3     6  56    4.8124   372.4   11.120      34.541
2015   12        3     7   3    4.8217   372.6   11.142      34.619
2015   12        3     7   9    4.8309   372.8   11.164      34.700
2015   12        3     7  16    4.8404   373.0   11.187      34.782
2015   12        3     7  23    4.8499   373.2   11.210      34.867
2015   12        3     7  30    4.8594   373.4   11.234      34.954
2015   12        3     7  37    4.8691   373.6   11.258      35.045
2015   12        3     7  43    4.8785   373.8   11.282      35.139
2015   12        3     7  50    4.8880   374.0   11.306      35.234
2015   12        3     7  57    4.8972   374.3   11.329      35.330
2015   12        3     8   4    4.9063   374.5   11.351      35.429
2015   12        3     8  11    4.9153   374.7   11.372      35.528
2015   12        3     8  17    4.9240   375.0   11.393      35.627
2015   12        3     8  24    4.9326   375.2   11.412      35.725
2015   12        3     8  31    4.9409   375.5   11.429      35.822
2015   12        3     8  38    4.9490   375.7   11.446      35.916
2015   12        3     8  44    4.9569   376.0   11.461      36.010
2015   12        3     8  51    4.9645   376.2   11.475      36.102
2015   12        3     8  58    4.9719   376.4   11.487      36.192
2015   12        3     9   5    4.9791   376.7   11.498      36.279
2015   12        3     9  12    4.9861   376.9   11.507      36.363
2015   12        3     9  18    4.9928   377.1   11.515      36.444
2015   12        3     9  25    4.9994   377.4   11.522      36.522
2015   12        3     9  32    5.0059   377.6   11.528      36.598
2015   12        3     9  39    5.0122   377.8   11.532      36.671
2015   12        3     9  46    5.0183   378.0   11.536      36.742
2015   12        3     9  52    5.0244   378.3   11.539      36.811
2015   12        3     9  59    5.0303   378.5   11.541      36.877
2015   12        3    10   6    5.0361   378.7   11.543      36.942
2015   12        3    10  13    5.0419   378.9   11.544      37.006
2015   12        3    10  19    5.0476   379.1   11.544      37.067
2015   12        3    10  26    5.0532   379.3   11.544      37.128
2015   12        3    10  33    5.0588   379.5   11.543      37.187
2015   12        3    10  40    5.0644   379.8   11.542      37.244
2015   12        3    10  47    5.0700   380.0   11.540      37.301
2015   12        3    10  53    5.0755   380.2   11.539      37.357
2015   12        3    11   0    5.0811   380.4   11.537      37.411
2015   12        3    11   7    5.0865   380.6   11.534      37.465
2015   12        3    11  14    5.0921   380.8   11.532      37.518
2015   12        3    11  21    5.0976   381.0   11.529      37.571
2015   12        3    11  27    5.1031   381.2   11.527      37.623
2015   12        3    11  34    5.1087   381.4   11.524      37.674
2015   12        3    11  41    5.1143   381.6   11.522      37.725
2015   12        3    11  48    5.1199   381.8   11.519      37.776
2015   12        3    11  55    5.1255   382.0   11.516      37.826
2015   12        3    12   1    5.1312   382.2   11.514      37.876
2015   12        3    12   8    5.1370   382.4   11.512      37.927
2015   12        3    12  15    5.1428   382.7   11.510      37.977
2015   12        3    12  22    5.1487   382.9   11.509      38.028
2015   12        3    12  28    5.1547   383.1   11.508      38.078
2015   12        3    12  35    5.1607   383.3   11.507      38.130
2015   12        3    12  42    5.1668   383.5   11.507      38.182
2015   12        3    12  49    5.1730   383.7   11.507      38.234
2015   12        3    12  56    5.1793   383.9   11.508      38.288
2015   12        3    13   2    5.1857   384.1   11.510      38.341
2015   12        3    13   9    5.1922   384.3   11.512      38.396
2015   12        3    13  16    5.1989   384.5   11.516      38.453
2015   12        3    13  23    5.2056   384.7   11.520      38.511
2015   12        3    13  30    5.2125   385.0   11.525      38.572
2015   12        3    13  36    5.2195   385.2   11.531      38.634
2015   12        3    13  43    5.2265   385.4   11.538      38.698
2015   12        3    13  50    5.2337   385.6   11.546      38.764
2015   12        3    13  57    5.2410   385.8   11.555      38.831
2015   12        3    14   3    5.2485   386.1   11.565      38.902
2015   12        3    14  10    5.2558   386.3   11.575      38.975
2015   12        3    14  17    5.2637   386.5   11.587      39.051
2015   12        3    14  24    5.2713   386.8   11.600      39.131
2015   12        3    14  31    5.2792   387.0   11.613      39.213
2015   12        3    14  37    5.2870   387.3   11.627      39.297
2015   12        3    14  44    5.2950   387.5   11.642      39.384
2015   12        3    14  51    5.3030   387.8   11.658      39.474
2015   12        3    14  58    5.3110   388.0   11.675      39.568
2015   12        3    15   5    5.3189   388.3   11.692      39.664
2015   12        3    15  11    5.3269   388.5   11.709      39.764
2015   12        3    15  18    5.3348   388.8   11.726      39.866
2015   12        3    15  25    5.3427   389.1   11.743      39.972
2015   12        3    15  32    5.3505   389.3   11.761      40.079
2015   12        3    15  38    5.3582   389.6   11.778      40.188
2015   12        3    15  45    5.3659   389.9   11.796      40.297
2015   12        3    15  52    5.3735   390.1   11.813      40.406
2015   12        3    15  59    5.3810   390.4   11.830      40.517
2015   12        3    16   6    5.3885   390.7   11.847      40.632
2015   12        3    16  12    5.3959   391.0   11.863      40.749
2015   12        3    16  19    5.4032   391.3   11.879      40.867
2015   12        3    16  26    5.4105   391.6   11.893      40.985
2015   12        3    16  33    5.4176   391.9   11.907      41.103
2015   12        3    16  40    5.4246   392.2   11.920      41.222
2015   12        3    16  46    5.4316   392.6   11.932      41.340
2015   12        3    16  53    5.4384   392.9   11.943      41.457
2015   12        3    17   0    5.4451   393.2   11.952      41.573
2015   12        3    17   7    5.4516   393.6   11.960      41.687
2015   12        3    17  14    5.4579   393.9   11.967      41.799
2015   12        3    17  20    5.4641   394.2   11.973      41.910
2015   12        3    17  27    5.4702   394.6   11.976      42.020
2015   12        3    17  34    5.4760   394.9   11.979      42.126
2015   12        3    17  41    5.4814   395.3   11.979      42.229
2015   12        3    17  47    5.4870   395.7   11.979      42.328
2015   12        3    17  54    5.4922   396.0   11.977      42.425
2015   12        3    18   1    5.4972   396.4   11.974      42.518
2015   12        3    18   8    5.5020   396.7   11.969      42.608
2015   12        3    18  15    5.5067   397.1   11.963      42.695
2015   12        3    18  21    5.5112   397.4   11.956      42.779
2015   12        3    18  28    5.5156   397.8   11.948      42.860
2015   12        3    18  35    5.5198   398.1   11.940      42.939
2015   12        3    18  42    5.5239   398.5   11.930      43.015
2015   12        3    18  49    5.5279   398.8   11.920      43.089
2015   12        3    18  55    5.5318   399.2   11.908      43.161
2015   12        3    19   2    5.5357   399.5   11.897      43.232
2015   12        3    19   9    5.5394   399.8   11.885      43.300
2015   12        3    19  16    5.5431   400.2   11.872      43.367
2015   12        3    19  22    5.5467   400.5   11.859      43.433
2015   12        3    19  29    5.5503   400.9   11.846      43.497
2015   12        3    19  36    5.5538   401.2   11.833      43.560
2015   12        3    19  43    5.5574   401.5   11.819      43.623
2015   12        3    19  50    5.5609   401.9   11.806      43.684
2015   12        3    19  56    5.5644   402.2   11.792      43.745
2015   12        3    20   3    5.5679   402.5   11.779      43.806
2015   12        3    20  10    5.5714   402.8   11.766      43.866
2015   12        3    20  17    5.5749   403.2   11.753      43.926
2015   12        3    20  24    5.5784   403.5   11.740      43.987
2015   12        3    20  30    5.5820   403.8   11.727      44.047
2015   12        3    20  37    5.5856   404.2   11.715      44.107
2015   12        3    20  44    5.5892   404.5   11.704      44.168
2015   12        3    20  51    5.5929   404.8   11.693      44.230
2015   12        3    20  57    5.5966   405.1   11.682      44.292
2015   12        3    21   4    5.6004   405.4   11.673      44.355
2015   12        3    21  11    5.6043   405.8   11.664      44.418
2015   12        3    21  18    5.6082   406.1   11.656      44.483
2015   12        3    21  25    5.6123   406.4   11.649      44.550
2015   12        3    21  31    5.6165   406.7   11.642      44.620
2015   12        3    21  38    5.6207   407.0   11.637      44.692
2015   12        3    21  45    5.6251   407.4   11.633      44.767
2015   12        3    21  52    5.6295   407.7   11.630      44.845
2015   12        3    21  59    5.6341   408.0   11.627      44.925
2015   12        3    22   5    5.6388   408.3   11.626      45.009
2015   12        3    22  12    5.6436   408.6   11.626      45.098
2015   12        3    22  19    5.6485   409.0   11.626      45.190
2015   12        3    22  26    5.6535   409.3   11.628      45.286
2015   12        3    22  33    5.6586   409.7   11.629      45.387
2015   12        3    22  39    5.6637   410.0   11.631      45.492
2015   12        3    22  46    5.6689   410.3   11.633      45.601
2015   12        3    22  53    5.6741   410.7   11.636      45.711
2015   12        3    23   0    5.6792   411.0   11.639      45.822
2015   12        3    23   6    5.6844   411.4   11.642      45.938
2015   12        3    23  13    5.6896   411.8   11.645      46.056
2015   12        3    23  20    5.6948   412.1   11.648      46.177
2015   12        3    23  27    5.6998   412.5   11.649      46.301
2015   12        3    23  34    5.7047   412.9   11.650      46.425
2015   12        3    23  40    5.7095   413.3   11.650      46.549
2015   12        3    23  47    5.7142   413.7   11.649      46.673
2015   12        3    23  54    5.7186   414.1   11.648      46.796
2015   12        4     0   1    5.7230   414.5   11.645      46.918
2015   12        4     0   8    5.7271   414.9   11.641      47.038
2015   12        4     0  14    5.7312   415.3   11.636      47.157
2015   12        4     0  21    5.7350   415.8   11.630      47.274
2015   12        4     0  28    5.7387   416.2   11.623      47.390
2015   12        4     0  35    5.7422   416.6   11.615      47.506
2015   12        4     0  41    5.7456   417.1   11.606      47.618
2015   12        4     0  48    5.7489   417.5   11.596      47.729
2015   12        4     0  55    5.7520   418.0   11.585      47.837
2015   12        4     1   2    5.7550   418.4   11.574      47.944
2015   12        4     1   9    5.7579   418.9   11.561      48.048
2015   12        4     1  15    5.7607   419.3   11.548      48.151
2015   12        4     1  22    5.7633   419.8   11.535      48.253
2015   12        4     1  29    5.7659   420.2   11.520      48.354
2015   12        4     1  36    5.7684   420.7   11.505      48.453
2015   12        4     1  43    5.7707   421.2   11.490      48.551
2015   12        4     1  49    5.7730   421.6   11.474      48.648
2015   12        4     1  56    5.7751   422.1   11.457      48.744
2015   12        4     2   3    5.7771   422.6   11.440      48.838
2015   12        4     2  10    5.7790   423.0   11.423      48.932
2015   12        4     2  16    5.7809   423.5   11.404      49.024
2015   12        4     2  23    5.7825   424.0   11.386      49.115
2015   12        4     2  30    5.7841   424.5   11.366      49.205
2015   12        4     2  37    5.7855   425.0   11.346      49.293
2015   12        4     2  44    5.7868   425.5   11.326      49.380
2015   12        4     2  50    5.7880   425.9   11.305      49.466
2015   12        4     2  57    5.7890   426.4   11.284      49.550
2015   12        4     3   4    5.7899   426.9   11.262      49.632
2015   12        4     3  11    5.7907   427.4   11.240      49.712
2015   12        4     3  18    5.7914   427.9   11.217      49.791
2015   12        4     3  24    5.7920   428.4   11.195      49.868
2015   12        4     3  31    5.7925   428.9   11.171      49.944
2015   12        4     3  38    5.7928   429.4   11.148      50.019
2015   12        4     3  45    5.7931   429.9   11.124      50.093
2015   12        4     3  51    5.7932   430.4   11.100      50.167
2015   12        4     3  58    5.7932   430.9   11.076      50.240
2015   12        4     4   5    5.7931   431.4   11.052      50.314
2015   12        4     4  12    5.7928   431.9   11.027      50.387
2015   12        4     4  19    5.7923   432.4   11.001      50.461
2015   12        4     4  25    5.7917   432.9   10.976      50.534
2015   12        4     4  32    5.7909   433.4   10.949      50.606
2015   12        4     4  39    5.7897   434.0   10.922      50.678
2015   12        4     4  46    5.7884   434.5   10.894      50.747
2015   12        4     4  53    5.7867   435.0   10.866      50.817
2015   12        4     4  59    5.7846   435.5   10.836      50.885
2015   12        4     5   6    5.7822   436.0   10.805      50.948
2015   12        4     5  13    5.7796   436.5   10.775      51.006
2015   12        4     5  20    5.7767   436.9   10.744      51.059
2015   12        4     5  27    5.7738   437.4   10.713      51.109
2015   12        4     5  33    5.7708   437.8   10.683      51.159
2015   12        4     5  40    5.7678   438.3   10.653      51.208
2015   12        4     5  47    5.7646   438.7   10.623      51.257
2015   12        4     5  54    5.7616   439.1   10.594      51.308
2015   12        4     6   0    5.7585   439.6   10.565      51.360
2015   12        4     6   7    5.7554   440.0   10.537      51.414
2015   12        4     6  14    5.7523   440.5   10.509      51.469
2015   12        4     6  21    5.7493   440.9   10.482      51.524
2015   12        4     6  28    5.7463   441.4   10.455      51.582
2015   12        4     6  34    5.7434   441.8   10.429      51.643
2015   12        4     6  41    5.7404   442.3   10.403      51.707
2015   12        4     6  48    5.7373   442.8   10.376      51.773
2015   12        4     6  55    5.7341   443.3   10.349      51.842
2015   12        4     7   2    5.7300   443.8   10.322      51.909
2015   12        4     7   8    5.7273   444.2   10.294      51.976
2015   12        4     7  15    5.7238   444.7   10.266      52.043
2015   12        4     7  22    5.7200   445.2   10.237      52.108
2015   12        4     7  29    5.7162   445.7   10.208      52.172
2015   12        4     7  35    5.7121   446.2   10.179      52.234
2015   12        4     7  42    5.7080   446.7   10.149      52.295
2015   12        4     7  49    5.7028   447.2   10.119      52.355
2015   12        4     7  56    5.6984   447.7   10.089      52.413
2015   12        4     8   3    5.6939   448.2   10.058      52.469
2015   12        4     8   9    5.6902   448.7   10.027      52.524
2015   12        4     8  16    5.6854   449.2    9.996      52.577
2015   12        4     8  23    5.6806   449.7    9.965      52.630
2015   12        4     8  30    5.6756   450.2    9.933      52.681
2015   12        4     8  37    5.6705   450.7    9.902      52.731
2015   12        4     8  43    5.6653   451.2    9.870      52.781
2015   12        4     8  50    5.6600   451.7    9.838      52.829
2015   12        4     8  57    5.6545   452.2    9.806      52.877
2015   12        4     9   4    5.6490   452.7    9.773      52.923
2015   12        4     9  10    5.6424   453.2    9.740      52.969
2015   12        4     9  17    5.6375   453.7    9.707      53.014
2015   12        4     9  24    5.6315   454.2    9.674      53.057
2015   12        4     9  31    5.6254   454.7    9.640      53.099
2015   12        4     9  38    5.6183   455.2    9.606      53.139
2015   12        4     9  44    5.6128   455.7    9.571      53.178
2015   12        4     9  51    5.6054   456.2    9.536      53.215
2015   12        4     9  58    5.5995   456.7    9.501      53.248
2015   12        4    10   5    5.5926   457.2    9.465      53.279
2015   12        4    10  12    5.5848   457.7    9.429      53.307
2015   12        4    10  18    5.5786   458.1    9.393      53.332
2015   12        4    10  25    5.5714   458.6    9.357      53.354
2015   12        4    10  32    5.5633   459.1    9.322      53.373
2015   12        4    10  39    5.5560   459.6    9.286      53.391
2015   12        4    10  46    5.5495   460.1    9.250      53.407
2015   12        4    10  52    5.5421   460.6    9.215      53.422
2015   12        4    10  59    5.5346   461.1    9.180      53.436
2015   12        4    11   6    5.5263   461.5    9.145      53.450
2015   12        4    11  13    5.5187   462.0    9.110      53.463
2015   12        4    11  19    5.5111   462.5    9.075      53.477
2015   12        4    11  26    5.5033   463.0    9.041      53.491
2015   12        4    11  33    5.4955   463.5    9.006      53.507
2015   12        4    11  40    5.4876   464.1    8.972      53.523
2015   12        4    11  47    5.4795   464.6    8.937      53.539
2015   12        4    11  53    5.4721   465.1    8.902      53.555
2015   12        4    12   0    5.4629   465.6    8.866      53.570
2015   12        4    12   7    5.4551   466.1    8.830      53.583
2015   12        4    12  14    5.4463   466.6    8.793      53.596
2015   12        4    12  21    5.4373   467.2    8.755      53.608
2015   12        4    12  27    5.4281   467.7    8.717      53.616
2015   12        4    12  34    5.4187   468.2    8.679      53.620
2015   12        4    12  41    5.4083   468.7    8.639      53.620
2015   12        4    12  48    5.3994   469.2    8.600      53.617
2015   12        4    12  54    5.3895   469.7    8.560      53.610
2015   12        4    13   1    5.3794   470.1    8.520      53.599
2015   12        4    13   8    5.3685   470.6    8.480      53.583
2015   12        4    13  15    5.3581   471.1    8.439      53.563
2015   12        4    13  22    5.3477   471.5    8.398      53.538
2015   12        4    13  28    5.3372   472.0    8.358      53.511
2015   12        4    13  35    5.3274   472.4    8.317      53.479
2015   12        4    13  42    5.3167   472.9    8.277      53.444
2015   12        4    13  49    5.3053   473.3    8.237      53.404
2015   12        4    13  56    5.2946   473.7    8.197      53.361
2015   12        4    14   2    5.2840   474.1    8.158      53.316
2015   12        4    14   9    5.2734   474.5    8.119      53.269
2015   12        4    14  16    5.2629   474.9    8.081      53.222
2015   12        4    14  23    5.2523   475.3    8.044      53.173
2015   12        4    14  29    5.2419   475.7    8.006      53.124
2015   12        4    14  36    5.2314   476.1    7.970      53.073
2015   12        4    14  43    5.2211   476.5    7.933      53.021
2015   12        4    14  50    5.2108   476.8    7.898      52.969
2015   12        4    14  57    5.2007   477.2    7.863      52.916
2015   12        4    15   3    5.1905   477.6    7.828      52.862
2015   12        4    15  10    5.1805   477.9    7.795      52.809
2015   12        4    15  17    5.1706   478.3    7.761      52.755
2015   12        4    15  24    5.1607   478.6    7.729      52.701
2015   12        4    15  31    5.1516   479.0    7.696      52.647
2015   12        4    15  37    5.1412   479.3    7.665      52.595
2015   12        4    15  44    5.1316   479.7    7.634      52.543
2015   12        4    15  51    5.1220   480.0    7.604      52.493
2015   12        4    15  58    5.1124   480.4    7.575      52.444
2015   12        4    16   4    5.1029   480.8    7.545      52.396
2015   12        4    16  11    5.0934   481.1    7.517      52.349
2015   12        4    16  18    5.0839   481.5    7.488      52.303
2015   12        4    16  25    5.0743   481.9    7.460      52.258
2015   12        4    16  32    5.0648   482.2    7.432      52.214
2015   12        4    16  38    5.0551   482.6    7.405      52.171
2015   12        4    16  45    5.0453   482.9    7.377      52.127
2015   12        4    16  52    5.0354   483.3    7.349      52.083
2015   12        4    16  59    5.0255   483.7    7.321      52.037
2015   12        4    17   6    5.0154   484.0    7.293      51.991
2015   12        4    17  12    5.0052   484.4    7.265      51.943
2015   12        4    17  19    4.9949   484.7    7.237      51.893
2015   12        4    17  26    4.9845   485.0    7.208      51.839
2015   12        4    17  33    4.9739   485.4    7.180      51.782
2015   12        4    17  40    4.9638   485.7    7.151      51.722
2015   12        4    17  46    4.9531   486.0    7.122      51.659
2015   12        4    17  53    4.9420   486.3    7.094      51.593
2015   12        4    18   0    4.9312   486.6    7.066      51.525
2015   12        4    18   7    4.9205   486.9    7.037      51.454
2015   12        4    18  13    4.9096   487.2    7.009      51.382
2015   12        4    18  20    4.8988   487.5    6.982      51.309
2015   12        4    18  27    4.8880   487.8    6.954      51.233
2015   12        4    18  34    4.8771   488.0    6.927      51.156
2015   12        4    18  41    4.8663   488.3    6.900      51.077
2015   12        4    18  47    4.8554   488.6    6.874      50.996
2015   12        4    18  54    4.8446   488.8    6.847      50.916
2015   12        4    19   1    4.8338   489.1    6.822      50.835
2015   12        4    19   8    4.8230   489.3    6.796      50.754
2015   12        4    19  15    4.8123   489.6    6.771      50.672
2015   12        4    19  21    4.8015   489.8    6.746      50.589
2015   12        4    19  28    4.7908   490.1    6.721      50.507
2015   12        4    19  35    4.7802   490.3    6.696      50.424
2015   12        4    19  42    4.7696   490.6    6.672      50.340
2015   12        4    19  48    4.7590   490.8    6.648      50.256
2015   12        4    19  55    4.7485   491.0    6.624      50.172
2015   12        4    20   2    4.7381   491.2    6.601      50.088
2015   12        4    20   9    4.7277   491.5    6.578      50.004
2015   12        4    20  16    4.7175   491.7    6.555      49.920
2015   12        4    20  22    4.7072   491.9    6.532      49.836
2015   12        4    20  29    4.6971   492.1    6.510      49.752
2015   12        4    20  36    4.6872   492.2    6.488      49.668
2015   12        4    20  43    4.6773   492.4    6.467      49.585
2015   12        4    20  50    4.6674   492.6    6.446      49.502
2015   12        4    20  56    4.6579   492.8    6.425      49.419
2015   12        4    21   3    4.6483   492.9    6.404      49.337
2015   12        4    21  10    4.6387   493.1    6.384      49.255
2015   12        4    21  17    4.6295   493.2    6.365      49.174
2015   12        4    21  23    4.6204   493.4    6.345      49.094
2015   12        4    21  30    4.6112   493.5    6.326      49.015
2015   12        4    21  37    4.6023   493.7    6.308      48.936
2015   12        4    21  44    4.5934   493.8    6.289      48.858
2015   12        4    21  51    4.5846   493.9    6.271      48.781
2015   12        4    21  57    4.5756   494.1    6.253      48.704
2015   12        4    22   4    4.5673   494.2    6.236      48.627
2015   12        4    22  11    4.5585   494.3    6.218      48.552
2015   12        4    22  18    4.5503   494.5    6.201      48.477
2015   12        4    22  25    4.5419   494.6    6.185      48.403
2015   12        4    22  31    4.5333   494.7    6.168      48.329
2015   12        4    22  38    4.5253   494.9    6.152      48.255
2015   12        4    22  45    4.5171   495.0    6.135      48.182
2015   12        4    22  52    4.5089   495.1    6.119      48.109
2015   12        4    22  59    4.5008   495.3    6.104      48.036
2015   12        4    23   5    4.4924   495.4    6.088      47.964
2015   12        4    23  12    4.4844   495.5    6.073      47.891
2015   12        4    23  19    4.4767   495.6    6.058      47.818
2015   12        4    23  26    4.4685   495.8    6.043      47.746
2015   12        4    23  32    4.4606   495.9    6.028      47.674
2015   12        4    23  39    4.4528   496.0    6.014      47.602
2015   12        4    23  46    4.4454   496.1    5.999      47.530
2015   12        4    23  53    4.4377   496.2    5.986      47.460
2015   12        5     0   0    4.4301   496.3    5.972      47.389
2015   12        5     0   6    4.4222   496.4    5.959      47.320
2015   12        5     0  13    4.4151   496.5    5.946      47.251
2015   12        5     0  20    4.4078   496.6    5.933      47.183
2015   12        5     0  27    4.4005   496.6    5.921      47.117
2015   12        5     0  34    4.3933   496.7    5.909      47.052
2015   12        5     0  40    4.3862   496.8    5.897      46.988
2015   12        5     0  47    4.3792   496.9    5.886      46.926
2015   12        5     0  54    4.3719   496.9    5.875      46.865
2015   12        5     1   1    4.3651   497.0    5.864      46.806
2015   12        5     1   7    4.3588   497.1    5.853      46.748
2015   12        5     1  14    4.3522   497.1    5.843      46.691
2015   12        5     1  21    4.3457   497.2    5.833      46.636
2015   12        5     1  28    4.3392   497.2    5.824      46.583
2015   12        5     1  35    4.3328   497.3    5.814      46.530
2015   12        5     1  41    4.3266   497.3    5.805      46.479
2015   12        5     1  48    4.3203   497.4    5.796      46.428
2015   12        5     1  55    4.3137   497.4    5.787      46.377
2015   12        5     2   2    4.3076   497.5    5.779      46.328
2015   12        5     2   9    4.3017   497.5    5.770      46.279
2015   12        5     2  15    4.2962   497.6    5.762      46.231
2015   12        5     2  22    4.2898   497.6    5.754      46.183
2015   12        5     2  29    4.2840   497.7    5.745      46.135
2015   12        5     2  36    4.2782   497.7    5.737      46.088
2015   12        5     2  42    4.2730   497.8    5.729      46.041
2015   12        5     2  49    4.2674   497.8    5.721      45.994
2015   12        5     2  56    4.2618   497.9    5.713      45.948
2015   12        5     3   3    4.2557   497.9    5.705      45.902
2015   12        5     3  10    4.2507   498.0    5.698      45.856
2015   12        5     3  16    4.2452   498.0    5.690      45.811
2015   12        5     3  23    4.2393   498.1    5.682      45.766
2015   12        5     3  30    4.2339   498.1    5.674      45.721
2015   12        5     3  37    4.2285   498.2    5.667      45.677
2015   12        5     3  44    4.2237   498.2    5.659      45.633
2015   12        5     3  50    4.2184   498.2    5.652      45.589
2015   12        5     3  57    4.2132   498.3    5.644      45.545
2015   12        5     4   4    4.2080   498.3    5.637      45.501
2015   12        5     4  11    4.2023   498.4    5.630      45.457
2015   12        5     4  17    4.1977   498.4    5.622      45.413
2015   12        5     4  24    4.1926   498.4    5.615      45.369
2015   12        5     4  31    4.1875   498.4    5.608      45.325
2015   12        5     4  38    4.1820   498.5    5.601      45.281
2015   12        5     4  45    4.1771   498.5    5.594      45.238
2015   12        5     4  51    4.1726   498.5    5.587      45.194
2015   12        5     4  58    4.1673   498.6    5.579      45.151
2015   12        5     5   5    4.1629   498.6    5.572      45.107
2015   12        5     5  12    4.1581   498.6    5.566      45.064
2015   12        5     5  19    4.1534   498.6    5.559      45.022
2015   12        5     5  25    4.1487   498.7    5.552      44.979
2015   12        5     5  32    4.1440   498.7    5.545      44.936
2015   12        5     5  39    4.1394   498.7    5.538      44.893
2015   12        5     5  46    4.1349   498.7    5.531      44.851
2015   12        5     5  53    4.1303   498.8    5.525      44.808
2015   12        5     5  59    4.1254   498.8    5.518      44.766
2015   12        5     6   6    4.1214   498.8    5.512      44.724
2015   12        5     6  13    4.1166   498.8    5.505      44.681
2015   12        5     6  20    4.1127   498.8    5.499      44.639
2015   12        5     6  26    4.1081   498.8    5.493      44.597
2015   12        5     6  33    4.1042   498.9    5.487      44.555
2015   12        5     6  40    4.0996   498.9    5.481      44.514
2015   12        5     6  47    4.0959   498.9    5.475      44.472
2015   12        5     6  54    4.0914   498.9    5.469      44.431
2015   12        5     7   0    4.0878   498.9    5.463      44.390
2015   12        5     7   7    4.0835   498.9    5.458      44.349
2015   12        5     7  14    4.0795   498.9    5.452      44.309
2015   12        5     7  21    4.0757   498.9    5.447      44.269
2015   12        5     7  28    4.0722   498.9    5.442      44.230
2015   12        5     7  34    4.0685   498.9    5.437      44.191
2015   12        5     7  41    4.0648   498.9    5.432      44.154
2015   12        5     7  48    4.0607   498.9    5.427      44.117
2015   12        5     7  55    4.0571   498.9    5.423      44.080
2015   12        5     8   1    4.0539   498.9    5.418      44.045
2015   12        5     8   8    4.0500   498.9    5.414      44.011
2015   12        5     8  15    4.0466   498.9    5.410      43.977
2015   12        5     8  22    4.0435   498.9    5.406      43.945
2015   12        5     8  29    4.0398   498.9    5.402      43.913
2015   12        5     8  35    4.0365   498.9    5.398      43.883
2015   12        5     8  42    4.0335   498.9    5.395      43.853
2015   12        5     8  49    4.0299   498.9    5.391      43.824
2015   12        5     8  56    4.0271   498.9    5.387      43.796
2015   12        5     9   3    4.0235   498.9    5.384      43.768
2015   12        5     9   9    4.0207   498.9    5.381      43.741
2015   12        5     9  16    4.0176   498.9    5.377      43.715
2015   12        5     9  23    4.0145   498.9    5.374      43.689
2015   12        5     9  30    4.0114   498.9    5.371      43.663
2015   12        5     9  36    4.0084   498.8    5.368      43.638
2015   12        5     9  43    4.0054   498.8    5.365      43.613
2015   12        5     9  50    4.0021   498.8    5.362      43.589
2015   12        5     9  57    3.9995   498.8    5.358      43.564
2015   12        5    10   4    3.9966   498.8    5.355      43.540
2015   12        5    10  10    3.9937   498.8    5.352      43.516
2015   12        5    10  17    3.9906   498.8    5.349      43.492
2015   12        5    10  24    3.9878   498.8    5.346      43.468
2015   12        5    10  31    3.9854   498.8    5.343      43.445
2015   12        5    10  38    3.9826   498.8    5.340      43.421
2015   12        5    10  44    3.9799   498.8    5.337      43.398
2015   12        5    10  51    3.9769   498.8    5.334      43.375
2015   12        5    10  58    3.9746   498.8    5.331      43.352
2015   12        5    11   5    3.9716   498.8    5.328      43.329
2015   12        5    11  11    3.9690   498.7    5.325      43.306
2015   12        5    11  18    3.9665   498.7    5.322      43.284
2015   12        5    11  25    3.9639   498.7    5.320      43.262
2015   12        5    11  32    3.9617   498.7    5.317      43.239
2015   12        5    11  39    3.9589   498.7    5.314      43.217
2015   12        5    11  45    3.9565   498.7    5.311      43.196
2015   12        5    11  52    3.9543   498.7    5.309      43.174
2015   12        5    11  59    3.9516   498.7    5.306      43.152
2015   12        5    12   6    3.9496   498.7    5.303      43.131
2015   12        5    12  13    3.9472   498.7    5.301      43.110
2015   12        5    12  19    3.9449   498.6    5.298      43.089
2015   12        5    12  26    3.9426   498.6    5.296      43.069
2015   12        5    12  33    3.9404   498.6    5.294      43.049
2015   12        5    12  40    3.9381   498.6    5.292      43.029
2015   12        5    12  47    3.9356   498.6    5.289      43.009
2015   12        5    12  53    3.9337   498.6    5.287      42.990
2015   12        5    13   0    3.9313   498.6    5.285      42.971
2015   12        5    13   7    3.9292   498.5    5.283      42.952
2015   12        5    13  14    3.9274   498.5    5.282      42.934
2015   12        5    13  20    3.9251   498.5    5.280      42.915
2015   12        5    13  27    3.9234   498.5    5.278      42.898
2015   12        5    13  34    3.9211   498.5    5.276      42.880
2015   12        5    13  41    3.9194   498.5    5.275      42.862
2015   12        5    13  48    3.9175   498.5    5.273      42.845
2015   12        5    13  54    3.9153   498.4    5.272      42.828
2015   12        5    14   1    3.9137   498.4    5.270      42.812
2015   12        5    14   8    3.9119   498.4    5.269      42.795
2015   12        5    14  15    3.9101   498.4    5.267      42.779
2015   12        5    14  21    3.9084   498.4    5.266      42.763
2015   12        5    14  28    3.9067   498.4    5.265      42.747
2015   12        5    14  35    3.9050   498.3    5.263      42.731
2015   12        5    14  42    3.9033   498.3    5.262      42.716
2015   12        5    14  49    3.9017   498.3    5.261      42.701
2015   12        5    14  55    3.8999   498.3    5.260      42.686
2015   12        5    15   2    3.8986   498.3    5.259      42.671
2015   12        5    15   9    3.8968   498.2    5.257      42.656
2015   12        5    15  16    3.8953   498.2    5.256      42.641
2015   12        5    15  23    3.8941   498.2    5.255      42.627
2015   12        5    15  29    3.8926   498.2    5.254      42.613
2015   12        5    15  36    3.8912   498.2    5.253      42.599
2015   12        5    15  43    3.8896   498.2    5.252      42.585
2015   12        5    15  50    3.8884   498.1    5.251      42.571
2015   12        5    15  57    3.8869   498.1    5.250      42.558
2015   12        5    16   3    3.8855   498.1    5.249      42.545
2015   12        5    16  10    3.8845   498.1    5.248      42.532
2015   12        5    16  17    3.8832   498.1    5.247      42.519
2015   12        5    16  24    3.8817   498.1    5.246      42.506
2015   12        5    16  30    3.8806   498.0    5.245      42.494
2015   12        5    16  37    3.8794   498.0    5.244      42.482
2015   12        5    16  44    3.8782   498.0    5.243      42.470
2015   12        5    16  51    3.8768   498.0    5.242      42.458
2015   12        5    16  58    3.8756   498.0    5.241      42.447
2015   12        5    17   4    3.8746   498.0    5.241      42.435
2015   12        5    17  11    3.8735   497.9    5.240      42.424
2015   12        5    17  18    3.8721   497.9    5.239      42.413
2015   12        5    17  25    3.8712   497.9    5.238      42.403
2015   12        5    17  32    3.8699   497.9    5.237      42.392
2015   12        5    17  38    3.8688   497.9    5.237      42.382
2015   12        5    17  45    3.8679   497.9    5.236      42.372
2015   12        5    17  52    3.8669   497.8    5.235      42.362
2015   12        5    17  59    3.8656   497.8    5.234      42.353
2015   12        5    18   5    3.8648   497.8    5.234      42.343
2015   12        5    18  12    3.8637   497.8    5.233      42.334
2015   12        5    18  19    3.8627   497.8    5.232      42.325
2015   12        5    18  26    3.8617   497.8    5.232      42.316
2015   12        5    18  33    3.8608   497.8    5.231      42.308
2015   12        5    18  39    3.8598   497.7    5.230      42.299
2015   12        5    18  46    3.8587   497.7    5.230      42.291
2015   12        5    18  53    3.8579   497.7    5.229      42.283
2015   12        5    19   0    3.8570   497.7    5.229      42.275
2015   12        5    19   7    3.8561   497.7    5.228      42.268
2015   12        5    19  13    3.8551   497.7    5.228      42.261
2015   12        5    19  20    3.8544   497.7    5.227      42.253
2015   12        5    19  27    3.8535   497.6    5.227      42.246
2015   12        5    19  34    3.8527   497.6    5.226      42.240
2015   12        5    19  40    3.8519   497.6    5.226      42.233
2015   12        5    19  47    3.8511   497.6    5.225      42.227
2015   12        5    19  54    3.8502   497.6    5.225      42.221
2015   12        5    20   1    3.8496   497.6    5.225      42.215
2015   12        5    20   8    3.8489   497.6    5.225      42.209
2015   12        5    20  14    3.8481   497.5    5.224      42.204
2015   12        5    20  21    3.8474   497.5    5.224      42.199
2015   12        5    20  28    3.8468   497.5    5.224      42.194
2015   12        5    20  35    3.8461   497.5    5.224      42.189
2015   12        5    20  42    3.8455   497.5    5.224      42.184
2015   12        5    20  48    3.8449   497.5    5.224      42.180
2015   12        5    20  55    3.8443   497.5    5.223      42.175
2015   12        5    21   2    3.8437   497.4    5.223      42.171
2015   12        5    21   9    3.8432   497.4    5.223      42.167
2015   12        5    21  15    3.8426   497.4    5.223      42.164
2015   12        5    21  22    3.8421   497.4    5.224      42.160
2015   12        5    21  29    3.8416   497.4    5.224      42.157
2015   12        5    21  36    3.8411   497.4    5.224      42.153
2015   12        5    21  43    3.8405   497.4    5.224      42.150
2015   12        5    21  49    3.8402   497.4    5.224      42.147
2015   12        5    21  56    3.8398   497.3    5.224      42.144
2015   12        5    22   3    3.8394   497.3    5.224      42.141
2015   12        5    22  10    3.8389   497.3    5.225      42.138
2015   12        5    22  17    3.8386   497.3    5.225      42.136
2015   12        5    22  23    3.8384   497.3    5.225      42.133
2015   12        5    22  30    3.8380   497.3    5.225      42.131
2015   12        5    22  37    3.8376   497.3    5.226      42.128
2015   12        5    22  44    3.8375   497.3    5.226      42.126
2015   12        5    22  51    3.8372   497.3    5.226      42.124
2015   12        5    22  57    3.8368   497.2    5.227      42.123
2015   12        5    23   4    3.8366   497.2    5.227      42.121
2015   12        5    23  11    3.8365   497.2    5.228      42.119
2015   12        5    23  18    3.8363   497.2    5.228      42.118
2015   12        5    23  24    3.8361   497.2    5.229      42.117
2015   12        5    23  31    3.8359   497.2    5.229      42.116
2015   12        5    23  38    3.8356   497.2    5.230      42.115
2015   12        5    23  45    3.8356   497.2    5.230      42.114
2015   12        5    23  52    3.8354   497.2    5.231      42.114
2015   12        5    23  58    3.8352   497.2    5.231      42.113
2015   12        6     0   5    3.8352   497.2    5.232      42.113
2015   12        6     0  12    3.8349   497.2    5.232      42.113
2015   12        6     0  19    3.8349   497.1    5.233      42.113
2015   12        6     0  26    3.8347   497.1    5.233      42.113
2015   12        6     0  32    3.8346   497.1    5.234      42.114
2015   12        6     0  39    3.8345   497.1    5.235      42.114
2015   12        6     0  46    3.8344   497.1    5.235      42.115
2015   12        6     0  53    3.8343   497.1    5.236      42.116
2015   12        6     0  59    3.8342   497.1    5.236      42.117
2015   12        6     1   6    3.8340   497.1    5.237      42.118
2015   12        6     1  13    3.8339   497.1    5.237      42.120
2015   12        6     1  20    3.8338   497.1    5.237      42.121
2015   12        6     1  27    3.8337   497.1    5.238      42.122
2015   12        6     1  33    3.8336   497.1    5.238      42.124
2015   12        6     1  40    3.8335   497.1    5.238      42.125
2015   12        6     1  47    3.8335   497.1    5.239      42.127
2015   12        6     1  54    3.8333   497.1    5.239      42.128
2015   12        6     2   1    3.8333   497.1    5.239      42.129
2015   12        6     2   7    3.8333   497.1    5.240      42.131
2015   12        6     2  14    3.8331   497.1    5.240      42.132
2015   12        6     2  21    3.8331   497.1    5.240      42.134
2015   12        6     2  28    3.8331   497.1    5.241      42.135
2015   12        6     2  34    3.8331   497.1    5.241      42.137
2015   12        6     2  41    3.8330   497.1    5.241      42.139
2015   12        6     2  48    3.8331   497.1    5.242      42.140
2015   12        6     2  55    3.8330   497.1    5.242      42.142
2015   12        6     3   2    3.8331   497.1    5.242      42.144
2015   12        6     3   8    3.8331   497.1    5.243      42.147
2015   12        6     3  15    3.8331   497.1    5.243      42.149
2015   12        6     3  22    3.8332   497.1    5.244      42.152
2015   12        6     3  29    3.8333   497.1    5.244      42.154
2015   12        6     3  36    3.8333   497.1    5.245      42.157
2015   12        6     3  42    3.8335   497.1    5.245      42.161
2015   12        6     3  49    3.8337   497.1    5.246      42.164
2015   12        6     3  56    3.8338   497.1    5.247      42.168
2015   12        6     4   3    3.8340   497.1    5.247      42.173
2015   12        6     4   9    3.8342   497.1    5.248      42.177
2015   12        6     4  16    3.8343   497.2    5.249      42.182
2015   12        6     4  23    3.8346   497.2    5.250      42.187
2015   12        6     4  30    3.8348   497.2    5.251      42.193
2015   12        6     4  37    3.8351   497.2    5.252      42.199
2015   12        6     4  43    3.8354   497.2    5.253      42.205
2015   12        6     4  50    3.8356   497.2    5.254      42.211
2015   12        6     4  57    3.8360   497.2    5.255      42.218
2015   12        6     5   4    3.8364   497.2    5.256      42.225
2015   12        6     5  11    3.8367   497.2    5.258      42.233
2015   12        6     5  17    3.8371   497.2    5.259      42.242
2015   12        6     5  24    3.8375   497.2    5.261      42.251
2015   12        6     5  31    3.8379   497.3    5.262      42.261
2015   12        6     5  38    3.8384   497.3    5.263      42.271
2015   12        6     5  44    3.8388   497.3    5.265      42.282
2015   12        6     5  51    3.8392   497.3    5.266      42.293
2015   12        6     5  58    3.8396   497.3    5.268      42.304
2015   12        6     6   5    3.8400   497.3    5.269      42.316
2015   12        6     6  12    3.8404   497.4    5.271      42.327
2015   12        6     6  18    3.8409   497.4    5.272      42.339
2015   12        6     6  25    3.8413   497.4    5.274      42.351
2015   12        6     6  32    3.8417   497.4    5.275      42.363
2015   12        6     6  39    3.8422   497.4    5.276      42.375
2015   12        6     6  46    3.8425   497.5    5.278      42.387
2015   12        6     6  52    3.8430   497.5    5.279      42.400
2015   12        6     6  59    3.8434   497.5    5.280      42.412
2015   12        6     7   6    3.8438   497.5    5.282      42.424
2015   12        6     7  13    3.8442   497.6    5.283      42.436
2015   12        6     7  20    3.8446   497.6    5.284      42.448
2015   12        6     7  26    3.8450   497.6    5.285      42.461
2015   12        6     7  33    3.8453   497.6    5.286      42.472
2015   12        6     7  40    3.8457   497.7    5.287      42.484
2015   12        6     7  47    3.8461   497.7    5.288      42.496
2015   12        6     7  53    3.8464   497.7    5.289      42.508
2015   12        6     8   0    3.8468   497.7    5.290      42.519
2015   12        6     8   7    3.8471   497.8    5.291      42.530
2015   12        6     8  14    3.8474   497.8    5.292      42.541
2015   12        6     8  21    3.8478   497.8    5.293      42.553
2015   12        6     8  27    3.8481   497.8    5.294      42.564
2015   12        6     8  34    3.8484   497.9    5.294      42.574
2015   12        6     8  41    3.8487   497.9    5.295      42.585
2015   12        6     8  48    3.8490   497.9    5.296      42.596
2015   12        6     8  55    3.8493   498.0    5.296      42.606
2015   12        6     9   1    3.8496   498.0    5.297      42.617
2015   12        6     9   8    3.8499   498.0    5.297      42.627
2015   12        6     9  15    3.8502   498.0    5.298      42.638
2015   12        6     9  22    3.8504   498.1    5.298      42.648
2015   12        6     9  28    3.8508   498.1    5.299      42.659
2015   12        6     9  35    3.8510   498.1    5.299      42.669
2015   12        6     9  42    3.8514   498.2    5.300      42.679
2015   12        6     9  49    3.8517   498.2    5.300      42.690
2015   12        6     9  56    3.8519   498.2    5.301      42.700
2015   12        6    10   2    3.8523   498.3    5.301      42.711
2015   12        6    10   9    3.8525   498.3    5.301      42.722
2015   12        6    10  16    3.8529   498.3    5.302      42.733
2015   12        6    10  23    3.8532   498.4    5.302      42.743
2015   12        6    10  30    3.8535   498.4    5.303      42.755
2015   12        6    10  36    3.8539   498.4    5.304      42.766
2015   12        6    10  43    3.8542   498.5    5.304      42.778
2015   12        6    10  50    3.8546   498.5    5.305      42.789
2015   12        6    10  57    3.8550   498.5    5.305      42.801
2015   12        6    11   3    3.8554   498.6    5.306      42.814
2015   12        6    11  10    3.8557   498.6    5.307      42.826
2015   12        6    11  17    3.8561   498.6    5.308      42.839
2015   12        6    11  24    3.8566   498.7    5.308      42.852
2015   12        6    11  31    3.8570   498.7    5.309      42.865
2015   12        6    11  37    3.8574   498.7    5.310      42.879
2015   12        6    11  44    3.8579   498.8    5.311      42.893
2015   12        6    11  51    3.8584   498.8    5.312      42.908
2015   12        6    11  58    3.8589   498.9    5.313      42.923
2015   12        6    12   5    3.8594   498.9    5.314      42.938
2015   12        6    12  11    3.8599   498.9    5.315      42.954
2015   12        6    12  18    3.8605   499.0    5.316      42.970
2015   12        6    12  25    3.8610   499.0    5.318      42.986
2015   12        6    12  32    3.8616   499.1    5.319      43.003
2015   12        6    12  38    3.8621   499.1    5.320      43.021
2015   12        6    12  45    3.8627   499.2    5.321      43.039
2015   12        6    12  52    3.8632   499.2    5.322      43.057
2015   12        6    12  59    3.8638   499.3    5.324      43.076
2015   12        6    13   6    3.8643   499.3    5.325      43.095
2015   12        6    13  12    3.8649   499.4    5.326      43.114
2015   12        6    13  19    3.8654   499.4    5.327      43.133
2015   12        6    13  26    3.8659   499.5    5.328      43.152
2015   12        6    13  33    3.8664   499.5    5.329      43.171
2015   12        6    13  40    3.8670   499.6    5.330      43.190
2015   12        6    13  46    3.8675   499.6    5.331      43.209
2015   12        6    13  53    3.8680   499.7    5.332      43.227
2015   12        6    14   0    3.8685   499.7    5.333      43.246
2015   12        6    14   7    3.8689   499.8    5.334      43.264
2015   12        6    14  13    3.8694   499.8    5.335      43.282
2015   12        6    14  20    3.8699   499.9    5.335      43.300
2015   12        6    14  27    3.8704   500.0    5.336      43.318
2015   12        6    14  34    3.8708   500.0    5.337      43.336
2015   12        6    14  41    3.8713   500.1    5.337      43.354
2015   12        6    14  47    3.8717   500.1    5.338      43.371
2015   12        6    14  54    3.8722   500.2    5.339      43.389
2015   12        6    15   1    3.8726   500.2    5.339      43.406
2015   12        6    15   8    3.8730   500.3    5.340      43.423
2015   12        6    15  15    3.8735   500.3    5.341      43.440
2015   12        6    15  21    3.8739   500.4    5.341      43.457
2015   12        6    15  28    3.8742   500.5    5.342      43.474
2015   12        6    15  35    3.8747   500.5    5.343      43.490
2015   12        6    15  42    3.8750   500.6    5.343      43.507
2015   12        6    15  49    3.8754   500.6    5.344      43.523
2015   12        6    15  55    3.8758   500.7    5.345      43.540
2015   12        6    16   2    3.8761   500.8    5.346      43.556
2015   12        6    16   9    3.8765   500.8    5.346      43.573
2015   12        6    16  16    3.8768   500.9    5.347      43.590
2015   12        6    16  22    3.8771   500.9    5.348      43.607
2015   12        6    16  29    3.8775   501.0    5.349      43.625
2015   12        6    16  36    3.8778   501.1    5.350      43.643
2015   12        6    16  43    3.8781   501.1    5.351      43.662
2015   12        6    16  50    3.8784   501.2    5.352      43.682
2015   12        6    16  56    3.8788   501.3    5.353      43.702
2015   12        6    17   3    3.8790   501.3    5.354      43.722
2015   12        6    17  10    3.8793   501.4    5.354      43.743
2015   12        6    17  17    3.8796   501.5    5.355      43.765
2015   12        6    17  24    3.8799   501.6    5.356      43.787
2015   12        6    17  30    3.8802   501.6    5.356      43.809
2015   12        6    17  37    3.8804   501.7    5.357      43.831
2015   12        6    17  44    3.8807   501.8    5.357      43.853
2015   12        6    17  51    3.8809   501.9    5.357      43.875
2015   12        6    17  57    3.8811   501.9    5.357      43.897
2015   12        6    18   4    3.8813   502.0    5.358      43.919
2015   12        6    18  11    3.8816   502.1    5.358      43.941
2015   12        6    18  18    3.8818   502.2    5.358      43.963
2015   12        6    18  25    3.8820   502.3    5.357      43.985
2015   12        6    18  31    3.8822   502.3    5.357      44.007
2015   12        6    18  38    3.8825   502.4    5.357      44.028
2015   12        6    18  45    3.8827   502.5    5.357      44.049
2015   12        6    18  52    3.8829   502.6    5.356      44.070
2015   12        6    18  59    3.8832   502.7    5.356      44.090
2015   12        6    19   5    3.8834   502.8    5.356      44.111
2015   12        6    19  12    3.8836   502.8    5.355      44.131
2015   12        6    19  19    3.8839   502.9    5.355      44.151
2015   12        6    19  26    3.8841   503.0    5.354      44.172
2015   12        6    19  32    3.8843   503.1    5.353      44.191
2015   12        6    19  39    3.8845   503.2    5.353      44.211
2015   12        6    19  46    3.8848   503.3    5.352      44.230
2015   12        6    19  53    3.8850   503.3    5.351      44.249
2015   12        6    20   0    3.8852   503.4    5.350      44.268
2015   12        6    20   6    3.8854   503.5    5.350      44.287
2015   12        6    20  13    3.8855   503.6    5.349      44.305
2015   12        6    20  20    3.8857   503.7    5.348      44.323
2015   12        6    20  27    3.8859   503.8    5.347      44.341
2015   12        6    20  34    3.8861   503.8    5.346      44.359
2015   12        6    20  40    3.8863   503.9    5.345      44.376
2015   12        6    20  47    3.8864   504.0    5.344      44.393
2015   12        6    20  54    3.8866   504.1    5.343      44.411
2015   12        6    21   1    3.8868   504.2    5.342      44.428
2015   12        6    21   7    3.8870   504.3    5.342      44.445
2015   12        6    21  14    3.8871   504.4    5.341      44.462
2015   12        6    21  21    3.8872   504.4    5.340      44.479
2015   12        6    21  28    3.8874   504.5    5.339      44.496
2015   12        6    21  35    3.8875   504.6    5.338      44.513
2015   12        6    21  41    3.8876   504.7    5.337      44.529
2015   12        6    21  48    3.8876   504.8    5.336      44.545
2015   12        6    21  55    3.8877   504.9    5.335      44.561
2015   12        6    22   2    3.8877   505.0    5.334      44.577
2015   12        6    22   9    3.8878   505.0    5.333      44.593
2015   12        6    22  15    3.8878   505.1    5.332      44.609
2015   12        6    22  22    3.8877   505.2    5.331      44.625
2015   12        6    22  29    3.8876   505.3    5.331      44.641
2015   12        6    22  36    3.8876   505.4    5.330      44.657
2015   12        6    22  42    3.8875   505.5    5.329      44.672
2015   12        6    22  49    3.8873   505.6    5.328      44.688
2015   12        6    22  56    3.8871   505.7    5.327      44.704
2015   12        6    23   3    3.8869   505.8    5.326      44.719
2015   12        6    23  10    3.8866   505.9    5.325      44.735
2015   12        6    23  16    3.8862   506.0    5.324      44.750
2015   12        6    23  23    3.8859   506.1    5.323      44.765
2015   12        6    23  30    3.8855   506.2    5.322      44.781
2015   12        6    23  37    3.8851   506.3    5.321      44.796
2015   12        6    23  44    3.8846   506.4    5.319      44.811
2015   12        6    23  50    3.8841   506.5    5.318      44.827
2015   12        6    23  57    3.8836   506.6    5.317      44.842
2015   12        7     0   4    3.8830   506.7    5.315      44.858
2015   12        7     0  11    3.8824   506.9    5.314      44.874
2015   12        7     0  17    3.8817   507.0    5.312      44.890
2015   12        7     0  24    3.8810   507.1    5.310      44.906
2015   12        7     0  31    3.8803   507.2    5.308      44.922
2015   12        7     0  38    3.8795   507.3    5.307      44.938
2015   12        7     0  45    3.8788   507.4    5.304      44.953
2015   12        7     0  51    3.8779   507.5    5.302      44.969
2015   12        7     0  58    3.8771   507.7    5.300      44.984
2015   12        7     1   5    3.8762   507.8    5.298      44.999
2015   12        7     1  12    3.8753   507.9    5.295      45.014
2015   12        7     1  19    3.8744   508.0    5.292      45.028
2015   12        7     1  25    3.8735   508.1    5.290      45.043
2015   12        7     1  32    3.8726   508.2    5.287      45.057
2015   12        7     1  39    3.8716   508.4    5.284      45.071
2015   12        7     1  46    3.8706   508.5    5.281      45.086
2015   12        7     1  52    3.8695   508.6    5.278      45.099
2015   12        7     1  59    3.8686   508.7    5.274      45.113
2015   12        7     2   6    3.8675   508.8    5.271      45.126
2015   12        7     2  13    3.8663   509.0    5.268      45.139
2015   12        7     2  20    3.8652   509.1    5.264      45.152
2015   12        7     2  26    3.8641   509.2    5.261      45.164
2015   12        7     2  33    3.8631   509.3    5.257      45.176
2015   12        7     2  40    3.8619   509.4    5.254      45.188
2015   12        7     2  47    3.8607   509.5    5.250      45.199
2015   12        7     2  54    3.8595   509.7    5.246      45.210
2015   12        7     3   0    3.8583   509.8    5.243      45.221
2015   12        7     3   7    3.8571   509.9    5.239      45.231
2015   12        7     3  14    3.8559   510.0    5.235      45.241
2015   12        7     3  21    3.8546   510.1    5.231      45.251
2015   12        7     3  28    3.8533   510.2    5.228      45.260
2015   12        7     3  34    3.8520   510.4    5.224      45.269
2015   12        7     3  41    3.8506   510.5    5.220      45.278
2015   12        7     3  48    3.8494   510.6    5.216      45.286
2015   12        7     3  55    3.8478   510.7    5.212      45.294
2015   12        7     4   1    3.8463   510.8    5.208      45.301
2015   12        7     4   8    3.8448   510.9    5.205      45.309
2015   12        7     4  15    3.8433   511.0    5.201      45.316
2015   12        7     4  22    3.8417   511.2    5.197      45.323
2015   12        7     4  29    3.8401   511.3    5.193      45.330
2015   12        7     4  35    3.8384   511.4    5.189      45.337
2015   12        7     4  42    3.8367   511.5    5.185      45.343
2015   12        7     4  49    3.8352   511.6    5.181      45.349
2015   12        7     4  56    3.8332   511.7    5.177      45.354
2015   12        7     5   3    3.8314   511.8    5.173      45.358
2015   12        7     5   9    3.8295   511.9    5.168      45.362
2015   12        7     5  16    3.8276   512.0    5.164      45.366
2015   12        7     5  23    3.8256   512.1    5.160      45.368
2015   12        7     5  30    3.8236   512.2    5.156      45.370
2015   12        7     5  36    3.8217   512.3    5.151      45.372
2015   12        7     5  43    3.8194   512.4    5.147      45.373
2015   12        7     5  50    3.8172   512.5    5.142      45.373
2015   12        7     5  57    3.8150   512.6    5.138      45.374
2015   12        7     6   4    3.8128   512.8    5.133      45.373
2015   12        7     6  10    3.8107   512.9    5.129      45.372
2015   12        7     6  17    3.8081   513.0    5.124      45.370
2015   12        7     6  24    3.8057   513.1    5.119      45.368
2015   12        7     6  31    3.8033   513.2    5.114      45.365
2015   12        7     6  38    3.8008   513.3    5.109      45.361
2015   12        7     6  44    3.7982   513.4    5.104      45.356
2015   12        7     6  51    3.7959   513.5    5.098      45.351
2015   12        7     6  58    3.7931   513.6    5.093      45.344
2015   12        7     7   5    3.7904   513.7    5.087      45.337
2015   12        7     7  11    3.7877   513.8    5.082      45.330
2015   12        7     7  18    3.7850   513.9    5.076      45.322
2015   12        7     7  25    3.7822   514.0    5.070      45.313
2015   12        7     7  32    3.7794   514.1    5.064      45.303
2015   12        7     7  39    3.7769   514.2    5.058      45.293
2015   12        7     7  45    3.7738   514.3    5.052      45.282
2015   12        7     7  52    3.7709   514.4    5.046      45.270
2015   12        7     7  59    3.7680   514.5    5.040      45.258
2015   12        7     8   6    3.7654   514.5    5.034      45.246
2015   12        7     8  13    3.7624   514.6    5.028      45.233
2015   12        7     8  19    3.7593   514.7    5.021      45.219
2015   12        7     8  26    3.7563   514.8    5.015      45.206
2015   12        7     8  33    3.7534   514.9    5.009      45.191
2015   12        7     8  40    3.7504   515.0    5.002      45.176
2015   12        7     8  46    3.7474   515.1    4.996      45.161
2015   12        7     8  53    3.7443   515.2    4.989      45.145
2015   12        7     9   0    3.7415   515.3    4.983      45.129
2015   12        7     9   7    3.7383   515.3    4.976      45.112
2015   12        7     9  14    3.7352   515.4    4.970      45.095
2015   12        7     9  20    3.7321   515.5    4.963      45.078
2015   12        7     9  27    3.7291   515.6    4.957      45.060
2015   12        7     9  34    3.7260   515.7    4.950      45.042
2015   12        7     9  41    3.7229   515.7    4.943      45.024
2015   12        7     9  48    3.7197   515.8    4.937      45.005
2015   12        7     9  54    3.7166   515.9    4.930      44.987
2015   12        7    10   1    3.7137   516.0    4.923      44.968
2015   12        7    10   8    3.7103   516.0    4.917      44.949
2015   12        7    10  15    3.7071   516.1    4.910      44.929
2015   12        7    10  21    3.7042   516.2    4.904      44.910
2015   12        7    10  28    3.7010   516.3    4.897      44.890
2015   12        7    10  35    3.6976   516.3    4.891      44.870
2015   12        7    10  42    3.6943   516.4    4.884      44.850
2015   12        7    10  49    3.6910   516.5    4.878      44.830
2015   12        7    10  55    3.6877   516.5    4.871      44.809
2015   12        7    11   2    3.6844   516.6    4.865      44.788
2015   12        7    11   9    3.6811   516.7    4.858      44.766
2015   12        7    11  16    3.6777   516.7    4.852      44.744
2015   12        7    11  23    3.6743   516.8    4.846      44.722
2015   12        7    11  29    3.6709   516.8    4.840      44.699
2015   12        7    11  36    3.6674   516.9    4.833      44.676
2015   12        7    11  43    3.6640   516.9    4.827      44.653
2015   12        7    11  50    3.6605   517.0    4.821      44.629
2015   12        7    11  57    3.6570   517.0    4.815      44.606
2015   12        7    12   3    3.6534   517.1    4.809      44.581
2015   12        7    12  10    3.6499   517.1    4.803      44.557
2015   12        7    12  17    3.6463   517.2    4.797      44.532
2015   12        7    12  24    3.6427   517.2    4.792      44.507
2015   12        7    12  30    3.6393   517.2    4.786      44.482
2015   12        7    12  37    3.6357   517.3    4.780      44.456
2015   12        7    12  44    3.6319   517.3    4.774      44.429
2015   12        7    12  51    3.6282   517.3    4.769      44.403
2015   12        7    12  58    3.6246   517.4    4.763      44.376
2015   12        7    13   4    3.6209   517.4    4.758      44.349
2015   12        7    13  11    3.6173   517.4    4.752      44.321
2015   12        7    13  18    3.6136   517.4    4.747      44.293
2015   12        7    13  25    3.6100   517.4    4.741      44.264
2015   12        7    13  32    3.6062   517.5    4.736      44.235
2015   12        7    13  38    3.6025   517.5    4.731      44.206
2015   12        7    13  45    3.5989   517.5    4.725      44.176
2015   12        7    13  52    3.5952   517.5    4.720      44.146
2015   12        7    13  59    3.5914   517.5    4.715      44.116
2015   12        7    14   5    3.5876   517.5    4.709      44.085
2015   12        7    14  12    3.5840   517.5    4.704      44.054
2015   12        7    14  19    3.5803   517.5    4.699      44.023
2015   12        7    14  26    3.5765   517.5    4.694      43.991
2015   12        7    14  33    3.5728   517.5    4.688      43.959
2015   12        7    14  39    3.5692   517.5    4.683      43.926
2015   12        7    14  46    3.5655   517.4    4.678      43.894
2015   12        7    14  53    3.5618   517.4    4.673      43.861
2015   12        7    15   0    3.5581   517.4    4.668      43.827
2015   12        7    15   7    3.5546   517.4    4.662      43.794
2015   12        7    15  13    3.5510   517.4    4.657      43.760
2015   12        7    15  20    3.5473   517.3    4.652      43.725
2015   12        7    15  27    3.5438   517.3    4.646      43.690
2015   12        7    15  34    3.5403   517.3    4.641      43.655
2015   12        7    15  40    3.5368   517.3    4.636      43.619
2015   12        7    15  47    3.5333   517.2    4.631      43.582
2015   12        7    15  54    3.5298   517.2    4.625      43.545
2015   12        7    16   1    3.5264   517.2    4.620      43.508
2015   12        7    16   8    3.5230   517.2    4.614      43.470
2015   12        7    16  14    3.5196   517.1    4.609      43.432
2015   12        7    16  21    3.5162   517.1    4.604      43.393
2015   12        7    16  28    3.5128   517.1    4.598      43.353
2015   12        7    16  35    3.5094   517.0    4.593      43.314
2015   12        7    16  42    3.5060   517.0    4.587      43.273
2015   12        7    16  48    3.5026   516.9    4.582      43.233
2015   12        7    16  55    3.4993   516.9    4.576      43.192
2015   12        7    17   2    3.4959   516.9    4.571      43.151
2015   12        7    17   9    3.4926   516.8    4.565      43.109
2015   12        7    17  15    3.4892   516.8    4.560      43.068
2015   12        7    17  22    3.4858   516.7    4.555      43.026
2015   12        7    17  29    3.4825   516.7    4.549      42.983
2015   12        7    17  36    3.4791   516.6    4.544      42.941
2015   12        7    17  43    3.4758   516.6    4.539      42.898
2015   12        7    17  49    3.4725   516.5    4.533      42.855
2015   12        7    17  56    3.4692   516.5    4.528      42.812
2015   12        7    18   3    3.4658   516.4    4.523      42.769
2015   12        7    18  10    3.4625   516.4    4.518      42.726
2015   12        7    18  17    3.4592   516.3    4.513      42.682
2015   12        7    18  23    3.4559   516.3    4.508      42.638
2015   12        7    18  30    3.4526   516.2    4.503      42.595
2015   12        7    18  37    3.4493   516.2    4.498      42.551
2015   12        7    18  44    3.4460   516.1    4.493      42.507
2015   12        7    18  50    3.4427   516.0    4.489      42.463
2015   12        7    18  57    3.4394   516.0    4.484      42.419
2015   12        7    19   4    3.4362   515.9    4.480      42.375
2015   12        7    19  11    3.4329   515.8    4.475      42.332
2015   12        7    19  18    3.4297   515.8    4.471      42.288
2015   12        7    19  24    3.4264   515.7    4.467      42.245
2015   12        7    19  31    3.4231   515.6    4.463      42.202
2015   12        7    19  38    3.4199   515.6    4.459      42.159
2015   12        7    19  45    3.4167   515.5    4.456      42.117
2015   12        7    19  52    3.4135   515.4    4.452      42.075
2015   12        7    19  58    3.4103   515.3    4.449      42.034
2015   12        7    20   5    3.4072   515.2    4.446      41.993
2015   12        7    20  12    3.4039   515.2    4.443      41.953
2015   12        7    20  19    3.4009   515.1    4.440      41.913
2015   12        7    20  26    3.3977   515.0    4.437      41.874
2015   12        7    20  32    3.3946   514.9    4.435      41.835
2015   12        7    20  39    3.3915   514.8    4.432      41.797
2015   12        7    20  46    3.3884   514.8    4.430      41.760
2015   12        7    20  53    3.3854   514.7    4.428      41.723
2015   12        7    20  59    3.3823   514.6    4.426      41.687
2015   12        7    21   6    3.3792   514.5    4.424      41.651
2015   12        7    21  13    3.3762   514.4    4.422      41.616
2015   12        7    21  20    3.3731   514.3    4.420      41.582
2015   12        7    21  27    3.3701   514.2    4.419      41.547
2015   12        7    21  33    3.3671   514.1    4.417      41.513
2015   12        7    21  40    3.3640   514.0    4.415      41.479
2015   12        7    21  47    3.3611   513.9    4.413      41.445
2015   12        7    21  54    3.3581   513.8    4.411      41.411
2015   12        7    22   1    3.3550   513.7    4.410      41.377
2015   12        7    22   7    3.3522   513.6    4.408      41.343
2015   12        7    22  14    3.3493   513.5    4.406      41.309
2015   12        7    22  21    3.3464   513.4    4.404      41.274
2015   12        7    22  28    3.3437   513.2    4.402      41.239
2015   12        7    22  34    3.3407   513.1    4.399      41.203
2015   12        7    22  41    3.3381   513.0    4.397      41.167
2015   12        7    22  48    3.3354   512.9    4.395      41.131
2015   12        7    22  55    3.3326   512.8    4.393      41.094
2015   12        7    23   2    3.3301   512.7    4.390      41.056
2015   12        7    23   8    3.3275   512.6    4.388      41.018
2015   12        7    23  15    3.3249   512.4    4.385      40.979
2015   12        7    23  22    3.3224   512.3    4.383      40.940
2015   12        7    23  29    3.3197   512.2    4.380      40.900
2015   12        7    23  36    3.3172   512.1    4.378      40.859
2015   12        7    23  42    3.3149   512.0    4.375      40.818
2015   12        7    23  49    3.3124   511.8    4.373      40.776
2015   12        7    23  56    3.3100   511.7    4.370      40.735
2015   12        8     0   3    3.3074   511.6    4.367      40.692
2015   12        8     0   9    3.3049   511.4    4.364      40.650
2015   12        8     0  16    3.3025   511.3    4.362      40.607
2015   12        8     0  23    3.3002   511.2    4.359      40.563
2015   12        8     0  30    3.2976   511.1    4.356      40.520
2015   12        8     0  37    3.2954   510.9    4.353      40.476
2015   12        8     0  43    3.2930   510.8    4.350      40.432
2015   12        8     0  50    3.2905   510.7    4.348      40.388
2015   12        8     0  57    3.2881   510.5    4.345      40.343
2015   12        8     1   4    3.2857   510.4    4.342      40.299
2015   12        8     1  11    3.2834   510.3    4.339      40.254
2015   12        8     1  17    3.2810   510.1    4.336      40.209
2015   12        8     1  24    3.2788   510.0    4.334      40.163
2015   12        8     1  31    3.2763   509.9    4.331      40.118
2015   12        8     1  38    3.2740   509.7    4.328      40.072
2015   12        8     1  44    3.2718   509.6    4.325      40.027
2015   12        8     1  51    3.2693   509.4    4.323      39.981
2015   12        8     1  58    3.2671   509.3    4.320      39.935
2015   12        8     2   5    3.2647   509.2    4.317      39.889
2015   12        8     2  12    3.2624   509.0    4.314      39.843
2015   12        8     2  18    3.2602   508.9    4.312      39.797
2015   12        8     2  25    3.2578   508.7    4.309      39.751
2015   12        8     2  32    3.2554   508.6    4.307      39.706
2015   12        8     2  39    3.2532   508.5    4.304      39.660
2015   12        8     2  46    3.2509   508.3    4.302      39.614
2015   12        8     2  52    3.2486   508.2    4.300      39.569
2015   12        8     2  59    3.2463   508.0    4.297      39.523
2015   12        8     3   6    3.2440   507.9    4.295      39.478
2015   12        8     3  13    3.2418   507.7    4.293      39.434
2015   12        8     3  19    3.2395   507.6    4.291      39.389
2015   12        8     3  26    3.2371   507.4    4.289      39.345
2015   12        8     3  33    3.2349   507.3    4.288      39.302
2015   12        8     3  40    3.2327   507.1    4.286      39.258
2015   12        8     3  47    3.2304   507.0    4.285      39.216
2015   12        8     3  53    3.2282   506.8    4.283      39.173
2015   12        8     4   0    3.2260   506.7    4.282      39.132
2015   12        8     4   7    3.2237   506.5    4.281      39.090
2015   12        8     4  14    3.2215   506.4    4.280      39.050
2015   12        8     4  21    3.2193   506.2    4.279      39.010
2015   12        8     4  27    3.2170   506.1    4.278      38.971
2015   12        8     4  34    3.2149   505.9    4.278      38.932
2015   12        8     4  41    3.2127   505.8    4.277      38.894
2015   12        8     4  48    3.2106   505.6    4.277      38.856
2015   12        8     4  54    3.2084   505.4    4.277      38.819
2015   12        8     5   1    3.2063   505.3    4.276      38.782
2015   12        8     5   8    3.2042   505.1    4.276      38.746
2015   12        8     5  15    3.2020   504.9    4.276      38.710
2015   12        8     5  22    3.2000   504.8    4.276      38.674
2015   12        8     5  28    3.1980   504.6    4.276      38.638
2015   12        8     5  35    3.1960   504.4    4.276      38.603
2015   12        8     5  42    3.1941   504.3    4.276      38.568
2015   12        8     5  49    3.1921   504.1    4.276      38.533
2015   12        8     5  56    3.1902   503.9    4.277      38.498
2015   12        8     6   2    3.1884   503.8    4.277      38.463
2015   12        8     6   9    3.1866   503.6    4.278      38.429
2015   12        8     6  16    3.1849   503.4    4.278      38.394
2015   12        8     6  23    3.1831   503.2    4.279      38.360
2015   12        8     6  29    3.1815   503.1    4.279      38.326
2015   12        8     6  36    3.1798   502.9    4.280      38.292
2015   12        8     6  43    3.1782   502.7    4.281      38.258
2015   12        8     6  50    3.1766   502.5    4.281      38.225
2015   12        8     6  57    3.1749   502.4    4.282      38.192
2015   12        8     7   3    3.1734   502.2    4.283      38.159
2015   12        8     7  10    3.1717   502.0    4.284      38.127
2015   12        8     7  17    3.1702   501.9    4.284      38.094
2015   12        8     7  24    3.1686   501.7    4.285      38.062
2015   12        8     7  31    3.1672   501.5    4.286      38.030
2015   12        8     7  37    3.1657   501.3    4.286      37.998
2015   12        8     7  44    3.1641   501.1    4.287      37.965
2015   12        8     7  51    3.1625   501.0    4.287      37.933
2015   12        8     7  58    3.1610   500.8    4.287      37.900
2015   12        8     8   4    3.1595   500.6    4.287      37.867
2015   12        8     8  11    3.1580   500.5    4.287      37.833
2015   12        8     8  18    3.1565   500.3    4.287      37.798
2015   12        8     8  25    3.1549   500.1    4.287      37.764
2015   12        8     8  32    3.1535   499.9    4.287      37.728
2015   12        8     8  38    3.1519   499.8    4.287      37.692
2015   12        8     8  45    3.1504   499.6    4.286      37.655
2015   12        8     8  52    3.1487   499.4    4.286      37.618
2015   12        8     8  59    3.1472   499.2    4.285      37.580
2015   12        8     9   6    3.1456   499.1    4.284      37.541
2015   12        8     9  12    3.1442   498.9    4.283      37.502
2015   12        8     9  19    3.1427   498.7    4.282      37.463
2015   12        8     9  26    3.1411   498.5    4.281      37.422
2015   12        8     9  33    3.1394   498.4    4.280      37.382
2015   12        8     9  40    3.1379   498.2    4.279      37.340
2015   12        8     9  46    3.1364   498.0    4.278      37.298
2015   12        8     9  53    3.1348   497.8    4.277      37.256
2015   12        8    10   0    3.1332   497.7    4.275      37.213
2015   12        8    10   7    3.1318   497.5    4.274      37.170
2015   12        8    10  13    3.1301   497.3    4.272      37.126
2015   12        8    10  20    3.1285   497.1    4.271      37.081
2015   12        8    10  27    3.1271   496.9    4.269      37.037
2015   12        8    10  34    3.1254   496.7    4.268      36.992
2015   12        8    10  41    3.1240   496.6    4.266      36.946
2015   12        8    10  47    3.1223   496.4    4.264      36.900
2015   12        8    10  54    3.1209   496.2    4.263      36.854
2015   12        8    11   1    3.1194   496.0    4.261      36.808
2015   12        8    11   8    3.1178   495.8    4.260      36.761
2015   12        8    11  15    3.1163   495.6    4.258      36.715
2015   12        8    11  21    3.1148   495.4    4.256      36.668
2015   12        8    11  28    3.1133   495.2    4.255      36.622
2015   12        8    11  35    3.1117   495.0    4.254      36.575
2015   12        8    11  42    3.1104   494.8    4.252      36.529
2015   12        8    11  48    3.1089   494.6    4.251      36.483
2015   12        8    11  55    3.1074   494.4    4.250      36.437
2015   12        8    12   2    3.1061   494.2    4.249      36.392
2015   12        8    12   9    3.1046   494.0    4.248      36.346
2015   12        8    12  16    3.1032   493.8    4.247      36.302
2015   12        8    12  22    3.1019   493.6    4.246      36.258
2015   12        8    12  29    3.1006   493.4    4.245      36.214
2015   12        8    12  36    3.0993   493.1    4.245      36.171
2015   12        8    12  43    3.0981   492.9    4.245      36.128
2015   12        8    12  50    3.0967   492.7    4.244      36.086
2015   12        8    12  56    3.0956   492.5    4.244      36.045
2015   12        8    13   3    3.0943   492.3    4.244      36.005
2015   12        8    13  10    3.0932   492.1    4.245      35.965
2015   12        8    13  17    3.0920   491.9    4.245      35.925
2015   12        8    13  23    3.0909   491.7    4.246      35.887
2015   12        8    13  30    3.0898   491.4    4.246      35.849
2015   12        8    13  37    3.0887   491.2    4.247      35.813
2015   12        8    13  44    3.0877   491.0    4.248      35.777
2015   12        8    13  51    3.0867   490.8    4.249      35.743
2015   12        8    13  57    3.0857   490.6    4.250      35.709
2015   12        8    14   4    3.0848   490.4    4.251      35.677
2015   12        8    14  11    3.0838   490.1    4.253      35.645
2015   12        8    14  18    3.0829   489.9    4.254      35.614
2015   12        8    14  25    3.0820   489.7    4.256      35.584
2015   12        8    14  31    3.0811   489.5    4.258      35.556
2015   12        8    14  38    3.0803   489.3    4.259      35.527
2015   12        8    14  45    3.0795   489.1    4.261      35.500
2015   12        8    14  52    3.0786   488.8    4.263      35.473
2015   12        8    14  58    3.0778   488.6    4.265      35.446
2015   12        8    15   5    3.0770   488.4    4.267      35.419
2015   12        8    15  12    3.0763   488.2    4.269      35.393
2015   12        8    15  19    3.0755   488.0    4.271      35.367
2015   12        8    15  26    3.0748   487.8    4.273      35.341
2015   12        8    15  32    3.0740   487.6    4.275      35.315
2015   12        8    15  39    3.0733   487.4    4.277      35.289
2015   12        8    15  46    3.0726   487.1    4.279      35.263
2015   12        8    15  53    3.0718   486.9    4.281      35.238
2015   12        8    16   0    3.0711   486.7    4.283      35.212
2015   12        8    16   6    3.0704   486.5    4.286      35.186
2015   12        8    16  13    3.0697   486.3    4.288      35.160
2015   12        8    16  20    3.0689   486.1    4.290      35.133
2015   12        8    16  27    3.0682   485.9    4.292      35.107
2015   12        8    16  33    3.0675   485.7    4.294      35.080
2015   12        8    16  40    3.0667   485.5    4.296      35.053
2015   12        8    16  47    3.0660   485.2    4.299      35.026
2015   12        8    16  54    3.0653   485.0    4.301      34.998
2015   12        8    17   1    3.0646   484.8    4.303      34.970
2015   12        8    17   7    3.0638   484.6    4.305      34.942
2015   12        8    17  14    3.0631   484.4    4.307      34.913
2015   12        8    17  21    3.0624   484.2    4.309      34.884
2015   12        8    17  28    3.0617   484.0    4.310      34.855
2015   12        8    17  35    3.0610   483.7    4.312      34.825
2015   12        8    17  41    3.0603   483.5    4.314      34.795
2015   12        8    17  48    3.0596   483.3    4.316      34.764
2015   12        8    17  55    3.0590   483.1    4.317      34.734
2015   12        8    18   2    3.0583   482.9    4.319      34.703
2015   12        8    18   9    3.0577   482.6    4.320      34.671
2015   12        8    18  15    3.0570   482.4    4.322      34.639
2015   12        8    18  22    3.0564   482.2    4.323      34.607
2015   12        8    18  29    3.0558   482.0    4.325      34.575
2015   12        8    18  36    3.0553   481.8    4.326      34.542
2015   12        8    18  42    3.0547   481.5    4.327      34.510
2015   12        8    18  49    3.0542   481.3    4.328      34.477
2015   12        8    18  56    3.0537   481.1    4.330      34.444
2015   12        8    19   3    3.0532   480.9    4.331      34.410
2015   12        8    19  10    3.0527   480.6    4.332      34.377
2015   12        8    19  16    3.0522   480.4    4.333      34.344
2015   12        8    19  23    3.0518   480.2    4.334      34.310
2015   12        8    19  30    3.0514   480.0    4.335      34.276
2015   12        8    19  37    3.0509   479.7    4.336      34.242
2015   12        8    19  44    3.0506   479.5    4.337      34.208
2015   12        8    19  50    3.0502   479.3    4.338      34.174
2015   12        8    19  57    3.0498   479.0    4.339      34.140
2015   12        8    20   4    3.0494   478.8    4.340      34.105
2015   12        8    20  11    3.0492   478.6    4.341      34.071
2015   12        8    20  17    3.0488   478.3    4.342      34.036
2015   12        8    20  24    3.0486   478.1    4.343      34.002
2015   12        8    20  31    3.0483   477.9    4.344      33.968
2015   12        8    20  38    3.0480   477.6    4.345      33.933
2015   12        8    20  45    3.0478   477.4    4.346      33.899
2015   12        8    20  51    3.0477   477.2    4.347      33.865
2015   12        8    20  58    3.0474   476.9    4.348      33.831
2015   12        8    21   5    3.0474   476.7    4.349      33.798
2015   12        8    21  12    3.0474   476.4    4.351      33.765
2015   12        8    21  19    3.0473   476.2    4.352      33.732
2015   12        8    21  25    3.0473   476.0    4.354      33.700
2015   12        8    21  32    3.0474   475.7    4.356      33.669
2015   12        8    21  39    3.0475   475.5    4.358      33.638
2015   12        8    21  46    3.0476   475.2    4.360      33.609
2015   12        8    21  52    3.0478   475.0    4.362      33.580
2015   12        8    21  59    3.0480   474.7    4.365      33.552
2015   12        8    22   6    3.0485   474.5    4.368      33.525
2015   12        8    22  13    3.0488   474.2    4.371      33.498
2015   12        8    22  20    3.0492   474.0    4.374      33.473
2015   12        8    22  26    3.0498   473.7    4.377      33.449
2015   12        8    22  33    3.0503   473.5    4.381      33.426
2015   12        8    22  40    3.0509   473.2    4.385      33.405
2015   12        8    22  47    3.0515   473.0    4.390      33.384
2015   12        8    22  54    3.0521   472.8    4.394      33.364
2015   12        8    23   0    3.0528   472.5    4.399      33.346
2015   12        8    23   7    3.0537   472.3    4.404      33.329
2015   12        8    23  14    3.0545   472.0    4.409      33.312
2015   12        8    23  21    3.0554   471.8    4.415      33.297
2015   12        8    23  27    3.0563   471.6    4.421      33.282
2015   12        8    23  34    3.0573   471.3    4.427      33.269
2015   12        8    23  41    3.0583   471.1    4.433      33.256
2015   12        8    23  48    3.0594   470.8    4.439      33.244
2015   12        8    23  55    3.0605   470.6    4.446      33.233
2015   12        9     0   1    3.0616   470.4    4.453      33.223
